#   1 NUMBER                 Running object number                                     
#   2 X_IMAGE                Object position along x                                    [pixel]
#   3 Y_IMAGE                Object position along y                                    [pixel]
#   4 ALPHA_J2000            Right ascension of barycenter (J2000)                      [deg]
#   5 DELTA_J2000            Declination of barycenter (J2000)                          [deg]
#   6 FLUX_APER              Flux vector within fixed circular aperture(s)              [count]
#   9 FLUXERR_APER           RMS error vector for aperture flux(es)                     [count]
#  12 FLUX_RADIUS            Fraction-of-light radii                                    [pixel]
#  13 FWHM_IMAGE             FWHM assuming a gaussian core                              [pixel]
#  14 BACKGROUND             Background at centroid position                            [count]
#  15 THRESHOLD              Detection threshold above background                       [count]
#  16 FLUX_MAX               Peak flux above background                                 [count]
#  17 ISOAREA_IMAGE          Isophotal area above Analysis threshold                    [pixel**2]
#  18 A_IMAGE                Profile RMS along major axis                               [pixel]
#  19 B_IMAGE                Profile RMS along minor axis                               [pixel]
#  20 THETA_IMAGE            Position angle (CCW/x)                                     [deg]
#  21 FLAGS                  Extraction flags                                          
         1      2.8613     84.0484 307.9360429  +6.6319958     731571.8      1407456      1492970     77.90293     143.4854     257.3694      2.018     7.31     834.1903     54.77978     64265.85       318     2.150     1.614 -83.34  28
         2    257.2285     13.0820 307.8327665  +6.6698445     832.2773     1238.229     1437.515     77.77957     155.2502     310.7168      1.485     4.10     828.2582     54.77978     116.8536         8     0.899     0.671 -84.42   0
         3    179.4375     11.0530 307.8651558  +6.6680671     11243.26     16438.93     17137.33     77.77957     155.4356     310.7786      1.559     3.22     827.4261     54.77978     1588.841        37     1.420     1.048 -61.59   0
         4    925.1480      8.8458 307.5553872  +6.6939574     4502.174     6268.852     6389.464      78.0261     155.3738     310.8404      1.447     3.14     814.2081     54.77978     665.7498        27     1.276     1.006 -64.64   0
         5    523.7708      9.3042 307.7221480  +6.6803473     3235.073     4498.192     4474.793      78.0261     155.1883     310.7786      1.504     3.57     816.3908     54.77978     459.9473        22     1.299     0.927 -52.69   0
         6    725.9517      7.3998 307.6382049  +6.6879007     2100.653     2953.601     2829.739     77.15981     155.0026      305.732      1.447     2.78     815.4052     54.77978     374.0411        16     1.127     0.822 -66.47  16
         7    461.9859      7.6754 307.7478745  +6.6789486     2033.828     2808.493     2975.595      77.4083     155.1883     307.5483      1.478     4.06     818.1078     54.77978     302.4554        17     1.299     0.807 -61.52  16
         8    989.8770      5.1868 307.5286139  +6.6976268     2130.164     3252.815     3186.459     77.53226     155.1264     286.4349      1.600     3.40     808.3246     54.77978      352.314        19     1.337     0.822 -63.05  16
         9    709.2150      1.9954 307.6453411  +6.6895718     7271.755     9066.361     9005.542     74.75784     132.7073     244.1581      1.316     3.50     815.2929     54.77978     1247.515        21     1.191     0.855 -33.99  24
        10    629.2596      1.6168 307.6785762  +6.6870530     2540.901     3205.248     3258.204     70.93506     127.9175     238.3065      1.259     3.60      815.319     54.77978     509.0604        16     1.313     0.684 -11.34  24
        11    623.0422   1010.6808 307.6471751  +6.2703365     506.4203     525.1757     545.5193     77.90293     155.4356     310.7477      1.204     2.90     851.1003     54.77978     113.3682         5     0.760     0.414 -19.73   0
        12    891.7913   1022.4320 307.5352024  +6.2744634     1415.292     1910.074     1692.633     77.40831     139.9621     252.8524      1.539     4.21     846.1572     54.77978     200.8317        14     1.092     0.980 -38.49  24
        13    794.0969   1023.6909 307.5757205  +6.2706831     2250.133     2837.284     3337.947     67.32343     123.5645      233.421      1.128     2.65     847.8024     54.77978     651.9185        11     1.052     0.534   1.87  24
        14    584.7935   1021.3757 307.6626947  +6.2646423      76619.4     113158.9     118238.9     77.40831      150.731     267.5407      1.610     3.29     851.6978     54.77978      10840.3        81     1.518     1.273 -46.28  24
        15    711.6139   1008.0145 307.6104922  +6.2743984     918.0922     1604.955     2166.453     77.77957     155.1264     310.7168      1.839     4.39     849.5411     54.77978     134.9915         9     1.104     0.621 -62.79   0
        16    241.9072   1007.5445 307.8055134  +6.2588587     1384.916     2219.323     2529.285     77.77957     155.4356     310.9639      1.767     4.43     850.0143     54.77978     177.5887        13     1.172     0.781 -75.94   0
        17    717.0815   1005.5961 307.6083034  +6.2755793     2676.425     4149.464     4624.383      77.4083     155.0026     310.5004      1.719     3.49     849.4808     54.77978     380.6965        22     1.340     0.926 -62.53   0
        18    440.1546   1006.3364 307.7232503  +6.2660068     829.1647     1258.296     1328.158     77.90293     155.3738     310.8095      1.611     3.90     852.0176     54.77978     126.2288         9     0.956     0.633 -69.83   0
        19    733.0577   1004.3614 307.6017120  +6.2766228     1153.675     1409.337      896.668     77.90293     155.4974     310.7786      1.389     3.03     849.4037     54.77978      198.425        11     1.009     0.692  70.67   0
        20    363.6105   1003.0445 307.7551395  +6.2647997     1961.657     2934.016     3278.931      77.4083      155.312     310.5004      1.614     3.72     851.9091     54.77978      268.975        18     1.258     0.898 -52.50   0
        21    973.5851    999.6026 307.5020088  +6.2866144     461.9387     744.9454     812.5753     77.53226     155.1264     310.6241      1.877     4.66     842.8008     54.77978     68.21558         5     1.371     0.449  45.54   0
        22    702.3751    999.0465 307.6146295  +6.2777913     500.0348     551.3292     483.1346     77.53226     155.4356      310.655      1.165     3.49      849.313     54.77978     99.12024         5     0.809     0.434  71.68   0
        23    750.6473    992.6018 307.5948044  +6.2820645     8306.719     12494.31     13394.27     77.28416     155.1264     310.3766      1.654     3.34     848.5816     54.77978         1146        37     1.386     1.177 -46.04   0
        24    546.1802    993.1683 307.6796756  +6.2749931     4477.712     6917.521     7268.064      77.4083     155.2502     310.6241      1.611     3.11     851.0808     54.77978     587.2982        31     1.438     1.060 -62.19   0
        25    516.2819    994.2393 307.6920525  +6.2735501     1117.557     1242.259     362.4015     77.90293     155.4974     310.7168      1.301     4.52     851.3777     54.77978      201.275         8     1.060     0.565 -54.64   0
        26    420.2655    992.6083 307.7319704  +6.2710068      1009.89     1436.082      1187.59     77.40831     155.1883      310.655      1.448     5.42      851.694     54.77978     169.2055        14     1.470     0.737 -60.20   0
        27    296.3828    991.7819 307.7834299  +6.2671933     15642.29     23431.58     25481.51     77.65601     155.1264     310.7168      1.641     3.37     851.2704     54.77978     2145.747        54     1.794     1.125 -39.73   0
        28    811.5953    991.7657 307.5695279  +6.2844452     1139.618     1638.005      1315.36     77.15981      155.312     310.5622      1.578     4.61     846.6772     54.77978     170.1451        13     1.133     0.868 -74.19   0
        29    267.8275    989.2382 307.7953707  +6.2672849     1092.706     1493.742     1490.207     77.53226     155.2502     310.6241      1.428     3.41     850.4954     54.77978      174.097        12     0.963     0.891  -5.78   0
        30    912.0665    986.0613 307.5280050  +6.2901526      8531.08     13948.73     14766.32     77.90293     155.3738     310.7786      1.737     3.61     845.2485     54.77978     1037.847        41     1.430     1.293 -57.92   0
        31    543.2944    985.3688 307.6811364  +6.2781159     8926.772      13011.6     14433.04      78.0261     155.2502     310.8095      1.603     3.20     850.9951     54.77978     1199.592        35     1.375     1.073 -62.45   0
        32    885.6530    982.2624 307.5390991  +6.2908396     12408.52      20113.8     21774.34     77.90293     155.3738     310.7477      1.777     3.51     845.5159     54.77978     1473.056        55     1.600     1.350 -42.21   0
        33     42.2088    985.5203 307.8891624  +6.2612382     421.3008     648.5793     917.7169     77.53226     155.0645     310.6241      1.316     4.86     847.0106     54.77978     84.62732         5     1.061     0.631 -62.40   0
        34   1007.3680    981.6826 307.4885833  +6.2951373     4648.219     7844.423       7897.9     77.90293     155.2502      310.655      1.811     3.61     841.0451     54.77978     580.1827        35     1.479     1.223 -59.43   0
        35    598.3767    982.3124 307.6583704  +6.2812209      1478.89     2059.379     1872.646     77.90293     155.2502      310.655      1.494     3.60     850.5996     54.77978     199.7214        15     1.088     0.913 -23.23   0
        36    529.6857    981.1915 307.6869271  +6.2793846     4422.622     6535.163     7200.008     77.53226     155.1264     310.6241      1.613     3.23     851.0421     54.77978     627.1453        28     1.354     1.241 -13.51   0
        37    639.4609    980.4755 307.6413748  +6.2833534     1623.664     2022.248     2231.663     78.14907     155.4356     310.7786      1.374     3.73     849.7421     54.77978     212.0388        15     1.251     0.782 -53.84   0
        38     64.6008    979.6553 307.8800650  +6.2644122      1006.49     1279.169     1252.611     77.28416     155.1883     310.4076      1.405     3.43     847.3004     54.77978     141.3756         9     1.051     0.587  81.90   0
        39    482.7225    977.6534 307.7065443  +6.2792723     2421.519     3469.715     3751.742      78.0261     155.4356     310.8095      1.567     3.51     851.3391     54.77978     325.7994        20     1.304     0.894 -52.88   0
        40    795.1422    978.6634 307.5767992  +6.2893041     557.8867     851.7467     1155.411      78.0261     155.3738     310.8095      1.297     2.59     846.7361     54.77978     109.1158         5     0.731     0.438 -17.59   0
        41    917.3347    969.8096 307.5263630  +6.2970366     42726.55     68759.91     72941.75      77.4083     155.2502     310.6859      1.741     3.50     844.8798     54.77978     5078.127        80     1.591     1.374 -52.48   0
        42    322.5572    971.2687 307.7732556  +6.2765386     475.8739     626.3532     721.8199     77.90293     155.3738     310.8712      1.685     5.19     850.6704     54.77978     65.17444         5     1.279     0.594 -63.43   0
        43    224.6329    968.1547 307.8140156  +6.2745372     1901.697     2863.451     2939.834     77.65601     155.4356     310.6241      1.555     3.57     848.9254     54.77978     263.4968        16     1.096     0.960 -71.22   0
        44    623.7206    966.3431 307.6483855  +6.2886604     813.2822     1010.127     727.8534     77.90293     155.4356     310.7786      1.375     4.48     849.6642     54.77978      129.159         9     1.206     0.505 -50.46   0
        45    112.5447    967.0422 307.8605877  +6.2712304      663.217     837.1492     550.3555     77.77957     155.3738     310.8095      1.321     3.74     847.7699     54.77978     119.4735         5     0.889     0.518 -45.07   0
        46    815.1578    963.7045 307.5689914  +6.2961470     2428.975     3794.476     4088.222     77.90293     155.3738     310.9022      1.736     3.74     846.0499     54.77978     322.6345        19     1.334     0.890 -66.85   0
        47    763.4132    961.5728 307.5905470  +6.2952989     6992.717     10609.35     11478.03     77.65601     155.2502     310.7168      1.684     3.68     847.3329     54.77978     944.2366        37     1.640     1.070 -70.36   0
        48    549.8260    961.0679 307.6792430  +6.2883652     983.4748     1541.544     1337.055     77.53226      155.312     310.6859      1.671     5.78     850.5969     54.77978     138.3726        13     1.147     0.877 -66.08   0
        49    197.4577    960.1113 307.8255696  +6.2769445     939.4875     1469.335     1428.898     77.90293     155.3738     310.9022      1.658     5.30     848.6541     54.77978     139.4991        12     1.427     0.687 -66.85   0
        50    951.7057    956.5202 307.5125381  +6.3036684     6748.355     11034.07     11085.34     77.65601     155.6826     310.8404      1.751     3.57     843.4867     54.77978     837.6497        38     1.458     1.241 -57.24   0
        51     57.7046    958.3649 307.8836484  +6.2729679     2908.341      4106.55      4220.09      78.0261      155.312     310.8712      1.582     3.58     846.8741     54.77978     402.0576        22     1.337     0.942 -54.78   0
        52    232.7408    960.3188 307.8109142  +6.2780438     1507.859     2194.271      2254.94      78.0261     155.4974     310.7786      1.574     3.31     849.0058     54.77978     246.4973        13     1.028     0.804 -59.13   0
        53    634.0195    950.4608 307.6446440  +6.2955606     713.9578     997.4921     1132.317     77.53226     155.3738     310.6859      1.383     3.42     848.9735     54.77978     114.6983         7     0.872     0.651 -64.99   0
        54    925.5122    948.0285 307.5236986  +6.3063000     2097.115     3333.895     2980.767      78.0261     155.1883      310.655      1.698     3.99     844.3318     54.77978     261.5884        20     1.267     1.039 -81.60   0
        55    785.0488    944.4891 307.5821381  +6.3030732     1457.077     2102.157     2480.488     77.90293      155.312     310.8712      1.548     3.49      846.222     54.77978     221.9179        16     1.182     0.912 -68.04   0
        56    646.1759    944.1365 307.6398096  +6.2985776     4842.391     6848.191     6934.877     77.53226     155.4356     310.7168      1.473     3.00     848.5793     54.77978     670.3334        22     1.184     0.976 -63.47   0
        57    258.3337    944.3120 307.8008296  +6.2855100     4806.288     7025.335       7598.8     77.90293     155.6209     310.7477      1.578     3.34      849.189     54.77978     674.5414        27     1.395     0.957 -50.18   0
        58    995.6018    944.2760 307.4947228  +6.3101857      620.128     900.1559     1368.716     77.28416     154.8786      310.655      1.924     5.39     841.6303     54.77978     93.85486         8     1.446     0.567 -15.56   0
        59    468.3508    942.5939 307.7136927  +6.2932622     1245.355     1678.254     1252.633     77.40831     155.2502     310.4076      1.484     3.72     850.5245     54.77978      199.111        16     1.133     0.954  88.17   0
        60     27.0336    941.7288 307.8969448  +6.2788027     2391.698     3664.208       3711.7     77.77957     155.4356     310.8404      1.627     3.54     846.3676     54.77978     325.2634        20     1.304     0.903 -43.77   0
        61    877.7941    940.2234 307.5437733  +6.3079300     814.5444     1436.436      1536.07      77.4083     155.1883      310.655      1.784     4.89     844.8876     54.77978     140.0577         8     1.219     0.556 -71.41   0
        62    969.9031    938.5566 307.5055849  +6.3116900     503.2316     581.9871     561.7551     77.90293     155.3738      310.933      1.368     4.59     842.5967     54.77978     83.38965         5     0.857     0.699 -48.82   0
        63   1002.2786    936.4861 307.4922118  +6.3136237     963.4817      1637.05     1461.822     77.90293     155.7442     310.8712      1.927     5.09     841.4211     54.77978      159.517        10     1.230     0.595 -88.52   0
        64    949.9636    937.6125 307.5138956  +6.3114149     627.2767     1131.007      850.817      77.4083     155.2502     310.5004      1.792     3.16     843.3234     54.77978     102.6863         5     0.762     0.589  84.50   0
        65    570.8417    936.7628 307.6713360  +6.2991009     1995.042     2925.983     2911.832     77.65601     155.4356      310.655      1.588     3.87     849.8041     54.77978     297.1767        19     1.323     0.908 -47.13   0
        66    294.4517    937.6462 307.7860594  +6.2894736     868.3679     1320.252     1536.332      78.0261     155.3738     310.8404      1.647     4.98      849.509     54.77978     98.57019         9     0.978     0.719  61.78   0
        67     59.7003    933.5393 307.8836601  +6.2832819     1005.931     1569.327     1952.462     77.65601     155.3738     310.9022      1.650     4.37     846.5435     54.77978     150.7155        12     1.179     0.760  75.67   0
        68    610.1218    932.9109 307.6551568  +6.3020052     1335.882     1652.994     1260.716     77.65601     155.6826     310.9021      1.354     3.99     848.8595     54.77978      179.597        13     1.153     0.763 -51.37   0
        69    289.8148    930.6833 307.7882196  +6.2921920     1537.423     2252.087     2099.403     77.53226     155.1264      310.655      1.481     4.40     849.2776     54.77978     278.4777        14     1.279     0.750 -76.90   0
        70    558.1796    928.6140 307.6768677  +6.3020407     670.8594     815.1106     317.2637     77.65601     155.1264     310.6859      1.343     3.50     849.9368     54.77978     115.3912         6     0.875     0.656  68.37   0
        71    894.3405    923.4718 307.5374654  +6.3153967     7379.355     11061.58     11565.56      78.0261     155.4356     310.7786      1.654     3.29     844.3255     54.77978     1022.806        36     1.452     1.139 -62.71   0
        72    756.7527    926.7678 307.5944822  +6.3094429     951.5646     1270.349     1293.231     77.65601     155.4356     310.7168      1.458     4.69     846.5586     54.77978     144.9514         9     1.137     0.549 -28.07   0
        73    132.5303    925.0048 307.8537122  +6.2892533      640.317     1141.578     661.5768      77.4083     155.0645     310.6241      1.518     3.81     847.4004     54.77978     125.0268         6     1.266     0.329  72.13   0
        74    430.2828    920.6299 307.7302386  +6.3010526     2379.215     3211.346     3098.806     77.77957     155.2502     310.7168      1.434     3.23     849.7789     54.77978      386.373        16     1.135     0.849 -57.59   0
        75    103.2243    922.0206 307.8659801  +6.2894999     453.0799     741.6987     979.5361     77.53226     155.2502     310.7477      1.400     3.91     846.7758     54.77978     71.01831         5     0.840     0.520 -37.15   0
        76    599.7404    920.9052 307.6598713  +6.3066135        518.1     684.2482     231.2472     77.77957     155.4356     310.8712      1.308     3.14     848.7778     54.77978     98.42719         5     0.967     0.551  56.42   0
        77    331.8744    918.8891 307.7711554  +6.2984714      10099.6     14706.75     15877.51     77.90293     155.7442     310.8404      1.530     3.14     849.2173     54.77978     1466.379        37     1.400     1.052 -58.34   0
        78    251.8672    917.7783 307.8044106  +6.2962449     7527.594     11088.73     11522.66     77.53226     155.4356     310.7168      1.556     3.10     848.7819     54.77978     1065.472        34     1.304     1.153 -49.13   0
        79    580.4161    912.2823 307.6681851  +6.3095261     1196.426     1802.318     1939.295     77.53226     155.1264      310.655      1.595     3.80     848.9397     54.77978     167.7448        13     1.164     0.754 -50.70   0
        80    764.3814    911.3703 307.5918323  +6.3160534     741.1913     1183.362     1484.748     77.53226     155.2502     310.7168      1.869     5.98     846.0342     54.77978     113.3386        10     1.184     0.923 -56.89   0
        81    910.1421    908.3652 307.5314114  +6.3221594     1077.832     1764.503     1946.968     77.77957     155.4356     310.7786      1.736     4.40     843.6867     54.77978     151.5095        13     1.101     0.864 -33.10   0
        82    866.2088    907.9259 307.5496679  +6.3208750     645.0193     1106.233     1339.702     77.53226     155.0026     310.6241      1.817     4.88     844.5748     54.77978     93.22083         7     1.165     0.579 -68.13   0
        83    214.1933    908.0419 307.8203811  +6.2989986     705.6679     994.8963     1089.265      77.4083     155.1264     310.5004      1.280     4.50     848.3282     54.77978      104.081         8     0.847     0.679 -53.32   0
        84    409.0325    906.5693 307.7395358  +6.3061440     587.8105     749.4424      683.877      77.4083     155.1883     310.5004      1.289     3.76     849.2418     54.77978     97.21552         6     0.814     0.657  33.65   0
        85    977.7767    904.3487 307.5034630  +6.3260727     784.8824     1173.947     924.7584     77.40831     155.4356     310.6859      1.628     4.51     841.1171     54.77978     127.4904         8     0.966     0.598  81.95   0
        86    746.5576    901.7235 307.5995572  +6.3194399     1788.667     2699.076     2687.883     77.77957     155.4356     310.8095      1.532     3.81     846.1332     54.77978     313.1486        17     1.425     0.755 -70.49   0
        87    839.8677    901.8307 307.5608099  +6.3225118     564.1422     727.5561     980.8995     77.77957     155.4356     310.7477      1.377     3.15     844.7818     54.77978     104.3102         6     0.901     0.575 -65.85   0
        88    570.1205    901.9783 307.6728068  +6.3134347     800.4111     1012.026     693.8578     77.53226     155.1264     310.7786      1.339     4.13     848.8028     54.77978     110.9958         7     0.903     0.538 -43.86   0
        89    978.0842    897.3614 307.5035697  +6.3289671     1210.214       1848.3     1737.419     77.90293     155.3738     310.7168      1.597     4.29     840.7985     54.77978     195.0641        15     1.294     0.922 -50.76   0
        90    610.6621    898.2772 307.6560983  +6.3163190     960.3987     1209.073     1466.437     78.14907     155.4974     310.7786      1.625     3.50     848.1357     54.77978      135.924        10     0.888     0.805  76.71   0
        91    622.0044    897.7191 307.6514077  +6.3169288     691.4606     914.4653     920.9415      77.4083     155.0026     310.5004      1.449     3.69     848.0143     54.77978     98.05817         8     0.966     0.595 -65.65   0
        92    531.6327    897.2568 307.6889462  +6.3140952     1218.933     1895.157     2486.433     77.77957     155.4974     310.7477      1.753     3.77     848.9692     54.77978     228.2095        13     1.268     0.701 -58.12   0
        93    665.0701    894.7951 307.6336248  +6.3195761     2600.231     3701.927     3971.612      77.4083     155.0645      310.655      1.483     2.89     847.5076     54.77978     378.1169        20     1.241     0.892 -44.22   0
        94   1016.4166    893.9153 307.4877687  +6.3316671     653.2792     1003.566     1420.071     77.53226     155.1883     310.7168      1.565     3.45     838.9318     54.77978     93.02917         5     0.797     0.432 -69.25   0
        95    955.5961    892.8773 307.5130577  +6.3300683     529.2177     857.4586     764.2462     77.53226     154.9406     310.5931      1.722     4.40     841.6252     54.77978     78.60175         5     1.131     0.488  87.21   0
        96     61.6286    890.8246 307.8843051  +6.3009773     3014.831      4571.13      5214.36      77.4083     155.2502     310.6241      1.612     3.50     846.3137     54.77978     427.3509        26     1.368     1.018 -61.49   0
        97    825.6420    891.0936 307.5670773  +6.3264689     938.7353     1377.306     1236.938      78.0261     155.3738     310.9022      1.598     4.48     844.8164     54.77978     133.0306        11     1.143     0.772  82.40   0
        98    943.2547    890.1412 307.5182739  +6.3307862      844.407     1171.448     959.9736      78.0261     155.4356     310.7786      1.490     5.42     842.1196     54.77978     101.7601        11     0.957     0.867 -28.57   0
        99    205.1881    889.9284 307.8247320  +6.3061726     2415.962     3386.174     2899.402      77.4083     155.0645     310.5931      1.459     3.35     848.0889     54.77978     337.2893        19     1.241     0.878 -54.95   0
       100     79.2033    890.1846 307.8770302  +6.3018326      2142.96     3077.594     3579.062     77.53226     155.0645     310.6241      1.533     3.27     846.3589     54.77978     333.3676        18     1.187     0.908 -66.92   0
       101    659.5927    884.0221 307.6362615  +6.3238397     7408.835     10830.62      11202.3      77.4083     155.2502     310.5931      1.556     3.12     847.4357     54.77978     1051.079        35     1.362     1.137 -52.62   0
       102    344.0385    885.9045 307.7672183  +6.3124943      1078.34     1717.467     2275.474     77.90293      155.312     310.9021      1.735     3.68     849.0843     54.77978     188.4989        10     1.115     0.686 -64.64   0
       103    239.1741    886.3939 307.8107409  +6.3087729     1028.353     1187.062     1186.638      77.4083     155.2502     310.5931      1.223     3.06     848.6266     54.77978     155.4525        10     0.979     0.651  64.32   0
       104    797.2241    884.7726 307.5790893  +6.3281292     745.4109     959.7354     506.9143      77.4083      155.312     310.6241      1.377     3.97     845.1073     54.77978      120.894         6     0.794     0.568 -45.81   0
       105     19.9619    882.2917 307.9018931  +6.3030975     1359.401     2075.189     1977.347      78.0261     155.3738     310.8095      1.530     3.06     846.1826     54.77978     220.6687        12     0.931     0.867  82.47   0
       106    897.4942    880.4031 307.5376016  +6.3332796     2872.984     4234.561     4584.894     77.65601     155.1264     310.5004      1.594     3.79     843.3397     54.77978      369.541        22     1.346     0.958 -64.06   0
       107     32.6547    880.7642 307.8966750  +6.3041551     989.8873     1582.257     1313.447     77.77957     155.4356     310.8095      1.754     6.57      846.209     54.77978     137.9794        15     1.258     1.061  57.11   0
       108    342.6407    877.1353 307.7680946  +6.3160670     17927.69     25700.54     27590.98     77.90293     155.3738     310.9022      1.535     3.17     849.0484     54.77978     2681.873        46     1.400     1.128 -58.61   0
       109    393.1021    876.2905 307.7471714  +6.3181079     851.0096     1141.751     875.1642     77.90293     155.8675     310.7786      1.495     4.70      848.489     54.77978     134.6976         9     1.058     0.591 -51.17   0
       110     77.1186    878.0884 307.8783051  +6.3067552     1413.245     2131.304     2439.369     77.65601     155.6208     310.8712      1.581     4.64     846.2826     54.77978     192.8997        15     1.305     0.818 -60.82   0
       111    213.7195    876.3081 307.8216502  +6.3120811     1339.302     1694.356     1427.614     77.65601     155.6826     310.8404      1.439     2.91     848.2142     54.77978     234.9306        12     0.996     0.766 -52.74   0
       112    672.6165    868.8772 307.6313634  +6.3305266     612.6849     789.7234      1145.48      77.4083     155.1883      310.655      1.349     5.07     847.1768     54.77978     99.39648         7     1.181     0.617 -74.31   1
       113    420.6075    868.1490 307.7360257  +6.3223905      1063.99     1727.875     1137.702      77.4083     155.2502     310.4385      1.516     4.49     847.8824     54.77978     170.8765         9     1.008     0.840 -40.44   0
       114    105.9747    867.8307 307.8666715  +6.3119595      1859.96     2563.939     2721.321      77.4083     155.2502     310.6241      1.445     3.22     846.3161     54.77978     308.0968        17     1.177     0.903 -58.87   0
       115    501.2946    864.8549 307.7026346  +6.3264537     682.9928     975.3079     1425.409     77.77957     155.4356     310.9948      1.352     3.87     847.6967     54.77978     104.4713         6     0.908     0.472 -51.98   0
       116    887.8453    861.8472 307.5422310  +6.3406171     2050.518     3003.397     2707.304     77.90293      155.312     310.8095      1.530     3.36     843.1927     54.77978     317.6208        19     1.335     0.869 -73.75   0
       117    674.3260    863.8275 307.6308234  +6.3326681      965.523     1221.495     1533.064     77.77957     155.3738     310.7168      1.296     2.71      847.074     54.77978     139.4778         9     0.826     0.701  22.46   0
       118    858.5362    861.4545 307.5544142  +6.3398011     2183.564     3081.609     2904.328      78.0261     155.3738     310.7477      1.557     3.15      843.954     54.77978     317.0496        20     1.140     1.033 -45.90   0
       119    821.8474    860.9769 307.5696646  +6.3387736     3112.456     4780.728     5189.149     77.53226     155.4356      310.655      1.632     3.31      844.517     54.77978     462.9926        24     1.359     0.982 -55.06   0
       120     89.4221    861.1583 307.8737697  +6.3141569     2394.194     3498.141     4347.604     77.53226     155.2502     310.5622      1.588     3.12      846.153     54.77978     384.8253        18     1.218     0.862 -63.85   0
       121    337.5307    859.0427 307.7708270  +6.3233635     877.2904     1303.028     1729.934     77.77957     155.4356     310.8404      1.725     5.31     848.8754     54.77978      124.845         9     1.134     0.702 -62.63   0
       122    557.7100    852.3818 307.6796302  +6.3334912     366161.7     514407.8       539401     77.65601     155.1883     310.6859      1.542     3.68     847.0756     54.77978        59205       185     1.594     1.349 -57.98   4
       123    451.9728    858.8094 307.7233174  +6.3272968     710.1729     1210.021     1463.481     77.53226     155.2502      310.655      1.708     3.01     847.5869     54.77978     116.7619         6     0.869     0.477 -39.17   0
       124    645.4232    855.4725 307.6431057  +6.3351503     1305.708     1774.682     1815.652     77.53226     155.2502     310.7477      1.495     4.26     846.9568     54.77978     206.7957        12     1.188     0.814 -43.32   0
       125    401.9522    855.0102 307.7442147  +6.3271884     8298.857     12032.55     12803.29      77.4083      155.312     310.4694      1.511     3.12     847.8287     54.77978     1212.153        35     1.394     1.097 -59.08   0
       126    345.1401    853.3562 307.7678595  +6.3259659     13672.48     19612.42     20333.35     77.77957     155.4356     310.9022      1.531     3.14     848.7034     54.77978     1957.477        41     1.398     1.083 -51.78   0
       127    896.0959    848.5925 307.5392500  +6.3463636     5524.595     8512.133     8754.203     77.65601     155.0645     310.5622      1.649     3.42     842.5397     54.77978      704.337        33     1.480     1.110 -46.38   2
       128    890.9398    848.4746 307.5413950  +6.3462402     553.2305     1109.733     761.2841     78.14907     155.4356     310.7477      1.918     4.20     842.6631     54.77978     94.96844         5     1.150     0.438 -63.81   2
       129    663.5175    849.7082 307.6357864  +6.3381347     3852.524     5136.545     5586.869     77.65601     155.7442     310.8404      1.452     3.13      846.672     54.77978     566.6249        19     1.179     0.906 -52.57   0
       130    735.3894    845.8486 307.6060730  +6.3421304     724.0917     945.3776     568.9131      77.4083      155.312     310.4694      1.226     3.40       845.03     54.77978     128.3818         5     0.758     0.442 -70.39   0
       131    638.3061    843.5906 307.6464607  +6.3398167     3698.409     5323.782     5622.294     77.53226     155.0645     310.5931      1.513     3.15     846.6023     54.77978     618.1072        23     1.268     1.011 -47.23   0
       132    826.6785    842.8551 307.5682673  +6.3464151     1654.752      2412.95     1896.774      78.0261     155.4356     310.8095      1.499     3.65     844.0672     54.77978     273.7472        16     1.310     0.794 -52.14   0
       133    181.5378    843.2058 307.8361309  +6.3246632     660.0941     751.2417     783.2039     77.28416     155.2502     310.5931      1.280     4.79     847.0713     54.77978     98.56317         8     1.019     0.638 -77.41   0
       134    630.7513    839.3745 307.6497396  +6.3413043     1817.241     3936.657     4986.902     77.53226     155.4974     310.6859      2.378     8.47     846.4587     54.77978     371.2134        29     2.491     0.805 -61.17   0
       135    954.0834    841.5280 307.5154085  +6.3512136     795.8152     1195.491     1184.743     78.14907     155.7442     310.8095      1.756     5.70     840.1616     54.77978     116.1191        10     1.064     0.860 -64.19   0
       136    325.1767    837.4567 307.7766852  +6.3318589     968.9099     1419.933     1541.507     77.53226     155.4356     310.5931      1.502     4.47     848.4944     54.77978     172.9296        14     1.294     0.851 -66.93   0
       137    914.9611    836.3892 307.5318261  +6.3520301     3371.422     5097.877     4847.332     77.28416     155.2502     310.5004      1.590     3.44     841.5334     54.77978      467.804        26     1.374     1.046 -55.10   0
       138    175.2388    837.7953 307.8389292  +6.3266848     456.4261     530.3573     685.5726     77.03525     155.1883     310.5313      1.145     3.90     846.8488     54.77978     87.47125         5     0.912     0.479 -44.10   0
       139    373.1323    832.2181 307.7569501  +6.3356298      2897.64      3982.51     3879.729     77.53226     155.3738     310.7168      1.410     3.12     847.7792     54.77978     418.0355        18     1.144     0.855 -55.72   0
       140    509.3057    821.9240 307.7007550  +6.3444424     3307.172     4747.666     4742.143     77.65601     155.6208     310.7786      1.486     2.76     846.1605     54.77978     469.5757        22     1.223     0.951 -58.22   0
       141    853.9916    821.0404 307.5576586  +6.3563314     1110.775     1570.798     1507.113     77.28416     155.2502     310.5004      1.501     3.48     842.9275     54.77978     178.6437        10     1.012     0.683  88.90   0
       142    574.3730    819.6708 307.6738130  +6.3475510     849.8852     1105.954     1440.712     77.53226      155.312     310.7168      1.362     2.99      845.702     54.77978       145.46         8     0.895     0.616 -71.50   0
       143    556.0950    818.1498 307.6814538  +6.3475670     6576.116     9501.788     10472.07     77.77957      155.312     310.9639      1.522     3.19     845.5259     54.77978     932.6914        29     1.324     1.016 -51.75   0
       144    563.0229    817.4880 307.6785994  +6.3480720     1496.972     1976.263     2650.173     77.90293     155.2502      310.655      1.547     4.29     845.5167     54.77978     184.0242        14     1.143     0.871 -71.29   0
       145    473.8079    817.1771 307.7156547  +6.3452128     1680.111     2265.729     2107.727     77.53226     155.2502     310.5931      1.415     3.72     846.4482     54.77978     272.2629        12     1.108     0.718 -50.65   0
       146    268.1078    818.2523 307.8010295  +6.3378704     873.8492     1158.311     322.8839     77.77957      155.312     310.9948      1.433     4.67     848.3329     54.77978     130.0843         8     0.907     0.681 -18.14   0
       147    891.8918    816.2382 307.5420819  +6.3595784     1336.244     2035.816      1498.91      78.0261     155.3738     310.8095      1.434     3.98     841.6292     54.77978     219.2987        12     1.158     0.725 -44.89   0
       148    115.6777    816.0237 307.8643955  +6.3336693     1515.983     1941.455     1868.271     77.53226     155.2502     310.7477      1.462     4.15     845.7891     54.77978      215.037        14     1.289     0.764 -56.12   0
       149    692.1130    815.1947 307.6250737  +6.3533370     742.0887     849.5596     653.4594      77.4083     155.1264     310.5313      1.386     3.45     845.1994     54.77978     118.1193         8     0.860     0.762 -74.84   0
       150    526.8212    812.0692 307.6938141  +6.3490968      21587.1     30584.37     31159.66     77.53226     155.3738     310.6859      1.484     3.11     845.4948     54.77978     3403.822        45     1.379     1.080 -52.64   0
       151    368.0594    813.1047 307.7597015  +6.3433489     825.8693     887.1854     895.2143     77.77957     155.4356     310.8712      1.188     2.45     847.3839     54.77978      169.297         7     0.789     0.650  67.86   0
       152    940.4673    810.4317 307.5221059  +6.3635954     3948.059     5551.554     5454.227     77.77957     155.4356     310.7477      1.558     3.35     839.8991     54.77978     550.2112        26     1.335     1.029 -56.41   0
       153    172.8951    811.5707 307.8407890  +6.3374304     532.7808     966.2885     454.7082      78.0261     155.1883     310.7168      1.845     4.23     846.5634     54.77978     81.34564         5     0.950     0.538 -46.44   0
       154     60.4975    808.0261 307.8875773  +6.3351146     696.0714     771.6618      872.686      78.0261     155.1883     310.7168      1.215     4.40     845.0214     54.77978     103.3784         8     0.908     0.653  41.58   0
       155     37.4048    801.9238 307.8973721  +6.3368564     1497.742     2269.366      2765.99     77.53226     154.9406      310.655      1.556     3.94     844.6035     54.77978     229.2511        13     1.227     0.737 -72.54   0
       156    785.0145    796.6422 307.5871208  +6.3640993     58952.22     84366.12     88116.57     77.28416     155.2502     310.5313      1.524     3.06     843.9631     54.77978     9135.312        76     1.470     1.200 -56.85   0
       157    319.5097    800.6663 307.7802804  +6.3468544     3589.773     4938.589     4795.441      78.0261     155.5591     310.8095      1.494     3.00     847.8761     54.77978       576.33        20     1.204     0.900 -50.59   0
       158     19.4647    798.6074 307.9049332  +6.3376216     2330.695     3464.846     3894.538     77.40831     155.1883      310.655      1.606     3.39      844.331     54.77978     302.4373        19     1.128     1.001 -75.01   0
       159    241.6999    773.1650 307.8135180  +6.3555940     767620.5      1685681      1873378     77.90293      155.312      310.933      2.243     8.82     846.0145     54.77978     63136.91       657     2.885     2.155 -81.88   4
       160    428.3386    795.4216 307.7352685  +6.3526690     923.5978     1246.247      1025.66     77.53226     155.4356     310.6859      1.434     5.25      846.042     54.77978     136.2842         9     1.045     0.744 -52.22   0
       161    910.2507    791.8810 307.5352760  +6.3702449     9016.216     13116.34     13703.48     77.90293     155.4974     310.7786      1.545     3.25     840.3622     54.77978     1167.716        37     1.393     1.097 -51.15   0
       162    713.2021    791.2433 307.6171223  +6.3639284     23099.27     33706.81     36619.82     77.28416     155.0645     310.4385      1.552     3.10     844.2878     54.77978     3282.582        48     1.420     1.136 -61.29   3
       163    706.9540    787.7273 307.6198351  +6.3651709     95165.79     135080.3     141498.6     77.77957     155.4974     310.7786      1.503     3.19      844.213     54.77978     15044.26        88     1.494     1.202 -58.39   3
       164    351.8059    788.5616 307.7672787  +6.3529343     22237.65     31761.39     33183.51     77.03526     155.1883     310.5313      1.527     3.17      846.538     54.77978     3610.617        51     1.432     1.112 -55.85   0
       165    413.6964    786.4108 307.7416524  +6.3558975     24248.17     34184.36     35901.26     77.65601     155.0645     310.5931      1.548     3.06     845.7513     54.77978     3964.875        51     1.427     1.115 -53.59   0
       166    400.9242    788.9819 307.7468691  +6.3544080     1542.177     2370.629      2508.91      77.4083     155.1883     310.7168      1.572     4.43     846.0169     54.77978     228.1033        16     1.397     0.802 -51.41   0
       167    640.5976    787.8840 307.6473841  +6.3628874     780.4399     1287.866     1474.315     77.28416     155.0645     310.4694      1.356     4.38     844.6175     54.77978     134.0101         8     1.091     0.595 -72.70   0
       168    950.8887    785.4117 307.5186179  +6.3742706     2099.718     3202.116     3258.226     77.65601     155.1264     310.6241      1.610     3.41     839.1057     54.77978     305.9115        23     1.281     1.032 -64.33   0
       169    907.2043    783.3789 307.5368265  +6.3736527     6962.447     10300.75     11093.04     77.53226     155.1883     310.5931      1.618     3.23      840.241     54.77978     906.7319        36     1.387     1.152 -70.53   0
       170    617.8015    786.3755 307.6569009  +6.3627475     502.5272     655.8559    -304.2348     77.53226     155.1264     310.5622      1.299     3.49     844.6467     54.77978     75.73712         5     0.799     0.440 -17.67   0
       171    879.9199    783.7180 307.5481451  +6.3726025        842.8     1136.767     1221.865      78.0261     155.6826     310.9021      1.425     2.78       841.05     54.77978     153.5621         7     0.969     0.493 -67.09   0
       172    647.7485    782.3047 307.6446025  +6.3654295     7014.354     9638.272     10099.04     77.77957     155.3738     311.0257      1.479     3.03     844.3896     54.77978     1124.449        28     1.231     1.026 -58.78   0
       173    436.3908    780.2188 307.7324377  +6.3592140     1855.697     2621.213     3216.181     77.65601     155.1264     310.6241      1.594     3.86     845.4017     54.77978     274.6552        16     1.224     0.840 -57.80   0
       174    162.0338    779.1365 307.8463955  +6.3504529     967.9413      1362.13     1316.566     77.77957     155.4974     310.7477      1.408     3.16     845.4664     54.77978     156.2732         9     0.901     0.721 -75.38   0
       175    601.1773    774.0424 307.6642193  +6.3672820     973.0804     1235.038     1472.701     77.53226      155.312     310.6241      1.371     4.88     844.2655     54.77978     135.5577        13     1.081     0.960 -41.11   0
       176    876.1066    773.7955 307.5500619  +6.3765710     896.9836     1034.088      773.835     77.53226     155.1264     310.5313      1.305     3.26     840.8627     54.77978     161.6636         7     0.941     0.665  64.29   0
       177    682.8541    772.4324 307.6303571  +6.3706785     2598.216     3458.978     3905.017     77.77957     155.3738     310.7477      1.448     2.97     843.8329     54.77978     433.6683        15     1.097     0.830 -50.50   0
       178    151.9186    772.9554 307.8508046  +6.3526642     1053.792     1435.934     1337.236     77.90293     155.4356     310.7477      1.464     3.01     845.1717     54.77978      197.897        13     0.986     0.892 -44.79   0
       179    126.8413    773.0359 307.8612146  +6.3517880     1106.788     1572.172     1562.314     77.65601     155.4356     310.6241      1.459     3.83     844.9695     54.77978     175.4692        10     1.093     0.719 -57.50   0
       180    416.6453    769.0584 307.7410132  +6.3631588     58647.71     83696.58     87988.19     77.77957     155.4356     310.8712      1.517     3.09      845.015     54.77978     8930.688        74     1.503     1.172 -52.95   0
       181    960.0184    770.8690 307.5153146  +6.3805779     750.3074     1061.274     947.3509     77.53226      155.312     310.7477      1.400     4.04      838.697     54.77978     123.9068         9     0.948     0.749 -69.71   0
       182     69.1429    770.6678 307.8852522  +6.3508252     632.4481     884.1998     1122.352      78.0261     155.3738     310.7477      1.541     3.61     844.4871     54.77978     97.22595         6     0.930     0.568  67.84   0
       183    534.3909    768.1411 307.6921510  +6.3674823     7579.846     10919.77     11238.31     77.28416      155.312     310.5004      1.510     3.07     844.0295     54.77978     1075.958        31     1.357     0.991 -58.13   0
       184    451.1351    766.6983 307.7267712  +6.3652890     4910.894     7254.396     8080.809     77.90293     155.4974     310.8095      1.567     3.29     844.8426     54.77978     696.9097        31     1.368     1.044 -55.08   0
       185    779.6150    764.7361 307.5904353  +6.3770889     12376.65     17608.81      18385.5     77.40831      155.312      310.655      1.520     3.14     842.6747     54.77978     1982.653        36     1.395     1.019 -60.11   0
       186    447.7021    760.1077 307.7284190  +6.3678943     2527.621      3892.76      4436.53     77.90293     155.9291     310.7168      1.608     3.28     844.5779     54.77978     396.7917        23     1.377     1.030 -55.65   0
       187      8.8792    760.8772 307.9106062  +6.3528385     1189.615     1640.473     1560.746     78.14907     155.6826      310.933      1.521     4.40     844.0217     54.77978     169.0588        13     1.305     0.721 -58.65   0
       188    801.4617    758.8791 307.5815601  +6.3802362     1438.973     2044.561     2036.532      78.0261     155.4974     310.7786      1.433     4.13     842.3115     54.77978      192.623        15     1.202     0.933 -32.24   0
       189    129.6328    747.5590 307.8609174  +6.3623976     1953.998      3027.45     3396.264     77.65601     155.4356     310.6241      1.646     3.88     844.2731     54.77978     301.5136        17     1.394     0.794 -63.18   2
       190    137.3461    756.6153 307.8574082  +6.3589189     12480.11     17895.83     19501.68     77.28416     155.4356     310.5004      1.554     3.07     844.5677     54.77978     1808.784        38     1.417     1.072 -52.07   2
       191    129.4638    753.9974 307.8607697  +6.3597345     2932.028      4478.36     5290.931     77.28416     155.2502     310.5622      1.672     3.24     844.4415     54.77978     414.4829        21     1.212     1.003 -64.83   3
       192    145.4081    756.8942 307.8540512  +6.3590748     3221.273     4832.594     5118.799     77.53226     155.0645     310.5622      1.569     3.37      844.608     54.77978     481.9945        22     1.210     0.995 -56.49   0
       193    925.1588    753.3412 307.5303789  +6.3866505     6678.139     9781.744     10621.19     77.90293     155.4356     310.8404      1.572     3.13     839.1251     54.77978     946.5682        32     1.328     1.100 -56.71   0
       194    974.4713    753.4070 307.5098987  +6.3882677     1471.591     2074.367     3224.324     77.40831     155.0026     310.7168      1.511     3.09     838.1924     54.77978     204.1335        14     1.067     0.789 -55.91   0
       195    680.5566    750.9895 307.6320326  +6.3794527      1879.92     2671.087     3277.109      77.4083     155.2502     310.5004      1.578     3.41     843.1088     54.77978     304.5359        17     1.189     0.884 -64.26   0
       196    567.4385    750.2568 307.6790304  +6.3759708     2558.479     3398.374     3563.753     77.90293     155.4974     310.7786      1.469     3.19     843.4703     54.77978     398.9357        17     1.178     0.823 -54.10   0
       197    415.5696    749.6467 307.7421147  +6.3711352     1146.193     1602.729     1236.608     77.40831     155.4356     310.6859      1.447     2.74       844.22     54.77978     178.1045         9     0.839     0.742  71.91   0
       198    948.7990    744.8770 307.5208459  +6.3909327      3183.64     4546.539     4261.821     77.15981     154.8786     310.5622      1.487     3.42     838.5372     54.77978     481.4581        23     1.328     0.986 -55.03   0
       199    919.2967    745.4089 307.5330795  +6.3897292     3267.338     4771.558     5217.141     77.65601     155.0645     310.5931      1.576     3.32     839.0905     54.77978     438.8279        22     1.270     0.946 -60.83   0
       200    979.7336    744.4688 307.5080132  +6.3921326     2031.141     3335.446     4004.069     77.90293     155.4974     310.8095      1.872     4.10     837.9912     54.77978     257.3532        21     1.370     0.972 -77.70   0
       201    671.5547    744.3840 307.6359930  +6.3818782     1538.847     2192.144     2427.519     77.40831      155.312     310.5622      1.531     2.96     842.9919     54.77978     309.1188        14     1.161     0.726 -59.11   0
       202    818.9769    742.8630 307.5748248  +6.3874321     1164.298     1676.498     2187.787     77.53226     155.4356     310.6859      1.531     3.74     841.2441     54.77978     171.6597        13     1.178     0.722 -59.29   0
       203    894.5050    740.4241 307.5435421  +6.3909597     768.5105     1339.801     1792.616      78.0261     155.1883      310.655      1.946     5.29     839.4565     54.77978      122.129         8     0.976     0.811 -56.78   0
       204    244.2001    739.3864 307.8136213  +6.3696204     2029.938     3000.054     3984.573     77.53226     155.1264     310.5931      1.824     4.02     843.8655     54.77978     291.0673        19     1.363     0.876 -62.64   0
       205    681.2783    736.6234 307.6322163  +6.3854067     749.4484     1085.569     1966.912     77.53226     155.2502     310.7477      1.667     4.29     842.6117     54.77978     123.0282         7     1.090     0.481 -29.94   0
       206    936.9924    734.8672 307.5260848  +6.3946708     1124.611     1679.393     2070.222      77.4083     155.1883     310.6241      1.619     5.14     838.5703     54.77978     157.1906        12     1.205     0.700 -55.21   0
       207    264.4681    735.0160 307.8053529  +6.3721049     722.2037     999.6937     1204.757      77.4083     155.3738     310.6859      1.478     5.82     843.4249     54.77978     103.8372        10     1.243     0.767 -53.74   0
       208    159.8321    734.5149 307.8488188  +6.3687968     885.0551     1159.897     1083.427     77.90293     155.2502     310.7168      1.338     5.11     843.9267     54.77978     131.9484        10     1.211     0.711  87.98   0
       209    963.7365    732.6399 307.5150533  +6.3964820     2552.101     3677.722     3795.198     77.90293     155.3738     310.8095      1.554     3.28     838.0945     54.77978     431.1328        20     1.281     0.906 -54.03   0
       210    910.9662    733.6061 307.5369351  +6.3943232     1148.269     1725.079     1635.359     77.28416     155.2502     310.5622      1.477     3.54     839.0213     54.77978     183.6857        11     1.101     0.672 -40.97   0
       211    683.3287    731.4714 307.6315382  +6.3876019      1148.81     1653.572     1977.148     78.14907     155.5591     310.6859      1.672     3.71     842.4429     54.77978     199.1244        10     1.101     0.622 -54.44   0
       212   1005.4536    725.9438 307.4979537  +6.4006366     1842.609     2716.868     2879.691      78.0261     155.4356     310.7477      1.599     3.54     837.2445     54.77978       248.95        19     1.257     0.924 -49.66   0
       213    899.8351    725.7175 307.5418224  +6.3972081     452.4205     663.2552     732.6647     77.90293     155.3738     310.7477      1.341     3.40     839.0818     54.77978     91.38733         5     0.953     0.352 -45.41   0
       214    631.7899    725.2767 307.6531490  +6.3884352     701.0784     951.3269     1206.832     77.53226     155.0645     310.5931      1.539     3.63      842.706     54.77978     132.7777         8     0.989     0.649 -53.92   0
       215    807.2341    724.5421 307.5803169  +6.3946024     1233.113     1556.819     1612.191     77.77957     155.4356     310.7477      1.430     3.45     841.0051     54.77978     173.0057        13     1.020     0.813 -46.91   0
       216    893.0720    721.9720 307.5447568  +6.3985285     1719.079     2739.662      3347.38     77.65601     155.4356     310.7168      1.749     4.10     839.1333     54.77978     253.5955        18     1.280     0.931 -74.87   0
       217    867.4238    717.1522 307.5555698  +6.3996621     1073.182     1748.715     2058.497     77.53226     155.4356      310.655      1.841     4.82     839.4909     54.77978      159.158        14     1.388     0.847 -57.27   0
       218    653.4454    715.7591 307.6444765  +6.3930882     574.9999     980.7244     1013.504     77.77957     155.4356     310.6241      1.982     3.74     842.3654     54.77978     104.4939         5     1.119     0.421  75.21   0
       219    850.1382    713.2610 307.5628789  +6.4006914     1598.034     2101.604     1852.409     77.90293     155.4356     310.8095      1.459     4.42     839.7703     54.77978     218.7813        14     1.241     0.760 -57.87   0
       220     48.9530    711.9932 307.8956220  +6.3743641     2550.193     3599.603     3986.885      77.4083     155.2502     310.4385      1.512     3.48     843.4005     54.77978     397.5264        18     1.240     0.870 -61.79   0
       221    113.2799    710.3088 307.8689680  +6.3772230     902.5037     1952.016     2378.173     77.65601     155.6826     310.8404      2.092     6.26      843.296     54.77978     148.1175        15     1.685     0.888  71.42   0
       222    704.6359    703.2811 307.6236383  +6.3999504      508.041     839.4462     868.1498     77.77957     155.4974     310.7786      1.311     3.29     841.5589     54.77978     99.60992         5     0.744     0.443 -71.57   0
       223    661.6697    700.5976 307.6415715  +6.3996214     6835.622     9676.919     10154.06     77.40831     155.0645     310.5931      1.573     3.15     841.9512     54.77978     1177.818        30     1.293     1.021 -59.94   0
       224    608.5541    699.9089 307.6636523  +6.3981289     1711.902     2434.915     2591.112     77.90293     155.3738     310.9022      1.642     3.18     842.2668     54.77978     244.4354        16     1.065     0.952 -58.77   0
       225    530.3954    699.9846 307.6961068  +6.3954813     711.6974      1153.84     1274.682     77.53226     155.1264     310.6241      1.754     3.91     842.7277     54.77978     109.1007         7     0.768     0.670  79.15   0
       226    519.3694    699.8239 307.7006910  +6.3951784     972.0458     1310.514     1000.638      77.4083      155.312     310.5931      1.298     3.72     842.7917     54.77978     131.4807        10     1.030     0.676 -24.47   0
       227    635.5476    696.3451 307.6525625  +6.4005030     2315.942     3319.162     3763.786      78.0261     155.4356     310.7477      1.617     3.08     841.9998     54.77978     379.2485        20     1.164     1.038 -44.25   0
       228    124.5636    696.4041 307.8647530  +6.3833417     3914.324      5747.42     5762.918     77.03526     155.2502     310.5931      1.586     3.60     842.8833     54.77978     548.5735        25     1.377     0.972 -61.57   0
       229    998.7530    695.9321 307.5017430  +6.4128015     2750.918     3758.646      3873.68     77.90293     155.3738     310.7786      1.487     3.36     836.6046     54.77978     396.7904        18     1.143     0.950 -62.84   0
       230    311.4772    696.4640 307.7871346  +6.3895956      885.866      1420.09      1639.18     78.14907     155.4356     310.7786      1.916     4.56     842.5185     54.77978     133.9577         9     1.090     0.693 -66.23   0
       231    778.5386    692.7169 307.5933032  +6.4067806     21800.63     30668.42     32422.89      78.0261     155.4356     310.7786      1.529     3.14     840.5934     54.77978     3537.646        50     1.415     1.150 -57.24   0
       232    247.3041    695.6024 307.8138120  +6.3877969     747.0906     1002.745     1331.926     77.53226     155.1264     310.4694      1.564     3.95     842.5772     54.77978     116.6367         6     0.974     0.460 -88.55   0
       233    908.5738    692.4930 307.5393089  +6.4112139     4092.238     5702.721     5880.889      78.0261     155.1883     310.6241      1.542     3.35     838.3235     54.77978      645.676        26     1.346     0.985 -59.52   0
       234    477.7673    692.9387 307.7181992  +6.3966268     1409.714     2078.031     2399.286     77.65601     155.4974     310.7168      1.552     3.78     842.8788     54.77978     237.0452        11     1.108     0.654 -70.98   0
       235    460.6455    693.4456 307.7252923  +6.3958439     587.5795     752.5952     24.98396     77.90293     155.4356     310.7786      1.412     4.92     842.8357     54.77978     87.51727         6     0.986     0.695  71.18   0
       236    505.8710    692.4526 307.7065449  +6.3977689     1064.109     1281.424     972.0294     77.77957     155.3738     310.7477      1.439     4.97     842.7385     54.77978     159.7802         9     1.002     0.697 -44.52   0
       237    279.6782    691.6929 307.8005005  +6.3904976     596.2315     1013.182     1103.147     77.65601     155.6209     310.8095      1.656     5.21     842.4084     54.77978     93.94348         5     1.018     0.753  58.55   0
       238    659.1157    685.4623 307.6431415  +6.4057835     7701.841     10741.86     11450.09      78.0261     155.4974     310.7786      1.519     3.01     841.5886     54.77978     1159.246        33     1.374     1.004 -58.58   0
       239    252.0879    686.3188 307.8121392  +6.3917894     6643.359     9748.545     10158.61     77.65601     155.6208     310.8712      1.558     3.13     842.3024     54.77978     970.4426        29     1.340     1.029 -64.68   0
       240    641.7286    686.3835 307.6503310  +6.4048216     1018.402     1345.045     1246.447     77.40831     155.3738     310.6859      1.397     2.91     841.7249     54.77978     187.2533         9     0.965     0.632 -83.01   0
       241    354.2828    684.7960 307.7697530  +6.3958480     735.5657     1086.346     1127.036      77.4083     155.0645     310.5004      1.541     3.73     842.4994     54.77978     110.8674         5     0.909     0.439 -43.17   0
       242    918.8760    678.2789 307.5355077  +6.4174248      1374.96      1780.77     2010.963     78.14907     155.6826     310.8712      1.387     3.89     837.9368     54.77978      200.248        12     1.126     0.679 -56.39   0
       243    730.8968    673.9263 307.6137201  +6.4129450     3802.794     5742.956     6177.985     77.65601     155.6208     310.7786      1.541     3.62     840.8275     54.77978     559.0424        24     1.316     0.962 -71.54   0
       244    686.0367    674.4935 307.6323308  +6.4112113     1247.683     1577.003      1349.87      78.0261      155.312     310.8712      1.398     3.90     841.1406     54.77978     180.8536        10     1.181     0.588 -58.99   0
       245    997.2010    670.5518 307.5032389  +6.4232261      9269.72     13544.16     14370.14     77.28416     155.0645     310.3457      1.598     3.31     836.0571     54.77978     1273.751        36     1.419     1.072 -67.48   0
       246    935.5822    670.9605 307.5288154  +6.4210029     2564.276     3694.267     3743.328     77.53226     155.2502     310.5622      1.511     3.04     837.4764     54.77978     367.5903        18     1.147     0.864 -61.76   0
       247     16.6665    670.1015 307.9104474  +6.3905684      1983.45     3174.957     3939.557     77.90293     155.5591     310.7786      1.735     3.71     842.5291     54.77978     269.0638        21     1.357     0.919 -68.38   0
       248    432.8625    668.5335 307.7376700  +6.4051956     649.6665     795.1361     1185.513     77.90293     155.4356     310.7786      1.548     4.22     842.2109     54.77978     89.21429         5     0.936     0.542 -47.63   0
       249     74.4782    665.3265 307.8866027  +6.3944846     27413.47     39495.65     41012.31     78.14907     155.6826     310.8095      1.595     3.23     842.3917     54.77978     3946.276        55     1.474     1.149 -59.20   0
       250    549.9007    668.1159 307.6890806  +6.4092888     592.7289     469.5652    -12.20527     77.90293     155.9291     310.8712      1.154     3.93     842.1049     54.77978     106.4077         5     0.816     0.541  53.86   0
       251    535.7424    666.2300 307.6950239  +6.4095932     2245.349     3115.709     3010.408     77.65601     155.4974     310.6859      1.453     3.17     842.1472     54.77978      352.851        14     1.097     0.777 -60.22   0
       252    504.4898    663.5775 307.7080919  +6.4096414     1451.479     2054.013     2122.874     77.90293     155.2502      310.655      1.477     3.59     842.1986     54.77978     236.8247        15     1.208     0.777 -54.62   0
       253    925.9772    662.5793 307.5330856  +6.4241421     1114.201     1509.117     1221.119     77.65601     155.2502     310.7168      1.484     4.83     837.3824     54.77978     168.1521        14     1.328     0.835 -34.48   0
       254    544.9161    660.3295 307.6914130  +6.4123359     1154.543     1534.706     1359.646     78.14907     155.6826     310.8095      1.471     4.35      841.971     54.77978     202.7697        12     1.307     0.685 -64.91   0
       255    720.5780    657.5955 307.6185547  +6.4193410     3756.723     5138.245     5361.948     77.53226     155.1883     310.5622      1.469     3.27     840.2507     54.77978     585.2517        21     1.311     0.862 -52.30   0
       256    742.6121    655.8388 307.6094631  +6.4208025     4248.494     6050.488     6102.749      77.4083     155.2502     310.5313      1.493     3.19     840.0222     54.77978     703.6224        24     1.338     0.917 -56.02   0
       257    574.0421    653.6320 307.6795431  +6.4160755     3476.558     5002.939     5177.952      77.4083      155.312     310.6241      1.502     3.27     841.2852     54.77978      512.066        25     1.299     1.005 -52.65   0
       258    409.9883    654.2569 307.7476508  +6.4103216       1400.1     1944.942     2077.841     77.28416     155.3738     310.4694      1.415     3.35     841.5659     54.77978     234.0468        11     1.034     0.667 -67.37   0
       259   1015.4141    652.0983 307.4962939  +6.4314503     5137.197     7549.802     7769.202     77.77957     155.1883     310.5622      1.568     3.38     835.5237     54.77978     693.0541        29     1.342     1.074 -49.54  16
       260    980.8389    650.9109 307.5106930  +6.4307880     8480.674     12308.11     12433.69     77.90293     155.4356     310.8095      1.532     3.21     836.0536     54.77978     1214.785        33     1.348     1.059 -66.14   0
       261    234.7590    653.1685 307.8204556  +6.4048905     1891.136     2904.821      2865.63      77.4083      155.312      310.655      1.619     3.59     841.2622     54.77978     326.7551        18     1.167     1.042 -62.66   0
       262    318.1607    652.5510 307.7858422  +6.4079455     1481.322     2063.826      1993.29     77.90293     155.4356     310.6859      1.394     2.90     841.1229     54.77978     250.6482        11     0.977     0.700 -66.32   0
       263    700.8194    649.2930 307.6270396  +6.4221076     963.8314     1266.803     1310.258     77.77957     155.1883     310.6241      1.348     3.39     839.9578     54.77978     161.5294         9     0.920     0.688 -75.05   0
       264     92.5177    647.0858 307.8797292  +6.4026204     821.2634     1259.258     1665.572     77.65601     155.6826     310.8712      1.723     5.52     841.9161     54.77978     113.9453        10     1.238     0.693  51.94   0
       265    139.2463    644.1693 307.8604232  +6.4053955     25113.93     36557.04     37504.58      77.4083     155.4356     310.6859      1.541     3.13     841.6193     54.77978     3445.698        49     1.437     1.123 -59.32   0
       266    807.4703    644.7169 307.5829016  +6.4275600      1260.34     1910.605     1984.974     78.14907     155.6826     310.8095      1.590     3.69     838.9951     54.77978      228.199        13     1.151     0.833 -41.77   0
       267    426.2498    645.1042 307.7412065  +6.4146447     3122.257     4482.783     5049.739     77.77957     155.3738      310.933      1.511     3.10       841.34     54.77978     441.7516        23     1.278     0.982 -60.43   0
       268    643.7753    644.6982 307.6508843  +6.4220965     563.9983     563.9485    -318.0121      78.0261     155.1883      310.655      1.379     4.23     840.0101     54.77978     93.07117         5     0.993     0.514 -52.38   0
       269    358.8556    638.9691 307.7694011  +6.4149170     754.5977     1212.442     1313.176     77.77957     155.4974     310.7477      1.659     4.96     840.4956     54.77978     95.96228         8     1.081     0.644 -39.16   0
       270    975.7512    633.8251 307.5133793  +6.4376710     7055.888     11190.96     11602.77     77.53226     155.4356     310.6859      1.686     3.31     835.7811     54.77978     980.4529        34     1.329     1.233  80.55   0
       271     20.3828    632.8459 307.9101661  +6.4060708     1197.269     1649.864     1472.964      77.4083      155.312     310.5313      1.388     3.25     841.5504     54.77978     163.6464        11     0.940     0.779 -56.73   0
       272    933.8160    631.0062 307.5308900  +6.4374362     580.9488     859.6705     315.5103     77.53226     155.1883     310.6241      1.640     4.50     836.0658     54.77978     88.65619         6     0.847     0.679 -78.49   0
       273    212.2809    630.8599 307.8305443  +6.4133436     733.6793     1179.241     1232.934      78.0261     155.4356     310.7786      1.601     5.00     840.8055     54.77978     97.62305         8     1.131     0.626   4.21   0
       274    528.5449    628.5860 307.6992816  +6.4248904     784.0604     1205.988     708.8453     77.28416     155.3738     310.5004      1.659     4.39     841.2319     54.77978     146.2023         8     1.172     0.498 -89.75   0
       275    176.8512    625.6572 307.8454333  +6.4143005     2923.508      4305.22     4304.967     77.90293     155.4356     310.7786      1.558     3.21     841.0861     54.77978     469.3074        23     1.291     0.996 -51.59   0
       276    499.2263    625.7457 307.7115531  +6.4250807     643.6755     746.0943      654.241     77.53226     155.5591     310.6241      1.372     3.42     841.1852     54.77978     117.8293         5     0.867     0.433 -45.74   0
       277    569.2608    629.1206 307.6823545  +6.4260330     51957.34     73303.97     76927.32      78.0261     155.4356     310.7786      1.507     3.20      840.499     54.77978     7235.018        67     1.481     1.127 -56.54   0
       278     69.4182    619.8919 307.8902421  +6.4130677     1412.564     2051.049     2026.723     77.77957     155.1883      310.655      1.521     3.24     841.2057     54.77978     217.9874        14     1.145     0.796 -54.74   0
       279    466.5164    612.8611 307.7255718  +6.4293031     66586.84      94316.7     98811.27      78.0261     155.4356     310.8404      1.516     3.21     840.6796     54.77978     10145.82        79     1.501     1.191 -57.90   0
       280     10.0787    614.3610 307.9150712  +6.4133537     1783.887      2610.73     3350.917     77.77957     155.4974     310.7786      1.758     3.82      841.048     54.77978     290.5073        19     1.167     1.116  40.11   0
       281    652.2502    609.7902 307.6485399  +6.4367890     952.5209     1281.317     1295.859      77.4083      155.312     310.4694      1.558     3.43     838.2598     54.77978     147.7897         8     0.903     0.623 -89.61   0
       282    140.8681    607.9260 307.8609760  +6.4204097     1647.244      2399.13     2255.552      78.0261     155.5591     310.7477      1.520     3.58     840.9777     54.77978     276.4454        16     1.205     0.888 -75.83   0
       283    419.9984    605.6089 307.7451352  +6.4307374     966.3191     1468.192     1591.705     77.28416     155.1264     310.5622      1.682     5.08     839.9021     54.77978     155.1669        10     1.357     0.644 -52.74   0
       284    936.0800    605.7233 307.5307985  +6.4479479     760.1987     1091.865     297.1269     78.14907     155.6826      310.933      1.483     4.55     835.1828     54.77978     130.7081         7     1.059     0.556 -71.10   0
       285    612.6756    604.2448 307.6651622  +6.4377540     1038.104     1361.221     1583.769     77.77957     155.4974     310.8095      1.412     3.80     838.1375     54.77978     165.8928        10     1.051     0.794 -41.55   0
       286    494.2236    603.8389 307.7143693  +6.4339556     523.4963     787.1927     1042.954     77.53226     155.1883     310.5931      1.704     3.87     840.4853     54.77978     80.14117         5     0.965     0.445 -43.50   0
       287    312.0251    602.1822 307.7900914  +6.4285298     2277.599     3712.626     4528.259     77.65601      155.312     310.7168      1.794     3.56     838.6268     54.77978     359.3285        22     1.300     0.991 -64.50   0
       288     12.8928    603.4492 307.9142723  +6.4179523     701.5566      832.051     1559.336     77.77957      155.312     310.9022      1.427     4.28     840.9415     54.77978     110.5703         7     0.911     0.573 -81.52   0
       289    320.9958    603.0176 307.7863377  +6.4284861     605.1967     1012.408     1381.539     77.53226     155.0026     310.6241      1.749     2.41     838.6442     54.77978     109.6862         5     0.609     0.591   0.20   0
       290    464.3242    600.4476 307.7269009  +6.4343535     1023.168     1540.933     1860.453     77.77957     155.4974     310.7786      1.655     4.97     840.1376     54.77978     133.0502        12     1.371     0.677 -41.14   0
       291     20.1832    601.1355 307.9113231  +6.4191526     564.3183     899.2255     1263.695      77.4083     155.3738      310.655      1.699     4.42      840.938     54.77978     79.44519         5     0.793     0.700 -47.52   0
       292    738.5999    596.3993 307.6131286  +6.4452035     6029.875     8276.312     8203.093     77.28416     155.0026     310.4694      1.454     3.05     837.9183     54.77978     1011.147        28     1.302     0.978 -47.77   0
       293    792.1476    591.6649 307.5910485  +6.4489468        15304     21302.23     22078.32     77.90293     155.3738     310.7477      1.471     3.04     837.5245     54.77978     2256.833        36     1.320     1.032 -52.95   0
       294   1009.6382    592.2952 307.5006987  +6.4559432     1051.168     1492.172     976.8839      78.0261      155.312     310.9022      1.486     3.63     833.8056     54.77978     162.7618        11     1.039     0.818  48.21   0
       295    534.3900    591.5329 307.6981030  +6.4403805     1259.727     1917.369     1723.491     77.40831     155.2502     310.6859      1.600     3.88     839.8192     54.77978     192.1244        13     1.103     0.846 -42.22   0
       296    616.1379    589.6824 307.6642147  +6.4438808     3166.792     4378.338     4140.681      78.0261     155.4356     310.7477      1.431     3.08     837.8375     54.77978      497.084        21     1.248     0.892 -53.79   0
       297     37.1647    590.7255 307.9046238  +6.4240209     630.0597     1122.682     1241.592     77.77957     155.4974     310.7786      1.828     4.35     840.9003     54.77978     95.10138         6     0.964     0.560 -64.93   0
       298    932.9227    586.1337 307.5327673  +6.4559287     1216.593     1941.806     2714.675      78.0261     155.4974     310.7477      1.831     5.47     834.6935     54.77978     163.3585        15     1.442     0.854 -44.79   0
       299    228.3973    583.2821 307.8254599  +6.4335231     1480.156     2272.627     2339.083     77.28416     155.0645     310.4694      1.734     3.88     839.0248     54.77978     234.4869        15     1.169     0.902 -48.31   0
       300    192.3790    583.8197 307.8403998  +6.4320911     893.9615      1385.02     2189.807     77.65601     155.3738     310.6859      1.952     5.23     839.5746     54.77978     119.1254        12     1.157     0.828 -73.30   0
       301    374.5810    583.4121 307.7647461  +6.4383763     1045.997     1438.861     1372.065     77.65601     155.1883     310.6859      1.470     3.32     838.5649     54.77978     161.5172        10     0.987     0.698 -75.02   0
       302    358.6276    583.2103 307.7713783  +6.4379245     506.2609     700.3585     462.2656     77.53226     155.2502      310.655      1.523     4.40     838.3694     54.77978     81.30231         5     1.151     0.478 -33.09   0
       303    868.2489    574.9870 307.5600024  +6.4583719     2818.978     4268.116     4929.799     77.28416     155.3738     310.5004      1.577     3.09      835.691     54.77978     403.2308        25     1.321     1.027 -31.65   0
       304    827.0229    572.3746 307.5772124  +6.4580740      2761.76     3933.635     3858.918      77.4083      155.312     310.7477      1.486     3.21     836.2714     54.77978     441.2572        18     1.237     0.813 -49.01   0
       305    163.7609    574.5890 307.8525968  +6.4349393     668.7122     924.9411     1318.754     77.28416     155.2502     310.5313      1.557     4.05     839.6092     54.77978     103.2947         7     0.981     0.478  -7.72   0
       306    797.7282    568.2721 307.5895172  +6.4587891     2716.175     3737.247     4489.667     78.14907     155.5591     310.7477      1.583     3.17     836.6094     54.77978     432.3628        19     1.212     0.952 -37.90   3
       307    807.5212    563.5682 307.5856080  +6.4610578     173899.9     239183.7     250694.2     77.77957     155.4356     310.7477      1.516     3.01     836.2944     54.77978     28950.47       125     1.548     1.241 -56.90   2
       308    740.2622    568.6756 307.6133707  +6.4567026     647.8798     1065.065     1249.867     78.14907     155.4356     310.7786      1.354     3.61     837.3414     54.77978     110.4385         5     0.887     0.423 -46.21   0
       309    254.9537    567.2787 307.8149722  +6.4410206     8309.163     11765.61     12235.37     77.90293     155.4356     310.7477      1.495     3.07     838.2529     54.77978     1268.027        29     1.305     1.013 -58.42   0
       310    189.1307    561.8249 307.8424926  +6.4410604     60824.36     90314.48     96076.42     77.53226      155.312     310.7168      1.582     3.20     838.7463     54.77978     8556.919        87     1.573     1.276 -53.29   0
       311    737.3947    564.0837 307.6147161  +6.4585021     649.5672     878.4489     1084.013      77.4083     155.0645     310.5313      1.530     4.20     837.2754     54.77978     110.2208         6     1.036     0.486 -86.77   0
       312    113.0748    557.9951 307.8742078  +6.4400844     6584.301      9813.36     9903.395     77.53226     154.9406     310.7168      1.532     3.13     839.8985     54.77978     913.5208        33     1.349     1.088 -73.27   0
       313    978.5568    555.4080 307.5148454  +6.4701333     1393.785     2058.013     2037.511     77.40831     155.2502     310.5004      1.584     3.49     831.9565     54.77978     206.9991        14     1.104     0.815 -70.52   0
       314    999.2376    554.5731 307.5062839  +6.4711673     629.8243       840.19     516.7828     77.53226     155.2502     310.6241      1.397     5.08     831.1011     54.77978     96.24023         8     1.097     0.665 -38.45   0
       315    844.0801    550.9163 307.5708492  +6.4675009     4647.844     6343.961      6567.85     77.77957     155.6826     310.8712      1.442     3.01     835.0791     54.77978     745.3896        24     1.293     0.928 -68.26   0
       316    227.4451    553.3207 307.8268683  +6.4458579     901.6453     1300.321     1450.207     77.90293     155.4356     310.7786      1.613     3.36       837.93     54.77978     117.6331         8     0.944     0.591 -22.47   0
       317    362.4878    548.9102 307.7709333  +6.4522118     18029.71     26225.02     27174.36     77.65601     155.9291     310.8712      1.536     3.18     837.7333     54.77978     2607.376        44     1.421     1.112 -59.72   0
       318    453.0278    548.5267 307.7333437  +6.4554061     798.9583     1074.415      1118.38     77.77957     155.3738     310.7168      1.397     3.36     837.9359     54.77978      138.757         7     0.927     0.586  58.18   0
       319    164.4094    547.7888 307.8532341  +6.4460231     1974.816     2921.292     3804.669     77.65601     155.2502     310.7168      1.691     3.09     838.5002     54.77978     263.8942        19     1.124     0.973 -57.29   0
       320    798.0882    544.1227 307.5901795  +6.4687693     6248.817     8708.748     8607.711     77.90293     155.7442     310.8404      1.452     3.03     835.7365     54.77978     948.6462        26     1.283     0.931 -62.50   0
       321    528.8802    543.8897 307.7019971  +6.4598615     6948.418     9952.348     10279.76     77.65601     155.6208     310.8712      1.501     3.18     837.3121     54.77978     1124.825        29     1.314     0.997 -54.80   0
       322    239.5477    545.6856 307.8221002  +6.4494159     1006.966     1377.007     1222.981     77.90293     155.3738     310.9022      1.370     3.21     837.6677     54.77978      161.246        10     0.993     0.721 -76.08   0
       323    101.8335    545.0056 307.8793159  +6.4450677     969.6817     1676.186     1566.993     77.28416     155.2502     310.5622      2.050     5.39     839.9094     54.77978     116.0203        11     1.325     0.620 -55.16   0
       324    387.1583    540.4976 307.7609713  +6.4565117     1407.324     1950.452     1653.127     77.90293      155.312     310.9948      1.496     4.31     837.4401     54.77978     227.9476        16     1.428     0.745 -46.60   0
       325    573.6000    536.9577 307.6836575  +6.4642202     2587.647     4053.629     4186.791     77.15981     155.0645     310.3766      1.666     4.50     836.6566     54.77978     343.3149        25     1.487     0.923 -46.76   0
       326    175.9420    536.9535 307.8488111  +6.4508830     7119.997     10193.29     10708.38     77.90293     155.4356     310.9021      1.493     3.20     838.1605     54.77978     1033.071        30     1.362     1.005 -53.92   0
       327    814.7225    536.2829 307.5835342  +6.4725609     1391.985     1966.658     1850.553      78.0261     155.7442     310.8712      1.407     3.94     835.1681     54.77978     287.5991        12     1.239     0.741 -66.50   0
       328    271.1140    533.4673 307.8094034  +6.4555192     91723.07     132450.6     139054.3      78.0261     155.6826     310.8095      1.570     3.15     837.1752     54.77978     13030.48        90     1.552     1.231 -57.84   0
       329     47.5970    535.6479 307.9021569  +6.4471054     5293.453     7870.415     8496.218     77.28416     155.1883     310.3766      1.630     3.27     840.5925     54.77978     732.4282        31     1.308     1.117 -63.10   0
       330    857.5637    536.7643 307.5657245  +6.4737926      602.105     695.3647     652.7493     77.65601     155.2502     310.5313      1.260     3.40     834.3193     54.77978     82.83331         5     0.733     0.456  70.06   0
       331    560.1893    531.1226 307.6894240  +6.4661798     888.7973     1500.123     1729.116     77.53226     155.0645     310.6241      1.688     5.39     836.4224     54.77978     141.6236        10     1.354     0.605 -37.69   0
       332    497.8698    524.3002 307.7155369  +6.4669086     42153.68      66140.2     70175.18     77.90293     155.5591     310.8095      1.702     3.35     836.8409     54.77978     5744.348        74     1.593     1.335 -40.24   0
       333    254.8591    528.2782 307.8163297  +6.4571152     1635.229     2129.886      2573.22      78.0261     155.4356     310.7168      1.439     3.70     837.1053     54.77978     224.3909        13     1.067     0.815 -55.86   0
       334    970.6928    527.3513 307.5190532  +6.4814523      1678.98     2494.073     2117.293     77.77957      155.312     310.9022      1.587     3.74     831.3406     54.77978     286.4359        16     1.314     0.828 -49.47   0
       335    794.2701    525.9564 307.5923761  +6.4761404     17354.32     24555.22     25469.05     77.77957     155.4356     310.8095      1.480     3.04     835.2562     54.77978     2436.205        42     1.388     1.052 -54.47   0
       336    648.4873    522.7617 307.6530327  +6.4725859     1027.611     1322.818      1292.99     77.90293     155.3738     310.7786      1.531     5.10     835.7145     54.77978     155.3342        13     1.196     0.881 -49.39   0
       337    210.3493    520.5772 307.8350754  +6.4587987     1965.824     2754.273     2835.886     77.40831     155.4974     310.6859      1.474     3.37      837.457     54.77978      273.598        18     1.263     0.819 -60.92   0
       338     46.0032    520.7773 307.9033224  +6.4531896     1219.765      1722.93     1696.311     77.53226     155.1264     310.5931      1.401     3.54     840.4371     54.77978      186.465        13     1.092     0.814 -75.20   0
       339    667.9992    519.2402 307.6450472  +6.4746922     1330.484     1827.053     1941.014     77.03525     155.1883     310.5004      1.449     3.58     835.4967     54.77978     185.7484        13     1.028     0.849 -42.23   0
       340    657.8378    519.2257 307.6492681  +6.4743582     3159.741     4479.009     4660.447     77.53226     155.2502     310.6241      1.524     3.18     835.5023     54.77978     545.1236        22     1.273     0.927 -45.35   0
       341     96.1257    519.9982 307.8825329  +6.4551977      561.137     870.3138     1114.677      77.4083     154.8786      310.655      1.516     3.79     839.4224     54.77978     105.7992         5     0.655     0.630   0.42   0
       342    719.9911    518.2668 307.6234857  +6.4768324     1267.042     1703.862      2217.77      77.4083     155.2502     310.6859      1.458     3.30     835.5597     54.77978     239.5309        11     1.056     0.744 -54.31   0
       343     77.1903    517.1458 307.8904934  +6.4557380     815.7844      1325.38     1726.193     77.28416     155.3738     310.5004      1.599     4.73     839.7423     54.77978     113.5627         8     1.014     0.626 -63.65   0
       344    327.0948    513.1736 307.7868394  +6.4657749     4139.832     5989.085      5776.94      78.0261     155.1883      310.655      1.530     3.23     836.1516     54.77978     611.4865        27     1.314     1.007 -66.06   0
       345    142.2182    511.7993 307.8636679  +6.4601319     26904.19     39439.72     40931.23     77.53226     155.0026     310.4694      1.544     3.24     838.5055     54.77978     3591.587        54     1.443     1.162 -59.52   0
       346    395.5908    514.9408 307.7583318  +6.4673434     1919.068     2608.644     2572.082     77.28416      155.312     310.5004      1.401     3.03     836.0649     54.77978     283.3618        16     1.087     0.846 -51.14   0
       347    507.0534    512.5939 307.7121174  +6.4720482     2201.177     3075.669     2584.457      77.4083     155.1883     310.5004      1.505     3.40     836.2676     54.77978     366.3718        17     1.150     0.912 -50.59   0
       348    870.2681    511.6662 307.5612910  +6.4845765     1754.491     2518.192     2858.268     77.90293     155.4974     310.8095      1.487     3.51     833.4106     54.77978     236.0646        15     1.202     0.819 -72.95   0
       349    107.2726    510.0479 307.8782404  +6.4596796     2755.449     4164.367      4604.35     77.90293     155.4974     310.8095      1.657     3.54     839.0005     54.77978     364.9183        20     1.298     0.878 -52.63   0
       350    344.2620    508.5126 307.7798669  +6.4682749     1153.979     1548.291     1878.934     77.77957     155.6209     310.8095      1.541     4.03     835.9662     54.77978      171.525        10     1.062     0.705 -65.95   0
       351    967.8597    506.4383 307.5209318  +6.4899902     5548.095     7837.177     8047.378     77.90293     155.4974     310.8095      1.494     3.16     830.9377     54.77978     877.5348        29     1.326     1.016 -58.65   0
       352    541.2064    498.8034 307.6983974  +6.4788844     1558.939     2172.667     2074.754     77.28416     155.1264      310.655      1.399     3.17     834.9538     54.77978     234.8544        13     1.031     0.814 -87.82   0
       353      6.4645    496.1011 307.9205789  +6.4620438     26293.97     38309.65     40372.23     77.90293     155.4974     299.0956      1.565     3.16     841.1686     54.77978     3795.389        56     1.466     1.181 -58.29  16
       354    439.2283    492.9610 307.7409496  +6.4778791     44185.75     64133.21     67015.69     77.53226     155.1883      310.655      1.518     3.20     835.1522     54.77978     5899.077        60     1.464     1.140 -59.29   0
       355    416.0186    496.0446 307.7504853  +6.4758282      544.543     793.6874     1408.409     77.53226      155.312     310.5313      1.403     2.99     834.8489     54.77978     87.26654         5     0.634     0.587 -89.16   0
       356    647.2721    492.6685 307.6545507  +6.4849668     13281.81     18691.74        18804      78.0261     155.5591     310.7786      1.504     3.10     834.1643     54.77978     2007.179        38     1.350     1.064 -52.58   0
       357    204.3826    490.5390 307.8385693  +6.4709967     19554.68     30268.52     31532.72     77.53226     155.3738     310.5931      1.695     3.30     837.1386     54.77978      2717.31        54     1.494     1.269 -63.59   0
       358    821.2184    490.9306 307.5823607  +6.4914981      1037.46     1622.212      1524.98     77.53226      155.312     310.7168      1.720     3.92     833.7868     54.77978     153.4581        10     1.052     0.653 -78.93   0
       359    981.1607    491.0402 307.5159240  +6.4967896     1105.044      1715.53     2047.767     77.65601     155.4974      310.655      1.605     4.72     830.3757     54.77978     171.4413         8     1.026     0.616 -44.12   0
       360    569.0580    489.3713 307.6871474  +6.4837103     2992.737     4105.407      4184.76     77.53226     155.4974     310.6859      1.468     3.16     834.2064     54.77978     439.3357        21     1.161     0.971 -59.73   0
       361    910.2095    489.8913 307.5454327  +6.4948975     643.4871     860.2033     1013.725     77.53226     155.1264     310.5313      1.358     3.89     831.6362     54.77978     100.2452         6     0.780     0.555 -51.30   0
       362    942.9168    486.6220 307.5319572  +6.4973381     5029.396     7067.021     7317.469     77.65601     155.1264      310.655      1.497     3.26     830.7696     54.77978     839.0728        26     1.282     0.984 -50.22   0
       363    616.0854    485.0264 307.6677612  +6.4870778     6884.435     9749.137     10542.45      78.0261     155.1883      310.655      1.482     3.14     833.7526     54.77978     1012.377        29     1.319     0.980 -63.93   0
       364    103.7051    485.5152 307.8805525  +6.4696856     1306.215     1647.881     1879.999     77.90293     155.8059     310.8712      1.364     3.38     838.4871     54.77978     178.1252        11     0.953     0.761 -64.60   0
       365    170.1174    491.6030 307.8527643  +6.4694059     1751.807     2227.568     2030.393     77.28416     155.0645     310.4694      1.465     4.19     837.8943     54.77978     250.1771        15     1.163     0.879 -55.04   0
       366    965.5465    478.9725 307.5228145  +6.5012503     3603.074     4999.899     4986.597     77.65601     155.5591     310.6859      1.496     3.07     830.2858     54.77978     611.7696        23     1.246     0.969 -63.47   0
       367    528.2251    476.3124 307.7045473  +6.4877332     7843.401      10892.7     11424.49      78.0261     155.2502      310.655      1.512     3.14     834.1632     54.77978     1113.755        30     1.333     0.992 -51.54   0
       368    374.2273    476.5641 307.7685003  +6.4824674     2760.577     4056.184     3758.009     77.40831     155.1883     310.5931      1.546     3.28     834.2421     54.77978     419.4757        20     1.247     0.937 -64.21   0
       369    287.2908    492.9605 307.8040538  +6.4727819      1139.76     1722.109     1603.921     77.90293     155.3738     310.8095      1.535     4.40     835.2711     54.77978     169.0457        12     1.165     0.781 -75.09   0
       370     97.2061    475.3848 307.8835946  +6.4736483     541.9415     902.9904     1547.451     77.53226     155.1883     310.6241      1.815     3.72     838.2996     54.77978      73.2486         5     1.004     0.395 -84.64   0
       371    537.7599    473.5541 307.7006800  +6.4891911     579.4332     638.1678     1108.385     77.77957     155.4356     310.6241      1.578     3.80     833.8262     54.77978      96.4931         5     1.008     0.411 -82.68   0
       372    884.7679    472.1758 307.5565951  +6.5013611     3382.404      4830.76     5356.923     77.28416     155.2502     310.5931      1.510     3.22     831.7197     54.77978     512.9454        20     1.233     0.926 -55.39   0
       373    233.1607    470.8324 307.8272834  +6.4800976     678.5859      1170.17     1353.581     77.53226     155.2502     310.5931      1.924     3.90     835.9509     54.77978     97.31677         6     0.764     0.570 -50.58   0
       374    892.1686    466.5529 307.5537100  +6.5039290     2507.193     3471.864     3629.733     77.53226     155.4356     310.6859      1.456     3.26     831.3287     54.77978     386.1379        17     1.108     0.871 -60.56   0
       375    931.4946    466.0464 307.5373924  +6.5054501     1372.377     1836.136     1862.798     77.77957     155.3738     310.9021      1.457     3.49     830.1819     54.77978     222.4537        11     1.058     0.681 -49.29   0
       376    111.0650    465.2258 307.8781826  +6.4783077     777.2443     1129.406      1093.97     77.53226     155.3738     310.6859      1.518     3.69     837.9951     54.77978     121.4062         7     0.785     0.726  39.54   0
       377    716.1590    462.5242 307.6269531  +6.4997132     3272.824     4597.637     5352.759     77.77957     155.4356     310.8095      1.551     3.30     832.8956     54.77978      490.705        21     1.234     0.919 -54.65   0
       378     77.5933    461.3940 307.8922139  +6.4787632     1945.615     2789.633     2665.031     77.28416     155.2502     310.6241      1.595     4.36      838.424     54.77978     281.1082        20     1.406     0.924 -47.04   0
       379    387.0761    460.5099 307.7637057  +6.4895249     3862.906      5473.18     5639.134     77.90293     155.6826     310.8095      1.517     3.11     833.3956     54.77978     548.2827        24     1.355     0.956 -57.71   0
       380    427.6190    460.7202 307.7468594  +6.4907977     983.6703     1489.491     1253.573     77.53226     155.1264     310.7168      1.477     3.04     833.3597     54.77978     157.8496         7     0.816     0.611  21.58   0
       381    614.7399    457.2290 307.6692564  +6.4985067     10560.99      14941.7     15558.29     77.53226     155.4356     310.7477      1.502     3.12     832.5917     54.77978     1719.379        35     1.361     1.039 -56.31   0
       382    777.7302    453.4803 307.6016830  +6.5055040     17229.44     24488.88     27314.37     78.14907     155.7442     310.8095      1.587     3.60     832.3617     54.77978     2810.413        60     2.160     1.061 -51.20   0
       383    297.1266    453.9463 307.8012870  +6.4892157     2648.622     3814.061     3574.781     77.77957     155.3738     310.7477      1.521     3.48     833.4788     54.77978     355.0138        23     1.315     0.955 -61.64   0
       384    728.8131    452.5720 307.6220319  +6.5042442     493.3062       787.11     645.2708     77.53226     155.2502     310.6859      1.608     4.25     832.3772     54.77978     72.70599         5     0.908     0.568 -48.16   0
       385    421.1847    453.3221 307.7497815  +6.4936356     587.0233     736.5002     641.0751     77.53226     155.1883     310.6241      1.392     3.54     832.9227     54.77978     92.98566         6     0.733     0.639 -78.09   0
       386    806.6289    450.7029 307.5897729  +6.5076157     1504.604     2012.009     1953.623      78.0261     155.1883     310.7786      1.376     3.21     832.1904     54.77978     218.1992        12     1.022     0.774 -70.42   0
       387    396.3230    450.4384 307.7602050  +6.4939922     699.4016     1069.611     1410.748     77.77957     155.4974     310.7786      1.487     3.83     832.8635     54.77978      101.928         6     0.898     0.467 -88.72   0
       388    380.2690    450.5420 307.7668695  +6.4934110     1756.943     2501.094     2502.949      78.0261     155.3738     310.7168      1.545     3.15     832.9874     54.77978     221.3469        14     0.977     0.903 -66.07   0
       389    962.6494    448.4622 307.5250420  +6.5137476     2114.159     3002.679     3329.657     77.90293     155.3738     310.8404      1.563     3.25     829.5197     54.77978     374.3853        17     1.233     0.903 -64.35   0
       390    114.7715    445.5474 307.8773094  +6.4865547     4727.235     7002.313     7335.033     77.65601     155.5591     310.6859      1.598     3.16     837.5568     54.77978     732.3499        26     1.306     1.014 -65.58   0
       391    753.0345    444.6907 307.6122364  +6.5083069     2435.495     3388.205     3629.743      78.0261      155.312     310.7786      1.460     3.28     831.9257     54.77978     399.0867        16     1.185     0.812 -62.64   0
       392    368.7216    446.5583 307.7718002  +6.4946679     754.5026     998.2333     1190.582     77.77957     155.4356     310.7786      1.425     4.11     832.8509     54.77978        105.4         7     1.052     0.458 -11.74   0
       393   1016.6298    443.5248 307.5027857  +6.5175852     4115.252     6646.244     6362.155     77.77957     155.4974     310.5622      1.753     4.04     829.2079     54.77978     482.2858        30     1.311     1.259  -8.80  16
       394    272.7599    442.8020 307.8117841  +6.4929974     1549.689     2422.635     3054.626     77.15981     155.1883     310.5313      1.713     4.02     833.6121     54.77978     210.5616        17     1.274     0.863 -50.21   0
       395    350.9701    440.3305 307.7793835  +6.4966429     3269.312     4695.963     4571.456     77.77957     155.4356     310.7168      1.508     3.17     832.5696     54.77978     490.2851        23     1.284     0.946 -56.66   0
       396    706.8100    438.0763 307.6316590  +6.5094920     1739.162      2113.65     1707.475     77.53226     155.0026     310.5931      1.348     3.14     831.7923     54.77978     305.2072        15     1.043     0.900 -69.03   0
       397    980.6732    437.1876 307.5179338  +6.5190024      638.605     758.0415     990.3162      77.4083     155.1264     310.5622      1.414     4.39     829.1838     54.77978     95.52008         7     1.224     0.448 -51.54   0
       398    238.9473    436.1258 307.8260536  +6.4946174     896.5768     1364.531      898.931     77.90293     155.4974     310.7786      1.523     3.61      834.608     54.77978     161.9495         8     0.929     0.689 -25.33   0
       399    449.3817    432.0664 307.7387871  +6.5033545     586.5986     736.2205     398.2215     77.53226     155.3738     310.6859      1.586     3.49     832.0765     54.77978     94.91895         5     0.827     0.425  70.60   0
       400    548.3809    430.8383 307.6977084  +6.5071784     940.3365     1200.755     868.3765     77.53226     155.2502     310.5313      1.366     3.93     831.8978     54.77978     136.5975         7     1.001     0.500 -46.23   0
       401    470.4656    429.2283 307.7301255  +6.5052327     1492.037     2101.797      2188.22     77.65601     155.3738     310.7168      1.473     3.42     831.8743     54.77978     209.3014        13     1.091     0.761 -43.20   0
       402    832.8404    428.4811 307.5796324  +6.5176636     1582.387      2166.68     2849.254     77.90293     155.4356     310.7168      1.599     3.97     830.8056     54.77978     225.3567        14     1.123     0.841 -43.18   0
       403    818.7274    427.3374 307.5855331  +6.5176644     2212.064     3062.929     3190.012      78.0261     155.4356     310.8404      1.433     2.97     830.8505     54.77978     415.8292        14     1.118     0.753 -61.63   0
       404    715.9494    425.4827 307.6282866  +6.5149958     16030.19     22272.97     23913.81     77.90293     155.4356     310.8095      1.492     3.19     831.1074     54.77978     2587.971        41     1.372     1.066 -55.61   0
       405    637.0887    421.4142 307.6611799  +6.5140377     2725.492      3842.58     4789.619     77.65601     155.2502      310.655      1.521     3.05     831.2855     54.77978     414.4102        22     1.301     0.885 -56.23   0
       406    612.3045    418.3344 307.6715782  +6.5144796     5802.721     8152.397      8592.01     77.90293     155.5591     310.8095      1.517     3.14      831.027     54.77978     809.3558        26     1.331     0.970 -67.81   3
       407    608.4412    415.9288 307.6732640  +6.5153432     15514.06     21979.19     23114.62     77.77957     155.4356     310.8404      1.503     3.05     830.9099     54.77978     2209.533        40     1.422     1.091 -62.48   3
       408    618.1470    427.1541 307.6688543  +6.5110346     888.0919     1199.967      1141.65     77.90293     155.4356     310.8404      1.438     3.48     831.4165     54.77978     130.5726         8     0.840     0.653 -46.95   0
       409    941.2507    415.3682 307.5350417  +6.5266943     4296.123     5675.496     5733.535     77.77957     155.4974     310.7168      1.410     3.03     828.6677     54.77978     661.8419        23     1.230     0.899 -59.35   0
       410    380.3073    411.3587 307.7681766  +6.5095856     30518.62     43994.16     45884.94      78.0261     155.3738     310.8712      1.576     3.21     831.0942     54.77978     4488.896        56     1.496     1.150 -56.06   0
       411    417.6410    412.7106 307.7526241  +6.5102797     582.2091      771.059     287.5011     77.90293     155.3738     310.8095      1.510     2.82     831.2322     54.77978     129.5126         5     0.837     0.640 -47.84   0
       412    126.3129    410.7607 307.8736934  +6.5013011     2298.087     3585.007     4019.256     77.90293     155.3738     310.7786      1.658     3.57     836.6147     54.77978      322.132        19     1.291     0.892 -62.98   0
       413    896.8400    411.3084 307.5536254  +6.5268884     1717.428     2450.635     2843.388     77.90293     155.3738     310.8404      1.523     3.59     829.2689     54.77978     255.8788        15     1.124     0.881 -38.01   0
       414    893.0059    406.8959 307.5553663  +6.5285818      598.244     1180.226     1089.585     77.65601     155.1264     310.5931      1.937     6.18     829.2379     54.77978     84.49719         9     1.581     0.679 -87.30   0
       415    910.0045    405.9006 307.5483388  +6.5295598     5338.687     7429.243     7632.913     77.65601     155.1264     310.4385      1.446     3.22     828.8065     54.77978      873.513        24     1.251     0.950 -56.75   0
       416    591.8991    406.6188 307.6804487  +6.5186324     640.1056     758.7054     367.8008     77.90293      155.312     310.5622      1.259     5.20     830.4133     54.77978     120.2123         8     0.965     0.791 -12.03   0
       417     59.7796    406.0423 307.9014871  +6.5010103     1469.148     2309.953     2710.434      77.4083      155.312      310.655      1.622     2.98     837.0437     54.77978     242.5323        13     1.029     0.786 -48.54   0
       418    965.8984    403.7458 307.5251936  +6.5323137     771.8965     866.2172      652.957     77.77957     155.4356     310.9948      1.231     3.28     828.0884     54.77978     123.5161         7     0.841     0.588 -31.35   0
       419    237.8578    401.8557 307.8276648  +6.5087260     14316.55     20947.37     21604.94      78.0261     155.4974     310.8404      1.551     3.29     833.3318     54.77978     2118.894        43     1.452     1.103 -56.55   0
       420    732.7181    395.8881 307.6223172  +6.5277721     811.8066      1255.52     1696.602     77.65601     155.6208     310.8712      1.588     4.86     829.5661     54.77978     155.6338         9     1.078     0.621 -40.50   0
       421     73.4934    396.0067 307.8961311  +6.5056140     811.9869     1377.557     1803.775     77.53226     155.1264     310.6241      2.050     3.38     836.8376     54.77978     135.7128         8     0.970     0.581 -49.44   0
       422   1010.2023    394.7811 307.5070911  +6.5374911     606.0189     839.6069     319.0105     77.53226     155.0026     310.5313      1.078     3.43     827.2744     54.77978     145.3265         6     0.897     0.473 -57.19   0
       423    961.1967    394.0450 307.5274723  +6.5361612     1085.785     1593.581     1168.361     77.28416     155.1264     310.4385      1.497     3.25     827.6405     54.77978     171.8378         9     0.890     0.730 -76.25   0
       424    701.1265    394.7697 307.6354774  +6.5271776     672.3207     948.7137     1307.946     77.77957     155.4356     310.7786      1.463     3.34     829.7109     54.77978     140.3131         7     0.998     0.514 -67.52   0
       425    350.8668    391.5349 307.7810745  +6.5167803     1524.369     2190.271     2001.998     77.90293     155.4356     310.8095      1.517     3.86     830.1902     54.77978     221.3412        15     1.150     0.888 -42.15   0
       426    183.7265    391.7608 307.8504898  +6.5110738     856.6462     1525.946     1910.538     77.77957     155.4356     310.8404      1.956     4.52     834.6872     54.77978     126.0461         8     0.969     0.599 -75.21   0
       427    138.1118    390.4186 307.8694813  +6.5100942     5187.333     7629.965     8111.959     77.65601     155.1883     310.6859      1.600     3.27     835.8188     54.77978     741.8544        27     1.304     1.049 -63.09   0
       428    435.6303    389.1684 307.7459465  +6.5206002     861.3017      1023.37     1173.352      77.4083     155.1883     310.5313      1.456     3.57     829.5761     54.77978      137.677        10     1.130     0.697 -56.54   0
       429    378.5146    390.4040 307.7696287  +6.5181748     564.7419     855.5322     746.0275     77.40831     155.0645     310.5004      1.298     3.90     829.9276     54.77978     75.74066         5     1.071     0.407 -16.11   0
       430    243.0686    389.3343 307.8259238  +6.5140694     1370.537     1847.947     1881.704     77.90293     155.4974     310.8095      1.517     3.96     832.5706     54.77978     184.4282        13     1.265     0.767 -51.49   0
       431    824.3994    387.3780 307.5845204  +6.5343480     778.6864      1360.12     965.6265     77.53226     155.1264     310.5004      1.717     6.41     829.4701     54.77978     103.8011        13     1.517     0.761 -85.27   0
       432    160.2932    386.0996 307.8604144  +6.5126227     2622.093      4138.34     4556.342     77.90293     155.9291     310.6859      1.630     3.66     835.2814     54.77978     364.3062        22     1.482     0.902 -67.03   0
       433    555.7659    385.1628 307.6961806  +6.5262790     979.9181     1607.386     1574.776     77.65601     155.2502     310.5622      1.901     4.16     829.1511     54.77978     159.4727        10     1.154     0.690 -42.81   0
       434    972.0651    381.1830 307.5233894  +6.5418327     809.9612     1634.611     2176.147      77.4083      155.312      310.655      2.324     6.57     826.8776     54.77978     150.3592        12     1.967     0.615 -70.07   0
       435    271.7139    381.7487 307.8142822  +6.5181625     951.0214     1149.386     1236.643     77.90293      155.312     310.8404      1.509     5.11      831.363     54.77978     133.7083        11     1.123     0.724 -64.28   0
       436    383.7624    380.9726 307.7677675  +6.5222437     2290.549      3165.26     3493.201     77.53226     155.1883     310.6241      1.469     3.28     829.3899     54.77978     380.3392        18     1.218     0.887 -61.46   0
       437      2.7868    381.3703 307.9259944  +6.5092750     735.4196     1066.346     1433.336     77.40831      142.478     256.0977      1.450     4.36     837.1866     54.77978     118.4302         7     0.952     0.568 -52.36  16
       438    318.3265    378.8351 307.7950195  +6.5209302     610.5746      1044.57       644.56     77.77957     155.4356     310.7168      1.667     3.94     830.1931     54.77978     96.17957         6     0.738     0.650  19.61   0
       439    789.8065    377.1555 307.5992337  +6.5374121      441.058     367.8361     263.3067      77.4083     155.2502     310.4694      1.197     4.42     829.1384     54.77978     73.38812         5     0.793     0.702  46.28   0
       440    437.4745    374.7247 307.7456679  +6.5266239     7693.003     11232.11     12012.97     78.14907     155.6826     310.8712      1.619     3.32     828.6891     54.77978     1191.699        34     1.363     1.093 -62.61   0
       441     33.7508    375.4479 307.9133344  +6.5127621     3421.362     5224.484     5642.035     77.90293      155.312     310.8095      1.701     3.55     836.8713     54.77978     525.4198        26     1.402     0.993 -55.73   0
       442    770.1439    373.6642 307.6075187  +6.5381962     2177.166     3063.778     3378.632      78.0261     155.3738     310.7786      1.495     3.33     828.8788     54.77978      354.864        17     1.165     0.882 -71.06   0
       443    778.1400    372.1104 307.6042495  +6.5391048     13684.05     19206.21     20463.43     77.77957     155.5591     310.8404      1.481     3.08     828.8748     54.77978     1895.999        40     1.369     1.090 -50.79   0
       444    341.7283    370.2597 307.7855889  +6.5252552     1102.202     1705.838     1687.205      78.0261     155.4356     310.8095      1.572     3.13     829.3262     54.77978     229.6384        11     1.094     0.645 -84.69   0
       445   1022.0453    367.3763 307.5030910  +6.5491979     3874.577     5311.865     5359.199      77.4083     144.3528      258.412      1.434     3.04     825.2547     54.77978     620.3903        24     1.272     0.933 -52.62  24
       446    952.9319    363.7020 307.5319242  +6.5484103     607.5837     942.4359     633.5519     77.90293     155.5591     310.7786      1.515     3.68     826.3701     54.77978     128.4407         6     1.052     0.576 -23.95   0
       447    903.3764    362.1023 307.5525633  +6.5474175     772.7676     1111.921     585.4442      78.0261     155.1883     310.6241      1.481     5.13     827.5568     54.77978     128.2599         8     0.958     0.777 -19.25   0
       448    186.4394    362.4522 307.8503545  +6.5232623     760.2322     1013.482     752.3456     77.77957     155.4356     310.7477      1.313     2.76     833.4422     54.77978     137.5981         6     0.784     0.541 -46.44   0
       449    485.5564    358.3453 307.7262484  +6.5349964     3375.637      4725.15     4666.695     77.90293     155.4356     310.7786      1.526     3.29     827.5745     54.77978     534.1249        23     1.348     0.908 -58.16   0
       450    457.8488    358.8968 307.7377390  +6.5338401     2400.941     3368.628     3340.108     77.77957     155.3738      310.933      1.470     3.33     827.6645     54.77978     341.3169        17     1.156     0.856 -59.52   0
       451    914.3716    358.3170 307.5481230  +6.5493468     762.6686     848.6004     777.8821     77.77957     155.2502     310.7168      1.125     2.60     827.0825     54.77978     142.2314         7     0.821     0.597 -22.38   0
       452    843.4747    355.0474 307.5776835  +6.5483301     34879.96     51357.29     53413.29     77.77957     155.4974     310.7786      1.552     3.24     828.5488     54.77978     5385.963        56     1.524     1.100 -66.28   0
       453    989.2134    354.9089 307.5171479  +6.5532497     490.6355     534.5073     453.8577     77.65601     155.1883     310.5622      1.041     3.78     825.1668     54.77978     88.37048         5     0.800     0.512  39.22   0
       454    335.7148    350.6858 307.7887480  +6.5331327     1010.212     1280.947      1310.92     77.65601     155.5591     310.8404      1.398     4.31     828.6618     54.77978     168.6664        13     1.290     0.715 -56.68   0
       455     61.5105    350.8619 307.9026373  +6.5238443     747.0693     1010.326     964.5341     77.90293     155.5591     310.8404      1.499     3.39     836.2068     54.77978     113.9232         7     0.894     0.607  36.87   0
       456    615.0868    347.3761 307.6728130  +6.5438620     2847.253     4178.243     4441.829     77.90293     155.2502     310.6241      1.555     3.36     826.4767     54.77978     442.1832        23     1.244     1.031 -60.63   0
       457     23.6221    347.5781 307.9184857  +6.5239243     1243.453     1627.424     1972.185     77.65601     155.2502     310.7786      1.400     3.35     836.6619     54.77978     191.2121        13     1.014     0.931 -52.31   0
       458    146.7461    345.5798 307.8674126  +6.5288919     651.4019     689.9614     557.2521     77.40831     155.4356     310.5931      1.282     2.93     834.4371     54.77978     123.8116         6     0.840     0.497 -45.21   0
       459    699.9334    341.0286 307.6377819  +6.5493204     84443.74     120134.6       125765     77.65601     155.3738     310.7477      1.485     3.09     826.9083     54.77978     13081.77        85     1.482     1.204 -54.71   0
       460    858.1631    342.7029 307.5719968  +6.5539160     1219.954     1723.278     1676.192     77.90293      155.312      310.933      1.472     3.28     827.7491     54.77978     234.7872        14     1.021     0.941  87.22   0
       461     79.3553    340.3142 307.8955825  +6.5287984     1293.459     1844.521     1870.939     77.90293      155.312     310.7477      1.540     3.06     835.6476     54.77978      184.011        11     0.923     0.784 -71.50   0
       462    941.2637    338.2794 307.5376249  +6.5585149     886.3553     1396.448     1456.407     78.14907     155.4974     310.7786      1.580     5.06     825.3351     54.77978     137.7538        11     1.243     0.880 -52.88   0
       463    562.4374    337.7079 307.6950090  +6.5460902     2856.565      4114.58     4347.435      78.0261     155.3738     310.8404      1.577     3.13     826.0592     54.77978     411.3547        20     1.244     0.931 -63.00   0
       464     99.5951    336.3951 307.8873084  +6.5310970     6625.393     9579.309     10205.81     77.28416     155.1264      310.655      1.589     3.09     835.2595     54.77978     1010.164        34     1.403     1.076 -61.35   0
       465    389.3059    338.0185 307.7669152  +6.5401594      609.481     844.9405     980.5448     77.77957     155.1883      310.655      1.325     4.13      827.357     54.77978     96.57574         5     0.823     0.592   2.25   0
       466    545.6611    333.8760 307.7021069  +6.5471100     7485.723     10836.11      10758.2     78.14907     155.4356     310.7786      1.535     3.35     825.8572     54.77978     1189.719        34     1.415     1.025 -58.80   0
       467    274.5576    331.4625 307.8148009  +6.5390140     2894.438     3872.861      3801.56     77.90293     155.3738     310.8712      1.494     3.17      829.442     54.77978      444.563        21     1.384     0.903 -60.16   0
       468    408.5667    329.0071 307.7592188  +6.5445250     26951.57     39601.87     41451.15      77.4083      155.312     310.5931      1.548     3.28     826.7358     54.77978     3831.225        52     1.445     1.153 -58.59   0
       469    587.4388    328.1819 307.6849446  +6.5508592     675.7742     919.5126     933.8877     77.53226     155.2502     310.5622      1.688     4.11     825.3719     54.77978     92.61169         7     0.981     0.493 -86.00   0
       470    674.9778    327.4820 307.6486045  +6.5540774     561.6786     824.9853     1298.836     77.65601     155.1264     310.7168      2.046     5.14     826.0364     54.77978     88.14111         7     1.124     0.665 -41.98   0
       471    516.2423    327.6960 307.7145357  +6.5486755     1327.711     1817.354     1900.089     77.90293     155.3738     310.9022      1.466     3.58     825.5901     54.77978     201.0892        14     1.187     0.800 -32.95   0
       472    388.4860    327.1251 307.7676236  +6.5446283     1241.306      1876.01     3160.156      78.0261     155.7442     310.8404      2.104     3.40     827.1093     54.77978     197.1109        12     1.120     0.764 -81.37   0
       473    487.7715    324.0547 307.7264851  +6.5492245      1324.93     1811.315     2126.709     77.65601     155.4974     310.7168      1.444     2.87     825.4442     54.77978     219.0887        12     0.920     0.847 -77.98   0
       474    803.4053    321.6343 307.5954518  +6.5607839     936.3708     1336.386     1270.915     77.15981     155.2502     310.5622      1.618     3.32     827.1577     54.77978     157.7513         9     1.050     0.611 -75.47   0
       475    497.6033    319.4271 307.7225571  +6.5514641     9139.007     13129.91     13793.03     77.40831     155.1883     310.6241      1.575     3.17     825.0896     54.77978     1454.863        35     1.431     1.026 -56.20   0
       476    385.7039    320.9508 307.7689878  +6.5470835     940.2308     1734.486     2633.611     77.77957     155.3738      310.933      2.651     5.10     827.0078     54.77978     164.2134        11     1.270     0.811 -81.03   0
       477    639.4761    320.9737 307.6635712  +6.5555762     795.3707     1044.944     1342.324     77.65601     155.3738     310.7477      1.398     3.45     825.3049     54.77978     134.8254         8     0.956     0.599 -47.60   0
       478    766.7917    318.2250 307.6107761  +6.5609679     3183.469      4667.52     5230.665     77.53226     155.2502     310.6241      1.538     3.28     826.8381     54.77978     505.0568        20     1.223     0.889 -65.81   0
       479    922.5542    317.8804 307.5460821  +6.5663109     899.1437     1311.643     1506.314     77.90293     155.4356     310.7786      1.545     3.37     824.4976     54.77978     134.6392         9     0.914     0.747  69.37   0
       480    714.1877    317.5967 307.6326494  +6.5594689      827.951      1040.61     1334.669     77.53226     155.1264      310.655      1.383     4.52     826.3023     54.77978       121.79         7     1.010     0.574 -70.45   0
       481    324.4027    316.1891 307.7946124  +6.5469918     1228.475     1684.547     1964.086     77.53226     155.1264     310.6241      1.525     4.03     827.9708     54.77978     174.6556        13     1.151     0.782 -59.72   0
       482    159.5759    309.8257 307.8632936  +6.5440809     1158.638     1749.006     1494.963      77.4083     155.2502     310.6859      1.588     3.54     833.8033     54.77978     173.8561        12     1.012     0.869 -65.18   0
       483    259.9581    309.4350 307.8216100  +6.5476157     682.7153     937.4576     992.4767     77.65601     155.4356     310.6241      1.516     3.80     829.2267     54.77978     111.3519         6     0.925     0.529 -71.73   0
       484    387.5546    303.6436 307.7688034  +6.5542893     8021.174     11635.75     11899.92     77.90293     155.4356     310.7168      1.594     3.26     826.5533     54.77978     1259.241        30     1.376     1.016 -59.96   0
       485    243.5094    304.1094 307.8286226  +6.5492613     2235.849     3253.908     3283.434     77.90293     155.9291     310.8712      1.573     3.44     829.7428     54.77978     316.2647        20     1.233     0.980 -56.15   0
       486    741.1501    303.5176 307.6219228  +6.5661817     894.7409     1277.138     943.2153     77.90293     155.4356     310.8095      1.403     4.54     826.2655     54.77978      137.941        10     1.133     0.724 -72.82   0
       487    755.4169    299.5671 307.6161291  +6.5682892     58454.94      81607.6     84896.51     77.53226     155.2502      310.655      1.513     3.09     826.1719     54.77978     9607.064        73     1.462     1.174 -57.73   0
       488    427.0366    298.9317 307.7525619  +6.5575584     2387.949     3424.937     3737.663     77.77957     155.4356     310.8712      1.554     3.22     825.3882     54.77978     343.3804        17     1.192     0.850 -52.42   0
       489    990.0068    296.7867 307.5187693  +6.5772674     1787.322     2573.042     2360.076     77.53226     155.2502      310.655      1.562     4.02     822.9564     54.77978      239.163        17     1.292     0.844 -55.44   0
       490    931.2563    295.8813 307.5432060  +6.5756819     2583.267     3476.952     3540.912      78.0261     155.4356     310.8095      1.442     3.29     823.0675     54.77978     379.0251        19     1.179     0.911 -68.69   0
       491    573.3021    296.3535 307.6918898  +6.5635236     1274.593     1938.134     1900.219     77.90293     155.2502     310.9639      1.660     4.11     823.4364     54.77978      190.642        13     1.245     0.752 -37.86   0
       492    463.9346    295.2734 307.7373579  +6.5603054     1224.547      1800.16     2645.291      78.0261     155.4356     310.7786      2.245     4.28     824.1451     54.77978     190.4913        14     1.214     0.916 -71.49   0
       493    293.5095    293.9989 307.8081950  +6.5551138     798.5712     1155.425     1480.817     77.15981     155.0026     310.5313      1.611     4.87     827.4169     54.77978     106.2982         6     1.056     0.636 -38.22   0
       494    413.6573    294.4680 307.7582703  +6.5589521      2224.66     3238.846     3690.926      78.0261     155.3738     310.7477      1.662     3.22     825.5963     54.77978     366.7275        16     1.183     0.836 -48.73   0
       495    834.9753    288.7414 307.5834432  +6.5754155     1247.159     1910.698     1660.462     77.53226     155.4356     310.6241      1.566     3.31     824.5687     54.77978     190.6602         9     0.908     0.664 -80.09   0
       496    966.9891    287.3320 307.5286489  +6.5804026     545.6174     799.5289     680.5623      77.4083     155.2502     310.6241      1.661     4.26     822.5621     54.77978     82.75812         5     0.840     0.615 -88.72   0
       497    190.1292    285.8444 307.8514138  +6.5550065     2438.247     3603.655     3892.032     77.77957     155.4356     310.8095      1.596     3.38     832.0306     54.77978     348.3575        17     1.262     0.787 -56.25   0
       498    753.8315    284.1715 307.6173057  +6.5745910     6592.251     9192.967     9753.812      77.4083     155.1883     310.5622      1.481     3.14     825.5762     54.77978     1040.322        28     1.348     0.942 -54.16   0
       499    444.2099    285.8695 307.7458689  +6.5635257     1274.538     1870.349     1869.684      77.4083     155.2502     310.6241      1.540     3.81     824.3747     54.77978     175.0939        12     1.068     0.859 -53.34   0
       500    225.5338    283.6836 307.8367803  +6.5570882     810.2112     1203.825     1438.852      78.0261     155.6826     310.8404      1.837     4.80     830.2361     54.77978     134.2747        10     1.182     0.796 -68.46   0
       501    344.1963    283.7718 307.7874855  +6.5610367     723.6724     939.4529     740.3914      77.4083     155.2502     310.6241      1.438     4.63     827.0715     54.77978     111.2163         8     1.104     0.551 -54.63   0
       502     86.1241    283.0186 307.8947116  +6.5526749     1115.518     1868.391     1968.993      77.4083     155.1883     310.7168      1.766     4.14     834.1613     54.77978     189.9946        14     1.180     0.938 -66.84   0
       503    770.2475    282.0864 307.6105563  +6.5760003     2804.247     3721.372     3754.652     77.90293      155.312     310.7786      1.416     3.28     825.4847     54.77978      388.991        19     1.196     0.880 -55.26   0
       504    472.8299    280.7260 307.7341537  +6.5666082     588.8899     801.1865     1243.136     77.77957     155.4356     310.7786      1.321     2.78     823.2723     54.77978     127.7563         5     0.714     0.656 -68.69   0
       505    360.0025    276.6801 307.7811592  +6.5644943     1818.146     3615.683     3954.663     77.28416     154.9406     310.5313      2.047     5.06     826.6387     54.77978      208.353        29     1.627     1.175  -7.61   0
       506     73.5482    277.3182 307.9001285  +6.5546046     1431.129     2033.758     2250.636     77.90293     155.4356     310.8095      1.643     3.96     834.1348     54.77978     204.9381        15     1.177     0.844 -59.12   0
       507   1008.4478    273.0312 307.5119057  +6.5876879      6289.34     8764.507     9247.216     77.53226     155.4356     310.6859      1.438     3.03     821.5947     54.77978     1000.695        27     1.295     0.923 -62.61   0
       508    486.6017    272.9078 307.7286965  +6.5702968     2320.267     3423.841     3379.409     77.28416     155.1264     310.5313      1.573     4.17      822.751     54.77978     337.8817        20     1.335     0.941 -56.82   0
       509    249.0669    268.3339 307.8275239  +6.5642145     6127.156     8999.563     9820.958     77.90293     155.4356     310.8095      1.590     3.24     829.1335     54.77978     876.1904        27     1.338     0.999 -64.72   0
       510    917.2195    267.0506 307.5500057  +6.5871140     683.6824        836.7     688.5642      77.4083     155.4974     310.6241      1.423     3.94     822.1195     54.77978     121.1591         6     0.882     0.644 -31.06   0
       511    768.6443    261.2993 307.6119217  +6.5845269     882.7349     1247.596     1332.508     77.90293     155.3738     310.9948      1.517     3.90     824.5242     54.77978     165.2399         8     0.957     0.613 -69.18   0
       512    225.9430    261.1756 307.8373716  +6.5663922     608.8076     736.6115     252.3291     77.53226     155.4356     310.5931      1.425     2.87     830.2361     54.77978     120.5104         6     0.891     0.444 -35.54   0
       513    383.2830    259.0443 307.7720840  +6.5725548     1690.381     2580.309     2084.235     77.90293     155.4356     310.7786      1.529     3.23     825.3774     54.77978     252.5048        15     1.065     0.904 -63.98   0
       514    970.1888    258.0644 307.5283023  +6.5925902     1125.806     1436.927     1814.901      77.4083     155.2502     310.6241      1.345     3.44     821.0992     54.77978     184.3074        10     1.087     0.591 -59.86   0
       515    305.8915    255.0272 307.8043687  +6.5716154     1313.989     1923.591     1666.259      78.0261     155.1883      310.655      1.566     3.53     826.9512     54.77978     196.5203        13     1.049     0.853  53.45   0
       516    189.7869    256.0021 307.8525658  +6.5673125     504.3646     795.4004     1096.095     77.53226     155.1264     310.5622      1.651     3.83     831.3907     54.77978     69.33868         5     0.826     0.509 -33.64   0
       517    153.0369    254.7667 307.8678734  +6.5665868     1856.005     2713.939     2480.304     77.65601     155.1883     310.5622      1.505     3.25     832.4692     54.77978     256.6089        16     1.158     0.848 -78.01   0
       518    562.6761    250.4839 307.6978503  +6.5821011     2373.133     3430.714     3239.909      78.0261     155.7442     310.8404      1.503     3.30     822.0926     54.77978      397.801        18     1.305     0.847 -78.11   0
       519    906.6255    249.7379 307.5549885  +6.5939068     1787.292     2685.551     3160.398     77.53226     155.3738     310.7168      1.644     3.35     821.7526     54.77978     283.3811        16     1.142     0.868 -89.64   2
       520    726.2488    248.3110 307.6299710  +6.5884711     5468.032     7685.122     7378.839     77.90293      155.312     310.8712      1.508     3.20     823.8465     54.77978     830.0524        28     1.360     1.000 -60.27   0
       521    844.7859    250.1963 307.5806635  +6.5916534     525.1074     874.5056     686.0674     77.53226     155.1264      310.655      1.693     3.97     822.9507     54.77978     100.3746         5     0.730     0.714  56.22   0
       522    667.2452    248.0424 307.6544919  +6.5866088      2303.63     3232.607     3222.144     77.77957     155.4356     310.6241      1.481     3.20     823.3476     54.77978     344.4747        20     1.260     0.872 -55.31   0
       523    964.5163    247.6324 307.5310091  +6.5967071     931.1086     1211.224     1383.415     77.90293     155.2502     310.7168      1.535     5.03     820.6832     54.77978     120.7697        10     1.034     0.729 -80.20   0
       524    381.6746    242.4157 307.7733138  +6.5793644     924.4748     1332.213     1123.957     77.40831     155.1883      310.655      1.570     3.73     824.8693     54.77978     133.7976         9     0.894     0.763 -41.67   0
       525    922.5070    240.2489 307.5487095  +6.5983535     1308.762     1804.896     1235.447     77.77957      155.312     310.9022      1.454     3.81     821.1595     54.77978     195.2297        11     1.109     0.696 -70.76   0
       526    225.6707    233.2565 307.8384291  +6.5779068     2583.812     3638.144     3487.996      78.0261     155.3738     310.7477      1.513     3.52     830.2361     54.77978     374.0284        18     1.296     0.816 -72.79   0
       527    868.5145    232.6108 307.5713969  +6.5997043     1869.333     2491.824      2437.28     77.53226     155.1883     310.6241      1.481     3.81     821.9473     54.77978     335.6564        14     1.244     0.730 -54.79   0
       528    758.8414    232.0426 307.6169785  +6.5962756     1730.588      2605.71     2301.168     77.65601     155.4356      310.655      1.547     4.85     823.1978     54.77978     263.2308        15     1.380     0.730 -60.80   0
       529    247.7379    226.9442 307.8294757  +6.5812537     583.4345     783.2408     733.1995      78.0261     155.4356     310.7786      1.522     3.72     829.1814     54.77978     101.8619         5     1.134     0.351 -75.77   0
       530    459.7094    223.3795 307.7415393  +6.5898388     24528.16     35706.83     37172.88     77.77957     155.2502      310.655      1.584     3.32      821.817     54.77978     3599.267        51     1.471     1.132 -57.61   2
       531    465.4622    217.7871 307.7393381  +6.5923400     1458.187     2229.088     2748.913     77.40831     155.2502     310.5004      1.768     3.32     821.5117     54.77978     215.4216        15     1.163     0.851 -70.96   3
       532    320.9127    225.1039 307.7991401  +6.5844707      717.762     1012.472     721.9368     77.90293     155.8059     310.8095      1.501     4.95     826.2891     54.77978     101.4698         8     1.105     0.627 -83.76   0
       533    785.8138    222.5564 307.6060922  +6.6010925     14067.44     20024.31      21557.9     77.28416     155.2502     310.5313      1.544     3.04     822.8038     54.77978     2440.301        46     1.500     1.105 -43.55   0
       534    724.2554    218.4846 307.6318031  +6.6007158     787.7075     988.5155     860.4118     77.90293     155.4356     310.9022      1.565     5.39     822.6237     54.77978     112.3151        10     1.196     0.685 -58.37   0
       535    147.9617    216.7318 307.8712692  +6.5821150     2473.008     3559.794     3493.259     77.77957     155.4356     310.8712      1.506     3.31      831.399     54.77978     399.9523        17     1.207     0.823 -63.73   0
       536    122.7877    215.6441 307.8817635  +6.5817172     1260.832     1959.294     2345.156     77.40831      155.312     310.5004      1.650     3.83     832.2901     54.77978     178.4689        15     1.177     0.913 -54.85   0
       537    777.5493    215.1548 307.6097747  +6.6038715     690.3252     876.2975     537.9994      78.0261      155.312     310.8095      1.450     4.27     822.5086     54.77978     99.31012         5     0.898     0.580 -47.42   0
       538    174.9692    214.5385 307.8601243  +6.5839285     730.5391     995.0399     833.6351     77.65601     155.4974     310.7168      1.536     3.51     830.7234     54.77978     109.3709         6     0.932     0.490 -77.38   0
       539    922.3090    212.9617 307.5497085  +6.6096102     1653.409     2328.536     2256.054      78.0261     155.3738     310.8095      1.422     3.25     820.1746     54.77978     227.9056        14     1.172     0.728 -61.24   0
       540    620.5696    210.8006 307.6751370  +6.6004191     440.6727      384.808     218.6356     77.28416     155.2502     310.5931      0.949     3.39     821.7997     54.77978     82.26385         5     0.756     0.439  68.21   0
       541    583.7043    209.1847 307.6905067  +6.5998520     5003.381     7177.201     7384.887     77.65601     155.1883     310.5931      1.539     3.30     821.2676     54.77978     792.5203        28     1.401     0.922 -50.10   0
       542    304.0001    209.9987 307.8066764  +6.5901377     1144.669     1718.694     1290.632     77.28416     155.0026     310.4694      1.533     4.48     826.8446     54.77978     157.2164        13     1.291     0.787 -57.91   0
       543    546.5060    209.0547 307.7059646  +6.5986600     2186.085     3144.754      2834.55     77.77957     155.4356     310.9948      1.461     3.07     820.7691     54.77978     359.4511        18     1.131     0.950 -77.59   0
       544    688.9576    203.8670 307.6469594  +6.6055691     2815.275     4352.379     4829.321     77.90293     155.3738     310.8404      1.698     3.67      822.151     54.77978     507.5327        28     1.819     1.072  81.20   0
       545    388.2682    208.0111 307.7717367  +6.5937864     1609.894     2277.129     2277.612      77.4083     155.2502     310.6241      1.477     2.93     823.7111     54.77978     263.4842        16     1.103     0.859 -76.67   0
       546    890.8205    205.7826 307.5630316  +6.6115227     11882.66     16642.83     17406.15     77.65601     155.2502     310.6859      1.480     3.08     820.6794     54.77978      2113.79        34     1.365     0.983 -59.93   0
       547    944.5449    206.1843 307.5406981  +6.6131495     2967.095     4110.512     4179.572     77.28416     155.3738     310.5004      1.485     3.00     819.3589     54.77978     516.5717        18     1.147     0.871 -64.37   0
       548    977.4609    203.5922 307.5271101  +6.6153172      10808.6      14954.4     15877.66     77.28416     155.2502     310.5622      1.475     3.04     818.6445     54.77978     1880.191        34     1.321     1.028 -59.60   0
       549    566.0751    205.5644 307.6979526  +6.6007560     832.2683     1316.623     613.4293     77.77957     155.4974     310.8095      1.610     3.04      820.928     54.77978     144.7725         8     0.904     0.655 -73.40   0
       550    318.7797    205.6575 307.8006834  +6.5924258     960.3386     1531.012      1896.13     77.53226      155.312     310.5931      1.876     2.84     826.2931     54.77978     162.1371         9     0.851     0.721  82.05   0
       551    210.2916    205.2205 307.8457662  +6.5889619     606.7203     872.2881        574.9     77.77957     155.2502     310.6241      1.424     3.75     830.2202     54.77978     99.22662         6     1.025     0.395 -76.23   0
       552     16.9344    202.2198 307.9261902  +6.5836953     26719.94     39636.38     42044.58     77.53226     155.4356      310.655      1.565     3.29     833.9223     54.77978     3983.697        48     1.452     1.127 -58.78   0
       553    263.3604    203.2113 307.8237884  +6.5915744     1099.648     1664.645     1318.882     77.28416     155.2502     310.5313      1.598     4.75     828.5222     54.77978     142.1394        11     1.054     0.738 -51.15   0
       554    497.5318    198.4428 307.7266682  +6.6013994     2105.318     3140.458     3202.083     77.90293     155.3738     310.8404      1.600     3.64     820.3619     54.77978     288.1232        17     1.277     0.800 -62.55   0
       555    829.3862    195.1326 307.5889126  +6.6138677     2139.116      3037.22     3030.549      77.4083     155.2502     310.7168      1.478     3.26     821.4747     54.77978     320.7976        18     1.205     0.839 -73.42   0
       556    509.4023    194.3557 307.7218746  +6.6034842     2696.858     3850.913     3919.497     77.28416     155.0026     310.4385      1.542     3.20     820.2236     54.77978     412.1448        19     1.236     0.863 -67.01   0
       557    881.7346    194.1977 307.5671957  +6.6160014     2170.356     2940.683     2717.775     77.28416     155.1264     310.5622      1.394     3.13     820.5566     54.77978     336.1104        15     1.129     0.788 -54.34   0
       558    741.0143    191.7183 307.6257417  +6.6123243     42728.13     60371.11     63127.54     77.53226     155.1883     310.5931      1.500     3.05       821.66     54.77978     7007.025        58     1.440     1.107 -58.53   0
       559    344.1444    191.0982 307.7906382  +6.5992867     6040.904     12096.41     13679.08     77.77957     155.4356     310.9948      2.140     6.07     825.1272     54.77978     800.6115        45     2.011     1.114 -71.59   0
       560    974.7091    190.4795 307.5286937  +6.6206380     3191.204     4424.453     5010.556     77.65601     155.6209     310.8404      1.510     3.29     818.2732     54.77978     549.0294        21     1.365     0.854 -65.50   0
       561    908.9482    188.8229 307.5560702  +6.6191282     8107.289     11446.04     11640.31      77.4083     155.4356      310.655      1.454     3.13     819.5459     54.77978     1362.754        31     1.291     1.002 -51.12   0
       562   1013.0067    188.9983 307.5128323  +6.6225263     1717.756     2383.165       2413.3     77.28416     155.1264     310.5931      1.444     3.40     817.6955     54.77978     251.1898        17     1.217     0.877 -58.91   0
       563    452.3453    187.8479 307.7457978  +6.6042579     5260.357     7853.062     8244.593     77.90293     155.4356     310.8712      1.565     3.27     820.9375     54.77978     769.4515        30     1.395     1.027 -55.74   0
       564    226.8616    184.5609 307.8395816  +6.5980461     839.0811     1372.163     1219.354     77.90293     155.4356     310.8095      1.664     3.54     829.8243     54.77978     137.5179        11     0.993     0.798 -53.42   0
       565    109.7723    179.1820 307.8884050  +6.5963291     5097.751     7754.387      8102.03     77.53226     155.2502     310.6859      1.619     3.47      831.448     54.77978     715.3375        28     1.317     1.071 -59.38   0
       566    929.3268    178.3471 307.5479557  +6.6241322     890.4818     1257.951     1503.137     77.77957     155.4974     310.8095      1.430     4.83     818.4031     54.77978     129.6498         9     1.215     0.660 -45.69   0
       567    280.0653    175.8346 307.8177745  +6.6034353     35655.05     53120.62     55717.88     77.77957     155.4356     310.8095      1.572     3.30     828.0541     54.77978     4783.145        58     1.479     1.179 -55.99   0
       568    255.4334    176.7767 307.8279755  +6.6022190     7026.974     10307.79     11157.22     77.40831     155.2502     310.5931      1.580     3.23     828.8504     54.77978     1001.235        34     1.376     1.087 -59.66   0
       569    606.4963    177.1761 307.6821169  +6.6138270     632.5115     1088.574     1053.477      78.0261     155.1883      310.655      1.909     4.54     820.6624     54.77978     103.6669         7     1.172     0.499 -88.34   0
       570    709.4609    175.1909 307.6394070  +6.6180913     985.3584     1379.956      1789.69     77.28416      155.312     310.5313      1.636     4.31     821.0999     54.77978     135.4935        10     1.074     0.778 -26.35   0
       571    194.8559    176.2154 307.8531599  +6.6004150     524.6138     571.5152     661.1279     77.28416     155.3738     310.5004      1.261     4.34     829.8956     54.77978     90.94464         5     0.863     0.622 -34.36   0
       572    404.1510    171.3527 307.7663764  +6.6094502     52397.72     77026.88      80287.2     77.90293      155.312     310.8095      1.601     3.21     822.1376     54.77978     7122.419        70     1.504     1.209 -56.65   0
       573    160.0977    172.6009 307.8677216  +6.6007382     4309.891     6628.559     7000.047      77.4083     155.0645     310.4385      1.607     3.38     829.9552     54.77978     624.0343        28     1.398     1.043 -56.82   0
       574    421.5157    171.5594 307.7591555  +6.6099474      1513.01     2180.051     2363.792     77.90293     155.3738     310.7168      1.577     4.48     821.4353     54.77978     229.4608        16     1.366     0.796 -64.36   0
       575    574.6580    170.2193 307.6955785  +6.6156326     626.8599     955.7426     1144.073     77.53226      155.312     310.5931      1.377     4.43     819.9208     54.77978     110.1888         7     1.222     0.457 -52.46   0
       576    540.8781    170.1150 307.7096159  +6.6145443     450.2529     877.3976     766.8614     77.90293     155.7442     310.9021      2.029     3.86     819.3941     54.77978     88.47168         5     1.346     0.317 -56.39   0
       577    315.7309    168.7492 307.8031974  +6.6075575     2181.862     3852.351     4873.039     77.77957      155.312     310.7786      2.176     3.79      826.354     54.77978     320.7983        24     1.512     0.944 -65.33   1
       578    308.1740    169.0146 307.8063278  +6.6071942     18949.07     28301.01     29644.34     77.65601     155.2502     310.7168      1.557     3.38     826.7961     54.77978     2440.427        47     1.455     1.135 -57.96   0
       579    743.4456    167.5582 307.6255447  +6.6223780     36279.25     50238.65     51915.58     77.77957     155.4356     310.6241      1.504     3.04     820.7745     54.77978     5966.083        56     1.425     1.109 -57.59   0
       580    791.8085    168.1755 307.6054312  +6.6237395     1351.008     1840.172     1658.341     77.53226     155.2502     310.6241      1.437     3.57     820.7745     54.77978      229.147        11     1.118     0.652 -61.21   0
       581     60.2271    164.7741 307.9094751  +6.6006085     9794.121     14232.24     14600.27      77.4083     155.2502     310.6241      1.543     3.22     832.6553     54.77978     1325.131        33     1.365     1.045 -60.79   0
       582    567.3682    165.8770 307.6987535  +6.6171808     628.6036     942.2413     872.0845     77.77957     155.4356     310.7168      1.637     4.68     819.6514     54.77978     118.8803         5     0.948     0.655 -64.70   0
       583     94.1304    162.8746 307.8954553  +6.6025336     1557.849     2223.223     2105.521      78.0261     155.5591     310.7786      1.507     3.68     831.2939     54.77978     210.6498        14     1.192     0.739 -69.17   0
       584   1001.8392    162.1991 307.5183716  +6.6332159     1165.154     1875.691     2149.951     77.03525     155.1883     310.5004      1.664     4.01     817.3234     54.77978     198.6509        11     1.164     0.682 -60.01   0
       585    691.5409    169.3602 307.6470482  +6.6198987     1124.204     1480.413     1540.277     77.90293     155.4356     310.8712      1.575     3.74     820.9321     54.77978     186.0411        11     1.044     0.795 -56.57   0
       586    577.3326    152.2884 307.6950719  +6.6231233     839.4935     1081.815     1097.274      78.0261     155.6209     310.7786      1.306     3.06     819.4158     54.77978     143.8423         8     0.917     0.590 -73.96   0
       587   1002.8702    148.1036 307.5184164  +6.6390685     2287.223     3746.278     4335.264     77.77957     155.5591     310.7786      1.753     3.66      816.718     54.77978     373.4139        22     1.301     1.057 -68.95   0
       588    585.8177    145.6765 307.6917696  +6.6261366     1102.374     1371.097     1256.642      77.4083     155.1883     310.7168      1.369     4.46     819.3771     54.77978     165.3937        10     1.070     0.672 -51.98   0
       589    594.2599    143.8855 307.6883226  +6.6271585     2130.267     3050.435     3189.227      78.0261     155.4974     310.8712      1.496     3.75     819.4307     54.77978     280.4535        16     1.278     0.843 -59.85   0
       590    278.9598    142.1013 307.8193744  +6.6173217     32245.07     47995.93     50467.23     77.90293      155.312     310.9948      1.576     3.38     828.2613     54.77978     4468.938        56     1.477     1.174 -59.96   0
       591    338.3171    143.6082 307.7946639  +6.6186928     1048.657     1621.612     1508.364     77.53226     155.1264     310.6241      1.521     2.91     825.3455     54.77978     162.0548         7     0.863     0.547 -53.77   0
       592     24.2240    140.6704 307.9252484  +6.6093450     4695.905     7045.867     7367.186     77.53226      155.312     310.7168      1.649     3.42      833.987     54.77978     687.9791        29     1.530     0.960 -68.65   0
       593    710.6920    138.7043 307.6401240  +6.6331929     8628.562     12085.58     12839.36     77.90293     155.9291     310.7477      1.497     3.14     819.6103     54.77978     1407.658        33     1.347     1.010 -63.80   0
       594    188.0765    139.6751 307.8572129  +6.6152691     923.4827     1165.049     1311.024     78.14907     155.6826     310.8404      1.404     3.91     829.2819     54.77978     161.3444         9     1.006     0.608 -53.55   0
       595    265.0518    136.9550 307.8253264  +6.6189787       818.59     1252.713     1193.639      78.0261     155.3738     310.7786      1.605     5.41     828.5471     54.77978     106.8326        10     1.076     0.768 -47.57   0
       596    121.4291    135.7483 307.8850334  +6.6146484     5182.104     7533.574     7842.115     77.65601     155.5591     310.6859      1.559     3.34     830.0063     54.77978      751.972        26     1.352     0.995 -60.34   0
       597    583.5449    133.7365 307.6931164  +6.6309889      861.025     1056.539     710.4182      78.0261     155.3738     310.7786      1.350     3.75     818.9814     54.77978     129.0515         9     0.940     0.850  78.53   0
       598    460.3440    132.8565 307.7443309  +6.6272243     1513.459     2364.948     1520.126      78.0261     155.4356     310.8404      1.602     4.37     819.3134     54.77978     240.3932        16     1.355     0.846 -63.87   0
       599    392.0813    131.9018 307.7727231  +6.6253290     4026.205     6658.669      7302.59     77.77957     155.8059     310.8712      1.850     3.47     822.1681     54.77978     512.4807        32     1.560     1.135 -62.61   0
       600    649.4904    132.7021 307.6657533  +6.6336231      656.468     1090.223     935.0411     77.90293     155.8675     310.7786      1.672     3.45     819.4027     54.77978     122.5639         5     0.788     0.436 -68.16   0
       601    356.6057    130.8016 307.7874987  +6.6245927     3339.927     4811.027     4813.846     77.28416     155.1264     310.5931      1.544     3.38      824.527     54.77978     514.9027        24     1.374     0.941 -60.36   0
       602    110.8515    130.7014 307.8895987  +6.6163757     1805.295     2629.464     2669.159     77.77957     155.4356     310.9948      1.634     3.92      830.111     54.77978     278.9465        17     1.327     0.842 -53.17   0
       603    939.3755    129.6823 307.5454156  +6.6445548     474.9918     680.7259     574.4784     77.65601     155.1883     310.7168      1.516     4.01     816.2915     54.77978     80.17944         6     0.892     0.516  44.86   0
       604    672.5659    128.5700 307.6563054  +6.6361007     816.8015     879.1936      742.075     77.40831     155.1883     310.5313      1.191     3.61     819.3229     54.77978     181.4986         6     0.950     0.395 -69.72   0
       605   1003.3525    125.0876 307.5189887  +6.6485849     1538.234     2365.688      2574.11     77.90293      155.312     310.8095      1.608     3.70     815.6895     54.77978     214.4991        15     1.158     0.879 -48.46   0
       606    729.4414    124.8146 307.6328018  +6.6395529      624.336      999.838     853.9863     77.28416     155.2502     310.5004      1.588     4.16     818.9043     54.77978     100.8375         6     1.060     0.466 -28.58   0
       607    670.2484    118.5018 307.6576074  +6.6401790     6736.234     9446.685     10054.32     77.90293     155.3738     310.9639      1.516     3.16     818.8816     54.77978     969.6368        30     1.326     1.002 -59.82   0
       608    208.3548    119.5845 307.8494684  +6.6242432     5828.336     8476.027     8567.189     77.40831     155.2502     310.5313      1.572     3.41     829.0084     54.77978     826.8506        29     1.317     1.056 -61.35   0
       609     90.9620    119.3798 307.8982450  +6.6203793     2284.243     3339.171     3245.664     77.53226     155.1883     310.5004      1.576     3.37     830.4496     54.77978     313.8098        20     1.192     0.984 -49.60   0
       610    818.0609    118.4942 307.5961953  +6.6451232     1147.311     1536.121       1018.4     77.77957     155.4974     310.8095      1.478     5.79     818.3855     54.77978     165.2953        13     1.375     0.687 -54.16   0
       611    622.4279    115.7322 307.6775687  +6.6397220     10079.43     14568.49     15491.46     77.65601     155.3738     310.6859      1.570     3.21     818.6531     54.77978     1518.753        34     1.337     1.058 -62.23   3
       612    625.9225    107.2775 307.6764017  +6.6433287     58095.97      82163.5     86071.15     78.14907     155.6826     310.8404      1.511     3.23     818.3167     54.77978     9079.617        73     1.467     1.185 -61.00   2
       613    257.3499    115.8785 307.8292389  +6.6274193     834.7821     1200.068     730.8521     77.90293     155.4974     310.7786      1.484     3.19     828.6179     54.77978     133.4551         7     0.765     0.608 -71.42   0
       614    560.6260    114.6680 307.7032813  +6.6380921     859.6221     1148.232     1370.035     77.53226      155.312     310.6859      1.476     3.79     818.2297     54.77978     121.4878         9     0.999     0.638  84.88   0
       615     21.1120    114.3844 307.9274323  +6.6200896     1075.929     1751.826     1193.667     77.65601     155.1883      310.655      1.743     4.61     834.0754     54.77978     186.0638        11     1.277     0.714 -74.41   0
       616    349.5804    111.4481 307.7910713  +6.6323451     4064.558      6273.92     6514.816     77.40831     155.4356     310.5931      1.614     3.66     825.3649     54.77978     577.4258        27     1.559     0.918 -50.25   0
       617    531.3784    110.7089 307.7155662  +6.6387465     1912.374     2737.829     3002.111     77.90293     155.2502      310.655      1.557     3.24     818.1155     54.77978     283.2689        18     1.241     0.865 -62.81   0
       618    995.7651    110.3556 307.5226358  +6.6544128     886.1329     1100.335     880.9981     77.65601     155.3738      310.655      1.395     4.19     815.0671     54.77978     140.0099         7     1.005     0.499 -63.02   0
       619    214.6683   1020.6594 307.8163785  +6.2525309     2310.241     3284.761     3457.991      78.0261     154.9406     276.7501      1.531     3.52     849.4772     54.77978      359.873        18     1.180     0.918 -47.94  16
       620    305.0655    100.9128 307.8099214  +6.6351991     3830.523     5552.215     6366.532     77.90293     155.6208     310.8095      1.540     3.55     827.5851     54.77978      533.991        22     1.258     0.967 -60.54   0
       621    500.5482     97.9037 307.7288072  +6.6429989     598.9689     780.9213     270.2564     77.77957     155.3738     311.0257      1.536     3.72     818.1083     54.77978     96.10394         6     0.804     0.494 -84.38   0
       622    705.0603     95.2925 307.6439255  +6.6509233     1018.185     1310.154     742.6353     77.77957     155.3738     310.8712      1.363     2.78      817.709     54.77978     166.0638         9     0.901     0.631 -71.19   0
       623    676.3593     94.4238 307.6558795  +6.6503219     1435.241     1832.999     1373.423     77.53226     155.2502     310.5622      1.314     2.78     817.8352     54.77978     252.8631        14     0.998     0.846 -78.59   0
       624    690.3969     91.1082 307.6501588  +6.6521600     3389.677     4947.354     4839.057     77.53226     155.1264     310.5313      1.510     3.05     817.6817     54.77978     569.3444        22     1.226     0.935 -51.26   0
       625     62.8179     90.0556 307.9109307  +6.6315354     468.8036     756.7628      600.948      77.4083     155.3738     310.5313      1.797     5.20     831.2792     54.77978     84.03491         5     1.196     0.639 -68.20   0
       626     70.6369     85.5789 307.9078341  +6.6336464     448.3712     625.6846     570.9567     77.53226     155.1883     310.5313      1.426     3.48     830.6599     54.77978     77.56885         5     1.075     0.326 -21.23   0
       627    431.9511     82.1847 307.7578378  +6.6471874     4265.638     6327.773     6222.707     77.28416     155.3738     310.5004      1.556     3.26     819.2036     54.77978      626.738        26     1.286     1.015 -52.53   0
       628    886.6177     78.4988 307.5690558  +6.6639212     2338.621     3199.549     3391.764     77.90293      155.312     310.5313      1.484     3.27     815.9931     54.77978     406.1027        19     1.289     0.849 -69.68   0
       629    904.6656     77.6859 307.5615843  +6.6648591     4157.157     5857.796     6131.255      78.0261     155.6209     310.8404      1.522     3.11     815.4954     54.77978     724.2018        23     1.318     0.890 -52.46   0
       630    585.0374     78.2490 307.6943670  +6.6539419     756.0692     1337.218     891.5784     77.65601     155.3738      310.655      1.489     4.26     817.3771     54.77978     112.3992         7     1.097     0.472 -56.29   0
       631    596.5729     76.3552 307.6896380  +6.6551098     1768.931     2365.058     2443.075     77.40831     155.4974     310.6859      1.455     3.40     817.3411     54.77978       320.29        16     1.294     0.754 -57.85   0
       632    242.7131     75.3219 307.8366917  +6.6436673     930.3215     1527.827     2294.658     77.90293     155.7442     310.9022      2.030     4.76     828.5295     54.77978     137.8229        11     1.159     0.785 -66.52   0
       633    617.0297     75.6292 307.6811631  +6.6560943      455.407      536.043    -248.1429      77.4083     155.1883     310.5313      1.202     2.55     817.3556     54.77978     113.7134         5     0.739     0.588 -84.64   0
       634    395.6116     73.9624 307.7732135  +6.6493622      2028.92     2752.237     2128.737      77.4083     155.2502     310.4694      1.428     3.18     821.4972     54.77978     293.9346        16     1.190     0.810 -51.08   0
       635    143.3697     70.8910 307.8781147  +6.6421562     3502.384      5102.88     4994.804      78.0261     155.2502     310.7477      1.565     3.32     828.1835     54.77978     465.5518        24     1.320     0.972 -64.65   0
       636    291.7139     69.2908 307.8165376  +6.6478028     1516.843     2389.552     2761.374     77.65601     155.8675     310.9022      1.687     3.71     828.1942     54.77978     237.3794        13     1.167     0.754 -61.77   0
       637     25.2228     68.6958 307.9272734  +6.6390857     13083.36     19394.51     21175.68     77.90293     155.1883     310.6241      1.611     3.35     832.1049     54.77978     1736.835        44     1.452     1.127 -59.57   0
       638    565.1242     68.5320 307.7029682  +6.6572858      764.202     1026.884     686.7717      78.0261     155.5591     310.7786      1.557     4.03     817.1392     54.77978     127.0488         7     1.046     0.485 -47.84   0
       639    552.3077     68.3394 307.7082997  +6.6569360     772.6458     996.5102     919.8971     77.77957     155.4356     310.8712      1.454     4.66       817.11     54.77978     128.8214         8     1.197     0.515 -66.26   0
       640    760.1239     67.8011 307.6219729  +6.6641117     606.3439     1196.398     2067.111     77.15981     154.8786     310.6241      3.179     5.21     816.7302     54.77978     107.1122         8     1.037     0.739  77.47   0
       641    983.0284     66.8190 307.5293898  +6.6719587     570.1723     772.5576     719.9639     77.53226     155.2502     310.7168      1.333     2.28     812.7657     54.77978     115.0628         5     0.756     0.478  56.97   0
       642    946.2151     67.0170 307.5446790  +6.6706492      631.149     848.6407     925.7794     77.65601     155.1264     310.7168      1.353     3.63     814.1163     54.77978     95.85474         6     0.900     0.469  52.21   0
       643    826.9851     63.3889 307.5943409  +6.6681669     6664.444     9598.832     9973.604     77.65601     155.1264     310.7168      1.532     3.29     816.1757     54.77978      1114.77        30     1.397     0.992 -60.77   0
       644    894.3352     64.7265 307.5663121  +6.6698635      621.267     627.9474     307.4543      78.0261     155.4356     310.7786      1.130     3.48     815.4589     54.77978      131.306         5     0.775     0.452 -77.52   0
       645    772.0739     63.7667 307.6171435  +6.6661764     3556.751     4987.343     5015.188     77.77957     155.3738     310.7786      1.496     3.22      816.538     54.77978     556.0598        21     1.205     0.951 -54.39   0
       646    417.1700     64.1602 307.7645876  +6.6541313     1169.614     1739.945     1708.828      77.4083     155.1883     310.6241      1.364     3.22     819.5318     54.77978     167.7925        12     1.028     0.765  61.43   0
       647    534.6916     61.7820 307.7158401  +6.6590526     1257.163     1680.457     2054.102     77.65601     155.1883      310.655      1.555     3.67     817.1321     54.77978     174.3328        14     1.154     0.810 -67.94   0
       648     65.4889     60.3812 307.9108267  +6.6438733     3326.537     5039.732     5538.171     77.65601     155.1883     310.6859      1.668     3.33      829.783     54.77978     490.7789        27     1.373     1.086 -64.20   0
       649     50.2990     61.1469 307.9171114  +6.6430459     1002.405     1546.198     1106.668     77.77957     155.4356     310.9948      1.533     5.69     830.4996     54.77978     161.4347        13     1.422     0.668 -61.59   0
       650    426.8367     60.0363 307.7607106  +6.6561577     1078.889      1587.66     1846.236     77.65601      155.312     310.5622      1.518     5.30      819.284     54.77978     167.5726        13     1.179     0.896 -78.04   0
       651    654.8047     60.4000 307.6659813  +6.6636445     533.6682     681.6299     804.3893     77.28416     155.0026     310.5313      1.142     3.36     816.9152     54.77978     105.6107         5     0.748     0.436 -21.53   0
       652    589.3298     57.3251 307.6932890  +6.6627222     1422.698     1660.295     1618.779     78.14907     155.5591     310.7786      1.369     3.83     816.8447     54.77978     235.5712        12     1.066     0.767 -55.35   0
       653      7.8105     55.9786 307.9349385  +6.6437482     2766.396     4048.078     4789.443     77.53226     155.1883     308.3902      1.544     3.61     832.0405     54.77978     396.9945        23     1.349     0.952 -41.62  16
       654    766.5605     51.1571 307.6198587  +6.6711969     2133.206     3017.572     3124.025     77.65601     155.4356      310.655      1.479     2.98     816.2125     54.77978     364.0426        17     1.161     0.856 -62.47   0
       655    407.5957     51.0815 307.7690072  +6.6592085     1128.251     1722.415     1405.584      77.4083     155.0026     310.5004      1.508     3.80     820.3741     54.77978     159.7457        11     1.115     0.652 -65.24   0
       656     80.2521     51.3797 307.9049983  +6.6480856     877.3163     1392.874     1513.068     77.40831     155.4974     310.5931      1.778     3.67     828.7524     54.77978     120.8579        10     1.026     0.843 -58.86   0
       657    104.6532     49.7986 307.8949142  +6.6495594     938.3042     1036.569     1192.131     77.28416     155.1264     310.3766      1.253     4.49     827.9777     54.77978     150.1979        11     1.101     0.796 -56.60   0
       658     93.2999     44.9068 307.8997968  +6.6511964     10115.19     15251.88     15971.15     77.90293     155.9291     310.6859      1.585     3.32     828.0046     54.77978     1345.985        39     1.428     1.123 -56.74   0
       659    422.4744     44.7038 307.7630408  +6.6623400     2670.089     3824.103     3556.181     77.65601     155.5591     310.8095      1.521     3.16      819.398     54.77978     407.8362        21     1.301     0.884 -47.37   0
       660    243.6130     44.4840 307.8373611  +6.6564259     702.6329     1050.619     1723.892     77.53226      155.312     310.6241      1.783     5.41     828.3779     54.77978     90.44641         8     1.017     0.811 -24.58   0
       661    636.0915     37.0025 307.6745449  +6.6726759     19527.26     28061.35     29420.22      77.4083     155.1264     310.5313      1.483     3.14     816.2823     54.77978     2766.914        44     1.401     1.074 -61.11   0
       662    259.9654     38.8712 307.8307570  +6.6592920     1534.862     2239.526     3400.903     77.77957     155.3738     310.7786      1.585     3.64     828.3441     54.77978     219.9362        15     1.210     0.872 -56.20   0
       663    945.4522     36.5672 307.5460190  +6.6831924     548.4014     793.8577     825.7029     77.77957     155.4356     310.6859      1.602     3.92     813.4305     54.77978      91.8078         5     1.011     0.435 -74.62   0
       664    535.8946     33.0049 307.7163110  +6.6709708     5429.618     7945.562     8392.753     77.65601     155.1264     310.5313      1.540     3.12     816.5479     54.77978     791.4033        27     1.309     0.988 -69.13   0
       665    254.0165     33.2520 307.8334187  +6.6614114     2133.882     3235.714     3967.714      77.4083     155.4974     310.5004      1.602     3.16     828.3257     54.77978     308.5038        20     1.187     1.019 -77.02   0
       666    441.3850     28.6496 307.7557259  +6.6696006     24205.66      35484.9      37104.7     77.28416     155.4356     310.5004      1.582     3.13     818.8389     54.77978     3595.134        52     1.462     1.148 -60.64   0
       667      3.6552     31.3384 307.9375004  +6.6537782     1184.231     1754.149     1671.381      78.0261     151.0492     268.2576      1.581     3.61     830.4929     54.77978     186.3738        13     1.168     0.756 -40.93  16
       668    622.5487     27.3594 307.6804969  +6.6762029     3262.219     5559.094     6604.303     77.90293     155.4356     310.7477      1.999     5.10     816.0071     54.77978     526.5463        31     1.894     1.045  78.55   0
       669    262.0021     28.9709 307.8302457  +6.6634468     9742.117     14340.75     14828.13      77.4083     155.2502     310.5931      1.523     3.28     828.3143     54.77978     1351.433        36     1.379     1.074 -63.27   0
       670    919.2426     28.6508 307.5571754  +6.6855855      2080.53     2751.409     2441.503      78.0261     155.4356     310.7786      1.369     3.24     814.4393     54.77978     326.3752        16     1.138     0.830 -66.92   0
       671    321.8593     29.4712 307.8053593  +6.6652507     1008.033     1474.382     1696.608      78.0261     155.4356     310.8404      1.697     5.10     826.8798     54.77978      159.176         9     1.094     0.671 -47.69   0
       672     27.2140     28.6108 307.9278052  +6.6556975      2488.95     3885.948     3949.772     77.65601     155.1883     310.7168      1.658     3.92     829.5999     54.77978     333.9846        24     1.445     0.981 -47.68   0
       673    526.6428     28.2788 307.7203145  +6.6726116     718.2117     1200.437     1004.758     77.77957     155.4356     310.8095      1.456     4.96     816.6504     54.77978     128.9388         8     1.110     0.627 -80.49   0
       674    554.7203     27.7198 307.7086673  +6.6737829     769.1335     1075.712     912.6263     78.14907     155.6826      310.933      1.491     4.69     816.2157     54.77978     111.8144         8     0.965     0.648 -83.25   0
       675    249.8710     25.7096 307.8353962  +6.6643853     3135.271     4677.625     4632.139     77.77957     155.6826     310.7786      1.586     3.39     828.2969     54.77978     479.6812        22     1.272     0.975 -46.66   0
       676    303.0147     23.8967 307.8133773  +6.6669188     1130.521     1899.426     1556.582     77.65601     155.1883     310.5622      1.696     4.44     827.7123     54.77978     171.7556        12     1.168     0.694 -68.69   0
       677    939.7802     19.0097 307.5489657  +6.6902503     936.3185     1307.174     1302.941     77.53226     155.1264     310.6241      1.333     4.15     813.4113     54.77978     169.8528        10     1.293     0.602 -60.57   0
       678    691.2448     18.2909 307.6522591  +6.6822446     1958.423     2643.881     2673.021     77.90293     155.3738     310.9022      1.425     3.44     815.7322     54.77978     287.7752        16     1.217     0.802 -47.34   0
       679     96.1534     18.5627 307.8995038  +6.6621658     740.2214     872.6696     255.8242     77.65601     155.3738     310.6859      1.520     4.78     826.9861     54.77978      92.9812         9     1.113     0.582 -59.89   0
       680    752.3655   1020.9695 307.5931376  +6.2704126     444.7258     1208.783     1495.318     77.53226      153.446     272.8011      2.601     4.76     849.3377     54.77978     79.13989         5     0.985     0.652  33.03  18
       681    202.5377     13.5716 307.8554729  +6.6678043     856.2067     1277.396     980.9271     77.53226     155.4356     310.7477      1.519     4.72     827.8456     54.77978     143.3172        11     1.291     0.735  -0.52   0
       682    717.7569   1017.9513 307.6076077  +6.2705021     7381.505     11233.09     11686.99     77.90293     155.3738     303.6836      1.621     3.47     849.8165     54.77978      953.088        34     1.412     1.081 -54.28  16
       683    432.4110   1017.7974 307.7260788  +6.2610167     3934.157     6342.854     7390.547     77.53226     155.1264     304.7253      1.823     3.54      852.327     54.77978     526.7067        36     1.629     1.375  74.17  16
       684    709.9588   1017.1129 307.6108734  +6.2705875     1471.821     2248.756     2527.338     77.90293     155.4356     308.8569      1.518     4.58     849.7877     54.77978       194.64        15     1.263     0.864 -71.70  16
       685    573.9789   1016.9422 307.6673338  +6.2661105     4183.046     6617.983     7710.919     77.53226      155.312      309.416      1.699     3.40     851.5403     54.77978     546.9211        29     1.439     1.076 -63.96  16
       686    750.2800   1013.0302 307.5942703  +6.2736200     1325.111     2216.652      2795.22     77.77957     155.3738     310.7477      1.757     4.80     849.1862     54.77978     177.7107        14     1.193     0.928  14.13   0
       687    199.2044   1011.7756 307.8230984  +6.2556784     517.1072     779.6526     867.5111      77.4083     155.1883     310.6241      1.778     3.83     849.2813     54.77978      74.4455         5     0.914     0.460 -45.52   0
       688    957.3348   1007.4422 307.5084928  +6.2828367     6453.436     10779.11     11174.25     77.90293     155.3738     310.8712      1.816     3.69     843.8213     54.77978     765.2578        39     1.487     1.290 -44.13   0
