#   1 NUMBER                 Running object number                                     
#   2 X_IMAGE                Object position along x                                    [pixel]
#   3 Y_IMAGE                Object position along y                                    [pixel]
#   4 ALPHA_J2000            Right ascension of barycenter (J2000)                      [deg]
#   5 DELTA_J2000            Declination of barycenter (J2000)                          [deg]
#   6 FLUX_APER              Flux vector within fixed circular aperture(s)              [count]
#   9 FLUXERR_APER           RMS error vector for aperture flux(es)                     [count]
#  12 FLUX_RADIUS            Fraction-of-light radii                                    [pixel]
#  13 FWHM_IMAGE             FWHM assuming a gaussian core                              [pixel]
#  14 BACKGROUND             Background at centroid position                            [count]
#  15 THRESHOLD              Detection threshold above background                       [count]
#  16 FLUX_MAX               Peak flux above background                                 [count]
#  17 ISOAREA_IMAGE          Isophotal area above Analysis threshold                    [pixel**2]
#  18 A_IMAGE                Profile RMS along major axis                               [pixel]
#  19 B_IMAGE                Profile RMS along minor axis                               [pixel]
#  20 THETA_IMAGE            Position angle (CCW/x)                                     [deg]
#  21 FLAGS                  Extraction flags                                          
         1    593.4019     26.6172 307.6804925  +6.6761642     2695.859     5020.543     6218.788     83.67181     167.2768     335.1213      2.152     5.38      984.097     59.11762     391.1948        36     2.085     1.072  73.97   0
         2    662.1404     17.0776 307.6522433  +6.6823996     1767.219     2752.776     2651.599     84.20475     167.7441     335.3549      1.645     4.12      981.517     59.11762     214.3721        18     1.190     1.073 -82.87   0
         3    150.4665     10.0609 307.8651485  +6.6681655     9695.579     16388.52     17578.43     84.07183     167.6774     335.3882      1.832     3.71     1000.538     59.11762     1228.162        44     1.561     1.267  87.62  16
         4    494.5516      8.2483 307.7221981  +6.6804445     2676.394     4571.403     4783.279     84.07183     167.6107     334.8876      1.868     3.99     985.9786     59.11762     293.7175        26     1.430     1.099 -88.62  16
         5    895.9185      7.6698 307.5553896  +6.6940813     4306.979     6092.713     6612.261     84.33746     168.0106     332.1379      1.522     3.28     975.8424     59.11762     606.0699        23     1.253     0.950  75.85  16
         6    696.7418      6.2900 307.6382247  +6.6880095     1953.837     2969.747     2978.915      83.9387     167.7441     321.1823      1.623     4.06     979.6854     59.11762     242.2482        18     1.293     0.895  87.00  16
         7     52.5295      6.5769 307.9059706  +6.6663148     601.4502     1103.304     1615.843     83.67181     167.6107     323.6797      2.313     5.18     1001.245     59.11762     103.8852         7     1.315     0.702  61.13  16
         8    432.7765      6.4509 307.7479348  +6.6791196     1559.287     2440.831     2399.328     83.67181     167.7441     322.5374      1.716     4.98     990.0029     59.11762     179.9625        16     1.253     0.992 -89.12  16
         9    960.7083      3.8049 307.5285890  +6.6978347     2181.985      3259.99     3625.595     83.67181      163.968     291.4637      1.618     3.68     971.6445     59.11762     312.3629        16     1.262     0.811 -72.07  24
        10    680.1851      1.6992 307.6452611  +6.6893525     4615.546     5838.545     6368.166     77.71214     138.9352      258.392      1.267     2.93     980.1403     59.11762     895.2359        18     1.178     0.795   7.33  24
        11    600.1510      1.3355 307.6785395  +6.6868295     1341.224     1843.254      1787.15     72.96178     133.1814     252.3928      1.250     3.12     983.3632     59.11762     303.1078         9     1.126     0.466   4.31  24
        12    682.5695   1006.9661 307.6104372  +6.2743082     1090.323     1490.928     2301.695     83.53803     167.4772     335.1213      1.253     3.57     1017.267     59.11762     235.4853         9     1.108     0.581 -79.64   0
        13    804.8057   1022.7624 307.5591398  +6.2718608     596.9938      768.242     349.0388     82.18839      146.688     267.4104      1.156     3.35     1013.895     59.11762     116.0161         5     0.947     0.344 -49.28  24
        14    764.9522   1023.3747 307.5756709  +6.2702797     5702.103     6638.113     6847.655     76.69814     138.1279     257.4381      1.061     2.16     1015.949     59.11762     1372.348        14     0.922     0.697 -12.98  24
        15    555.6959   1020.3154 307.6626798  +6.2645601     82665.94     115862.3       122480     84.07183     168.1437     303.2728      1.497     3.07     1020.772     59.11762     13009.04        78     1.549     1.200 -74.81  24
        16    212.8170   1006.0847 307.8055566  +6.2589635     1551.108     2026.563     1961.925     83.67181     167.4772     335.3215      1.391     2.88     1020.557     59.11762     253.8326        11     0.991     0.668  88.41   0
        17    687.9512   1004.3304 307.6082907  +6.2755761     3219.744     4140.246      5088.56     84.07183     167.6774     335.4215      1.385     2.92     1017.127     59.11762     550.6392        18     1.143     0.870 -79.67   0
        18    411.1896   1005.1434 307.7232050  +6.2659946     1097.683     1492.036     1737.765     83.40405     167.6774     335.0546      1.492     5.49     1020.694     59.11762     146.2881        11     1.242     0.684 -75.92   0
        19    703.8626   1003.6496 307.6017053  +6.2763880     1301.695     1512.487     1464.701     84.07183     167.6774     335.4549      1.285     3.76         1017     59.11762      191.751        10     0.953     0.688 -87.52   0
        20    334.8301   1001.7507 307.7550316  +6.2648403     2028.589     3017.315     3443.981     83.67181     167.8108     335.2881      1.587     3.05     1020.844     59.11762     338.1877        19     1.265     0.847 -79.95   0
        21    673.1566    998.2331 307.6146402  +6.2776004      590.493     737.7736     1203.202     83.67181     167.7441     335.2214      1.734     4.01     1017.057     59.11762     113.0461         6     1.103     0.416 -62.17   0
        22    267.3257    990.6071 307.7834423  +6.2671813     16658.02     23554.33     25867.65     83.67181     167.2768     335.2548      1.548     3.01     1020.594     59.11762     2620.777        51     1.605     1.192 -52.22   0
        23    721.5367    991.3673 307.5947778  +6.2820495     9418.764     12479.78     12811.15     83.80536     167.8108     335.3549      1.385     2.85     1016.332     59.11762     1360.218        29     1.263     0.949  89.48   0
        24    517.0569    992.0240 307.6796796  +6.2749519     4606.497     6750.202     7553.525     83.67181     167.7441      335.188      1.530     3.20     1020.557     59.11762     766.9127        25     1.338     0.901 -87.42   0
        25    487.1970    993.2024 307.6920411  +6.2734673     1220.604     1480.539     898.4612     83.40405     167.2768     335.1213      1.279     3.09     1020.901     59.11762     195.8701        11     1.041     0.672  89.48   0
        26    391.6535    991.2380 307.7317873  +6.2710832     1119.283     1518.192     1802.645      83.9387     167.8108     335.3882      1.458     4.52     1020.689     59.11762     183.8455         9     0.916     0.811  81.62   0
        27    782.8707    990.6813 307.5693274  +6.2843778       1478.6     1976.254     2205.478     84.33746     168.0771     335.4215      1.445     2.79     1014.236     59.11762     256.1154        10     0.988     0.678 -77.42   0
        28    238.4142    988.0331 307.7955361  +6.2672756      1049.06     1472.951     1531.617     83.67181     167.4772     335.2881      1.409     3.92     1020.673     59.11762     190.7611         8     0.913     0.619  88.73   0
        29    514.2261    984.1446 307.6811208  +6.2781111     9377.974     12775.89     13295.98     83.67181     167.8108     335.2214      1.432     2.99     1020.389     59.11762     1559.693        32     1.329     0.960  89.91   0
        30    882.8326    984.6922 307.5280116  +6.2901811     10751.14     14030.94     14505.97     84.20475     167.6107     335.4215      1.357     2.75     1012.893     59.11762      1730.13        28     1.212     0.933 -86.51   0
        31    856.4076    980.9468 307.5391125  +6.2908478     14862.83     20269.97     21738.96     83.53803      167.544      335.088      1.416     2.82     1013.206     59.11762     2581.979        40     1.287     1.081 -82.69   0
        32    978.1469    980.3679 307.4885696  +6.2951392     6072.771     8150.983     8145.874      83.9387     167.7441     335.2881      1.402     2.93     1009.323     59.11762     1035.327        25     1.223     0.923 -85.53   0
        33    569.4319    981.2016 307.6582920  +6.2811708     1691.106     2325.678     2248.024     83.40405      167.544     335.1547      1.440     3.84     1019.136     59.11762     237.2146        14     1.175     0.806 -66.11   0
        34    500.6247    980.0408 307.6869079  +6.2793511     4686.266     6531.515     6535.882     83.67181     167.6107     335.1547      1.429     3.13     1020.461     59.11762     676.3236        22     1.217     0.892 -85.95   0
        35    610.1920    979.1849 307.6414314  +6.2833647     1613.029     2306.339     2081.332     83.67181     167.4772     335.2214      1.577     3.09     1017.768     59.11762     256.6163        15     1.039     0.925  85.42   0
        36    765.8061    977.7377 307.5768497  +6.2891540     694.4908      900.676     1325.252     83.40405      167.544     335.1547      1.611     5.59     1014.573     59.11762     109.1375        10     1.382     0.636 -73.97   0
        37     35.7024    977.9207 307.8800628  +6.2646520     943.1348     1447.992     1803.721     83.80536     168.0106     335.4215      1.716     4.20     1020.306     59.11762     151.5927         9     1.112     0.587 -84.20   0
        38    453.8563    976.4779 307.7064515  +6.2792589     2544.343     3368.405     3026.574     84.07183     167.7441     335.3549      1.432     3.05     1020.524     59.11762     391.0795        17     1.132     0.858  88.12   0
        39    888.2208    968.4763 307.5263180  +6.2970570     53645.54     70150.23     72278.05     83.67181     167.4772     335.3215      1.388     2.81     1012.119     59.11762     8820.432        52     1.316     1.031 -87.98   0
        40    195.5839    966.7137 307.8140438  +6.2746436     2073.954     2684.764     2962.368     83.67181     167.4772     335.2881      1.428     3.46     1020.419     59.11762     276.2794        14     1.069     0.826  80.71   0
        41    594.2083    965.1274 307.6485429  +6.2886361     1011.621     1540.421     1426.283     83.53803     167.2768     335.2548      1.497     3.74     1017.841     59.11762     150.1497         9     0.886     0.751 -86.99   0
        42    786.1505    962.3297 307.5689178  +6.2961949     2810.685     3921.598     3951.129     84.07183     167.6774     335.4215      1.423     2.97     1013.538     59.11762     499.9958        20     1.298     0.950 -57.80   0
        43    734.3934    960.1301 307.5904881  +6.2953778     7723.977     10821.14      12000.3     83.53803     167.2768     335.2548      1.491     3.06     1014.888     59.11762     1201.652        29     1.301     0.974 -84.94   0
        44    521.1216    959.4305 307.6790894  +6.2885471     1107.255     1549.016     1412.193      83.9387     167.8108     335.3549      1.434     2.89     1019.639     59.11762     222.7158        10     0.926     0.778 -38.58   0
        45    203.7299    959.1534 307.8109162  +6.2780387     1639.589     2206.546     2085.257     84.07183     167.6774     335.3882      1.437     3.30      1020.51     59.11762     241.6189        13     1.084     0.753 -69.13   0
        46    168.4738    958.5709 307.8255779  +6.2770972     950.9819      1452.11     1025.176     83.93871     167.7441     335.3549      1.639     5.01      1020.17     59.11762     144.8164        11     1.309     0.692 -67.84   0
        47     28.8195    957.2666 307.8836203  +6.2729496      2971.27     4244.396     4651.472     83.67181     167.7441     335.2881      1.512     2.97     1020.309     59.11762     468.8876        20     1.198     0.908 -83.39   0
        48    922.5703    955.2406 307.5124955  +6.3036662     8318.586     10875.04     11061.35     83.53804      167.544     335.2548      1.340     2.73     1010.128     59.11762     1250.002        27     1.238     0.902  84.26   0
        49    178.5734    951.4159 307.8216253  +6.2803904     793.1208     1166.389     965.7177     83.67181      167.544     335.2881      1.474     4.12     1020.299     59.11762     129.6255         8     1.021     0.666 -51.94   0
        50    604.7787    949.4722 307.6446797  +6.2954538     757.9443     884.8005     997.6475     83.67181     167.6107     335.3549      1.188     4.46     1017.001     59.11762     132.7796         8     1.360     0.415  89.65   0
        51    896.3906    946.8233 307.5236514  +6.3062707     2536.298     3341.204     2694.025     83.67181      167.544     335.2548      1.385     2.82     1010.911     59.11762     393.8762        14     1.035     0.811  87.14   0
        52    755.8443    943.3722 307.5821420  +6.3030132      1419.29     1665.444     1849.545     83.67181     167.8108     335.2881      1.243     3.37      1013.74     59.11762     255.0444        12     1.167     0.649  81.72   0
        53    617.0563    942.8292 307.6398040  +6.2986070     5196.515     7045.885     6709.479     83.80536     167.8108     335.2881      1.413     2.83      1016.52     59.11762     923.1383        25     1.228     0.946 -89.95   0
        54    229.3346    943.1781 307.8008221  +6.2854937     4591.237     6581.803     6740.059     83.67181     167.7441     335.2548      1.527     3.30     1020.698     59.11762     684.9792        26     1.338     0.967 -89.85   0
        55    966.1761    942.5421 307.4948100  +6.3103613     934.7516     1484.728     1889.516     83.67181     167.7441     335.2214      1.833     4.98     1008.202     59.11762     126.6763         9     1.114     0.629 -66.24   0
        56    439.4061    941.3566 307.7136369  +6.2932789      1297.57     1671.744     1618.139     83.40405     167.4104     335.0546      1.326     3.40      1019.98     59.11762     227.3665        13     1.077     0.821 -59.18   0
        57    848.8604    939.2810 307.5436460  +6.3078025     1101.121     1412.678     1340.008     84.20475     167.7441     335.3549      1.360     3.67     1012.365     59.11762     171.1529         9     0.902     0.688  81.33   0
        58    940.5928    937.0010 307.5056218  +6.3117982     796.6436     891.2414      1486.77     83.40405     167.4104      335.188      1.371     3.03     1008.416     59.11762     138.6697         6     0.801     0.491  87.53   0
        59    919.5922    936.7287 307.5143535  +6.3112117     850.1501     1287.898     1250.316     83.53804     167.2768     335.2548      1.534     5.71     1009.143     59.11762      135.368         8     1.488     0.618 -28.72   0
        60    265.4702    936.4182 307.7860428  +6.2894959     796.4114     1130.865     1623.164     83.53804     167.6107     335.3215      1.721     3.57       1020.6     59.11762     116.4667         8     1.020     0.499  89.48   0
        61    973.2997    934.8683 307.4921086  +6.3137672     917.0889     1481.054     1211.124     84.07183     167.8774     335.3549      1.749     5.30     1007.714     59.11762      144.052        11     1.405     0.680 -69.80   0
        62    541.7982    935.4042 307.6713111  +6.2991596     1916.998     2596.631     2240.032     83.40405     167.2768     335.1213      1.420     3.09     1018.532     59.11762     315.4547        14     1.048     0.855 -61.55   0
        63    581.0474    931.4944 307.6551413  +6.3020853     1410.102     1944.129     1924.665      83.9387     167.6774     335.5215      1.478     3.32     1017.207     59.11762     217.8174        12     1.045     0.732 -87.68   0
        64     30.6117    932.2139 307.8837240  +6.2833548     776.9125      1138.83     1034.836      83.9387     167.4104     335.3215      1.367     3.44     1020.308     59.11762     110.2211         5     0.766     0.448 -71.93   0
        65    260.9362    929.3028 307.7881661  +6.2922823     1739.206     2450.452      2602.41      83.9387     167.8774     335.4215      1.535     3.54     1020.611     59.11762     289.8538        14     1.134     0.792 -88.09   0
        66    528.5479    927.5458 307.6770791  +6.3019620     662.7861      400.596     435.9784     84.20475     167.6774     335.4215      1.123     3.71     1018.635     59.11762     105.8973         6     0.932     0.425 -71.76   0
        67    727.9261    925.8414 307.5943268  +6.3093217     962.0469     1276.783     1182.879      83.9387     167.8108     335.4215      1.262     4.33     1013.636     59.11762     201.7572         9     1.091     0.640 -89.09   0
        68    865.2554    922.1194 307.5374126  +6.3154355     8449.794     11077.82     11082.25     84.07183     167.7441     335.4215      1.350     2.84     1011.557     59.11762     1420.395        26     1.191     0.925  87.74   0
        69    103.1639    923.6964 307.8538808  +6.2893073      697.804     848.7755     1166.071     84.07183     167.6107     335.5549      1.528     5.43     1020.218     59.11762     103.6677         9     1.094     0.759  85.27   0
        70    401.1498    919.5005 307.7302628  +6.3010245     2313.984     3235.884     3341.314     84.07183     167.7441     335.5549      1.531     3.28     1020.003     59.11762     360.2471        18     1.330     0.840 -81.15   0
        71    302.8710    917.7182 307.7711409  +6.2984707     10371.96     14865.98      15830.5     84.33746     168.0771     335.4215      1.533     3.08     1020.719     59.11762     1512.594        34     1.382     1.016 -88.08   0
        72    570.2709    918.6300 307.6600502  +6.3070377     645.8823     772.2768     959.2891      83.9387     167.7441     335.3549      1.409     3.78     1017.263     59.11762     121.9049         5     1.066     0.386 -17.00   0
        73    222.9993    916.6713 307.8043488  +6.2962271     7634.033     10830.53     10885.56     83.40405     167.2768      335.188      1.500     3.12     1020.812     59.11762     1115.105        29     1.293     1.026 -86.63   0
        74    142.1979    914.8004 307.8379703  +6.2942904     538.4462     669.0952     435.0647     83.40405     167.2768     335.0546      1.281     4.32     1020.219     59.11762     89.54352         5     0.761     0.698  52.11   0
        75    550.9520    911.0936 307.6683280  +6.3095045     1286.606     1648.886      1605.06      83.9387     167.6107     335.5215      1.353     2.91     1017.746     59.11762     219.1323        10     0.894     0.744 -65.58   0
        76    735.6362    910.9144 307.5916263  +6.3157429     839.6426     955.4615     875.7047     84.07183     167.6774     335.3882      1.268     4.37     1013.194     59.11762      129.896         7     0.880     0.619 -72.13   0
        77    880.9646    907.3219 307.5313844  +6.3220694     1240.777     1783.035     1738.988      83.9387     167.8108     335.4215      1.474     3.15     1009.951     59.11762     227.2924        12     1.098     0.670  72.77   0
        78    113.6012    906.7496 307.8501192  +6.2966555     590.1859      751.511     606.9888     83.40405     167.3436      334.921      1.397     3.46     1020.176     59.11762     93.69525         5     0.745     0.465  74.75   0
        79    379.9899    905.2737 307.7395311  +6.3061913     690.8616     1063.977     803.5352     83.53803     167.3436     335.2548      1.519     5.21     1020.132     59.11762      94.2605         8     1.209     0.635 -75.91   0
        80    184.6200    905.7835 307.8206564  +6.2994364     426.7162     671.6705     645.4185     83.80536      167.544     335.2881      1.244     3.48       1020.5     59.11762     82.02063         5     0.765     0.457  74.49   0
        81    948.3885    903.2274 307.5035168  +6.3260047     845.5589     1160.383     1519.042     83.67181      167.544     335.2881      1.645     4.46     1007.219     59.11762     162.9763         7     1.336     0.423 -78.96   1
        82    744.2079    902.6533 307.5883437  +6.3194402     486.3189     572.0095     1172.161     83.53804      167.544      335.088      1.187     3.41     1012.898     59.11762     81.56262         5     1.201     0.280  55.48   0
        83    810.2549    901.0156 307.5609659  +6.3223181     765.9649     915.2819     930.8241     83.40405     167.7441     335.0546      1.328     4.80     1011.538     59.11762     120.7879         7     0.917     0.712 -84.94   0
        84    717.3721    900.4072 307.5995655  +6.3194728     1991.824     2784.761     3189.205     83.53804      167.544      335.188      1.493     3.10     1013.291     59.11762     313.1395        17     1.185     0.865 -50.47   0
        85    541.5519    900.7492 307.6725806  +6.3134621     697.1206     813.3187     189.4967     84.07183     167.6107     335.3549      1.280     4.05     1017.841     59.11762     107.8104         7     0.978     0.480 -81.20   0
        86    948.5454    896.0435 307.5036926  +6.3289765     1739.853      2450.74     2394.435     84.07183     167.7441     335.3882      1.407     2.79     1007.019     59.11762     283.0729        13     1.044     0.706 -66.31   0
        87    593.0195    896.3665 307.6513513  +6.3169911     671.3364     1040.131     537.3818     83.53803      167.544      335.188      1.700     4.39     1015.865     59.11762     130.6528         8     1.038     0.835 -45.77   0
        88    581.0738    896.8982 307.6562950  +6.3163726     878.5141     1274.705     1304.844     83.67181     167.8774     335.3549      1.442     2.95     1016.346     59.11762     136.8408         7     0.846     0.548 -50.17   0
        89    502.4911    896.1061 307.6889607  +6.3140741     1232.825     1836.502     1994.506     84.07183     168.2766     335.3882      1.523     5.22     1018.575     59.11762     169.4764        10     1.125     0.686 -78.27   0
        90    636.0661    893.5866 307.6335655  +6.3195763      2670.54     3434.009     3479.293     83.53803      167.544     335.2881      1.442     2.98     1014.604     59.11762     438.4004        15     1.134     0.813 -75.86   0
        91     32.5622    889.7957 307.8843498  +6.3009362     3114.651     4787.291     4522.264     83.13544     167.4772     335.1213      1.615     3.38     1020.231     59.11762      420.367        22     1.371     0.878 -82.06   0
        92     50.2045    889.2204 307.8770421  +6.3017661     2069.973     2816.384     2616.239     83.67181     167.4104      335.188      1.513     3.23     1020.193     59.11762     333.7485        17     1.237     0.924 -83.61   0
        93    796.6409    890.0361 307.5669894  +6.3263984     820.7009     898.2574     1059.991     83.80536     167.7441     335.2548      1.100     3.07     1011.457     59.11762      160.004         5     0.738     0.438 -70.82   0
        94    176.1945    888.5831 307.8247372  +6.3062566     2281.046      3271.11     3331.318     83.67181     167.4104     335.2214      1.518     3.71     1020.441     59.11762     342.1877        19     1.315     0.909 -79.28   0
        95    914.2288    888.8101 307.5181891  +6.3308214     849.5515     820.4764     299.6405     83.53803      167.544     335.2214      1.275     2.85     1008.103     59.11762      213.729         6     0.983     0.382  78.82   0
        96    932.2079    886.6180 307.5107948  +6.3323251     683.2238     1024.209     1115.545     83.67181     167.4772     335.2214      1.633     5.78      1007.51     59.11762     128.0085         8     1.267     0.741 -80.16   0
        97    210.2578    885.6838 307.8106877  +6.3085959     773.6603     1159.783     1040.182     84.07183     167.7441     335.4549      1.646     4.42     1020.933     59.11762     129.7834         8     1.100     0.618  75.85   0
        98    630.5539    882.7395 307.6362200  +6.3238717     7728.353     10379.64     10678.26      83.9387     167.6774     335.4549      1.432     2.91     1014.376     59.11762     1150.578        26     1.241     0.962  88.69   0
        99    768.2609    883.7761 307.5789876  +6.3280376     909.2822         1195     705.3704     83.67181     167.6774     335.2881      1.423     5.29     1011.949     59.11762     140.0993         9     1.075     0.807  50.27   0
       100    868.1771    879.0297 307.5376456  +6.3333269     3160.143     4165.839     3507.452     83.53803      167.544     335.2214      1.390     2.70     1008.886     59.11762     529.4307        20     1.131     0.887 -63.31   0
       101      3.8173    879.5359 307.8966354  +6.3042074     1262.721     1721.027     1789.987     83.53804     164.3087     291.6555      1.512     3.31     1020.282     59.11762     192.0853        13     1.011     0.845 -77.53  16
       102    313.5899    875.9784 307.7680981  +6.3160658     17337.32     25480.54     27007.52     83.67181     167.4772      335.188      1.576     3.13     1020.836     59.11762     2344.133        42     1.397     1.132  89.50   0
       103    184.6607    875.5682 307.8216608  +6.3119149     1465.889     2156.882     2131.539     83.80536     167.8108     335.3215      1.573     4.86     1020.615     59.11762     250.3963        16     1.398     0.863  87.40   0
       104     48.2117    876.9386 307.8782854  +6.3067708     1362.482     2019.067     1678.253     83.53803      167.544     335.1213      1.393     3.72     1020.169     59.11762     215.9432        11     1.070     0.686  79.05   0
       105    364.3315    874.9008 307.7470594  +6.3182095     651.2874     890.5685     1421.336     84.07183     167.8774     335.3882      1.337     2.95     1019.879     59.11762     122.7596         6     0.744     0.607  31.31   0
       106    391.4040    866.7048 307.7360914  +6.3225000     1149.953     1570.908     1234.525     83.80536     167.4104     335.1547      1.476     2.82     1019.446     59.11762     220.2011        10     0.956     0.732  85.87   0
       107     77.0209    866.2844 307.8666808  +6.3121374     1970.987     2896.319     2904.533     83.80536     167.4104     335.2881      1.516     3.92     1020.064     59.11762     317.0011        17     1.230     0.956 -55.77   0
       108    472.3414    863.0270 307.7025981  +6.3267261     630.3503     1077.556     1185.024     83.67181     167.8108     335.2214      1.867     5.59     1018.336     59.11762     82.21973         6     1.295     0.681 -74.40   0
       109    644.8894    862.8716 307.6309342  +6.3325546     976.0217     1360.095     2377.246     84.07183     168.0106     335.3882      1.552     2.20     1013.438     59.11762     194.8688         8     0.777     0.634 -45.89   0
       110    858.5764    860.7083 307.5422486  +6.3405731       2300.5     3002.329     2531.925     84.07183      167.544     335.2214      1.446     3.34     1008.271     59.11762     346.9701        18     1.171     0.847 -87.96   0
       111    792.6714    859.6968 307.5696575  +6.3387949     3552.065     4849.912     5323.248      83.9387     167.8774     335.3882      1.440     2.83     1010.511     59.11762     536.8734        20     1.227     0.859 -75.22   0
       112    829.4501    860.1617 307.5543651  +6.3398285     2457.861     3346.642      3522.87     83.80536     167.7441     335.3549      1.480     3.23     1009.299     59.11762     375.9956        15     1.107     0.798 -80.47   0
       113     60.4572    860.1984 307.8737662  +6.3140944     2581.165     3476.684      3704.38     83.40405     167.4104     335.1213      1.432     3.26     1020.058     59.11762     348.7444        18     1.175     0.886 -86.69   0
       114    528.6678    851.1469 307.6796029  +6.3335148     354864.5     512303.6     532527.6      83.9387     167.6774     335.2881      1.541     3.09     1016.678     59.11762     49188.41       137     1.541     1.246 -86.26   4
       115    423.4508    857.9550 307.7230759  +6.3271855     632.4556     970.2669     1370.073     84.20475     167.6107     335.4215      1.464     2.24     1018.835     59.11762      127.308         6     0.745     0.497  88.40   0
       116    372.9606    853.7452 307.7441891  +6.3272344     8276.225     12028.59     13081.84     84.07183     167.8108     335.3882      1.554     3.12     1019.452     59.11762     1185.259        35     1.432     1.056 -86.56   0
       117    316.0888    852.1246 307.7678654  +6.3259997     12982.54     19332.35     20553.97     84.07183     168.0771     335.4882      1.576     3.30     1020.771     59.11762     1835.234        45     1.459     1.180 -79.39   0
       118    616.5956    854.2569 307.6429763  +6.3351675     1287.969      1746.77     1611.688     83.40405     167.6107      335.088      1.372     3.90     1013.707     59.11762     198.9597        10     1.052     0.732  50.44   0
       119    634.5151    848.4193 307.6357297  +6.3381764     3822.936      5530.75     6072.395     83.67181     167.4772     335.3215      1.564     3.05     1013.093     59.11762     529.5381        24     1.346     0.931 -87.24   0
       120    867.0041    847.3320 307.5391971  +6.3463776     6167.936     8204.846      8587.71     83.40405     167.3436     335.1547      1.396     2.81     1007.856     59.11762     1067.858        26     1.212     0.930 -88.49   0
       121    706.1571    845.1646 307.6060814  +6.3419112     966.3358     1388.004     1590.311     83.80536     167.7441      335.188      1.544     3.26     1011.942     59.11762     181.1939         8     0.892     0.736  73.91   0
       122    609.3957    842.3394 307.6463681  +6.3398484     3565.213     5165.799     5354.103     83.40405     167.6107     335.1547      1.488     2.71     1013.409     59.11762     581.0435        20     1.229     0.887 -77.07   0
       123   1000.3662    841.5032 307.4839969  +6.3532234     5861.998     7703.976     7578.139     84.20475     167.6107     335.5549      1.362     2.79     1003.079     59.11762      853.865        24     1.178     0.944 -86.43   0
       124    797.8252    841.5921 307.5681251  +6.3464431     1842.038     2476.568     2968.966     83.67181      167.544     335.2214      1.507     3.14       1009.5     59.11762     288.1238        16     1.149     0.849 -55.18   0
       125    599.6364    841.3301 307.6504557  +6.3399393     1080.388     1824.516     2569.897      83.9387     167.8108     335.4882      1.790     4.15     1013.695     59.11762     163.1489         9     1.031     0.800  79.95   3
       126    602.3358    837.0786 307.6494776  +6.3417852     2331.754     3686.387     4481.282     84.33746     167.8108     335.3549      1.697     4.46     1013.457     59.11762     373.5074        20     1.436     0.998 -64.83   2
       127    924.3945    840.4855 307.5155882  +6.3511158      909.993     1516.339     1482.624     83.53804     167.4104      335.088      1.607     4.12     1006.135     59.11762     151.3793         7     1.054     0.459 -62.81   0
       128    885.9287    835.1931 307.5317437  +6.3520207     3849.037     5134.787     5153.125     83.53803     167.2768     335.3215      1.393     2.83     1007.094     59.11762     618.4746        22     1.229     0.963 -84.86   0
       129    296.2219    835.8915 307.7766652  +6.3320376     1109.232     1684.751     1093.132     84.07183      167.544     335.2548      1.643     3.73     1021.316     59.11762     168.8486         9     0.933     0.659  28.12   0
       130    344.1867    831.0687 307.7569056  +6.3356354     2877.486     4252.307     4774.713     83.53803     167.6107     335.2548      1.567     3.38     1019.856     59.11762     406.3219        20     1.195     1.018  82.39   0
       131    480.2820    820.9517 307.7007181  +6.3443664     3103.557     4615.199     4482.123     84.07183     167.7441     335.4215      1.564     3.27     1016.937     59.11762     434.1282        23     1.244     1.028 -59.76   0
       132    824.7916    819.7332 307.5576581  +6.3563684     1140.262     1513.201     2146.267     83.53803     167.4772     335.2548      1.385     3.16     1008.054     59.11762     239.4102        12     0.976     0.900 -87.15   0
       133    527.0219    816.9351 307.6814391  +6.3475874     6106.405     8953.258     9936.709     83.67181     167.7441     335.2548      1.534     3.17     1014.956     59.11762     918.1073        29     1.339     1.017 -84.47   0
       134    545.8915    817.9915 307.6735656  +6.3477817     816.2998      1088.18     357.5634     83.67181     167.4104     335.1547      1.415     3.13     1014.265     59.11762     117.6316         9     0.801     0.761  22.52   0
       135    238.3310    816.9982 307.8013486  +6.3378998     728.4424     1056.204      1175.88     83.53803     167.2768     335.2214      1.529     3.95     1020.794     59.11762     106.0615         6     1.074     0.416 -77.21   0
       136    533.9782    816.2983 307.6785711  +6.3480829     1299.184     2124.493     2762.035      83.9387     167.4772     335.1547      1.753     3.48     1014.619     59.11762     204.5583        13     1.022     0.876 -47.32   0
       137    444.9155    815.8971 307.7155786  +6.3452711     1511.365     2195.054      2530.36     84.07183     168.1437     335.4549      1.626     4.03     1017.239     59.11762     195.0829        16     1.260     0.850  88.86   0
       138    862.6167    815.0256 307.5421043  +6.3595726      1615.86     2187.853     1838.331     83.80536      167.544     335.3215      1.297     2.86     1007.563     59.11762     287.5441        14     1.137     0.725 -64.83   0
       139    662.5073    814.3051 307.6252504  +6.3531983     899.5074     1005.165     843.2698     84.07183     168.3431     335.3549      1.257     4.40     1011.275     59.11762     171.2943         8     1.216     0.612  75.36   0
       140     86.7140    814.9600 307.8643916  +6.3336563     1563.101     2124.124     2100.214     84.07183     167.6774     335.3882      1.472     3.36     1019.592     59.11762     204.4622        15     1.123     0.872  69.12   0
       141    497.7802    810.8271 307.6937911  +6.3491323     20411.69     30099.48     31488.38     83.67181      167.544     335.2881      1.574     3.17     1015.887     59.11762     2838.865        42     1.371     1.149 -86.73   0
       142    338.4345    812.6907 307.7599152  +6.3430318     650.2596     754.9932     708.2202     84.20475     167.6107     335.3882      1.231     3.60     1019.937     59.11762     128.4818         6     0.709     0.678   5.59   0
       143    911.3894    808.9897 307.5220473  +6.3636892     4390.405     5574.862     5579.874     83.67181      167.544     335.3549      1.353     2.90     1005.165     59.11762     738.4088        19     1.196     0.815 -85.00   0
       144    144.3255    810.5239 307.8406129  +6.3374213     528.4225     634.9002     248.9207     84.33746     168.0106     335.4549      1.541     4.81     1019.911     59.11762      97.5094         6     1.021     0.643 -68.47   0
       145      8.1127    801.3982 307.8974974  +6.3366172     1533.084       2191.1     1716.759     83.26985     167.3436     334.0182      1.425     3.92     1019.468     59.11762     224.8575        14     1.226     0.734 -87.63  16
       146    290.4164    799.5556 307.7803036  +6.3468478     3483.095     4872.355     5327.287     83.53804     167.6107     335.1547      1.566     3.25     1021.436     59.11762      460.215        23     1.257     1.011 -87.90   0
       147    755.9224    795.3733 307.5870840  +6.3641324     61010.43      84412.6      86980.5      83.9387     167.7441     335.3549      1.467     3.01     1009.163     59.11762     9210.253        60     1.381     1.104 -83.34   0
       148    198.7152    797.9920 307.8184455  +6.3444203     4959.909     5284.378     5774.478     83.67181     167.4104     335.2214      0.795     1.84     1020.137     59.11762     1890.781         8     0.741     0.441  45.42   0
       149    694.7186    796.5770 307.6124668  +6.3615940     748.5699     1123.401      1663.49     83.67181     167.4104     335.2881      1.894     4.99     1010.373     59.11762     128.4003         8     1.102     0.639  85.84   0
       150    212.7104    771.8943 307.8135146  +6.3556662     769937.4      1833458      2007663     84.07183     168.2766     335.4549      2.327     4.71     1019.516     59.11762     63569.43       556     2.715     1.958  88.67   4
       151    684.1555    789.9868 307.6170762  +6.3639630     22689.65     33025.82     35012.91     83.40405      167.544     335.1213      1.517     3.11     1010.207     59.11762     3547.903        46     1.405     1.106 -82.75   3
       152    677.8758    786.4707 307.6198031  +6.3652054     95030.96     134531.9     140317.9     84.33746     167.8774     335.3882      1.535     3.07     1010.137     59.11762      13603.2        82     1.490     1.188 -84.36   3
       153    399.2306    793.9913 307.7352935  +6.3527886      957.536     1240.941     830.4385     83.53803      167.544      335.188      1.417     4.29     1017.589     59.11762     128.9429         7     0.775     0.676 -85.88   0
       154    322.7787    787.3531 307.7672734  +6.3529706     20583.41     31416.24     32720.94     83.67181     167.7441     335.2214      1.634     3.32      1019.66     59.11762     2711.724        50     1.490     1.179 -85.49   0
       155    384.6865    785.2141 307.7416308  +6.3559264     22163.09     33534.46     35140.34     83.67181      167.544     335.2881      1.642     3.26     1017.742     59.11762     2992.103        46     1.433     1.186 -84.52   0
       156    881.1605    790.6281 307.5352205  +6.3702652     9857.602     12991.33     13528.38     83.67181     167.4772     335.2548      1.395     2.89     1006.078     59.11762     1567.949        28     1.219     0.931 -88.84   0
       157    371.9651    787.3088 307.7468442  +6.3546356     1458.163     2146.179     1795.126     84.20475     167.6107     335.4215      1.473     3.30     1018.167     59.11762     228.5771        14     1.102     0.823 -54.77   0
       158    611.1733    787.1010 307.6474892  +6.3627185     816.1058     1072.175     1395.486     84.20475     167.4772     335.3215      1.362     3.05      1011.11     59.11762     122.9924         8     0.818     0.659 -45.62   0
       159    921.7677    784.0600 307.5185729  +6.3743296     2408.482     3280.725     3207.159     83.80536     167.8108     335.3215      1.359     2.84     1003.826     59.11762     382.8236        16     1.137     0.783 -81.53   0
       160    878.0983    782.0286 307.5367813  +6.3737145     7805.609     10194.56     10643.21     84.20475     167.4772     335.3882      1.355     2.81     1005.844     59.11762     1354.847        25     1.223     0.907 -79.53   0
       161    850.7571    783.0103 307.5481058  +6.3723984     756.2715     902.7454     657.4547     83.53803      167.544     335.1213      1.372     5.09     1006.541     59.11762     139.4586         8     1.158     0.633 -86.95   0
       162    618.6653    781.1064 307.6445789  +6.3654441     6697.542     9684.139     10292.17     84.07183      167.944     335.4215      1.531     3.20     1010.729     59.11762     895.6077        29     1.295     1.054 -82.12   0
       163    133.1482    778.7091 307.8463315  +6.3501838     776.7955     1179.367     880.1489      83.9387      167.544     335.5882      1.592     4.58     1019.332     59.11762     138.1385         9     1.141     0.599  78.91   0
       164    407.4428    778.8320 307.7323937  +6.3593233     1690.531     2396.891     1889.318     83.53803     167.6774      335.188      1.508     3.10     1017.029     59.11762     234.4924        14     0.952     0.925  53.54   0
       165    706.3577    775.6333 307.6083365  +6.3706310     599.8244      783.116     634.0153     83.80536     167.7441      335.188      1.563     3.77     1009.423     59.11762     99.17914         5     1.020     0.400 -73.69   0
       166   1001.2131    773.6865 307.4859192  +6.3812570     1047.779     1174.282     967.9113     83.67181      167.544     335.2881      1.350     3.59     1002.488     59.11762     149.0898        12     1.010     0.839  83.38   0
       167    846.6691    773.2479 307.5501318  +6.3762937     870.3613     1119.613     916.3421     84.07183     167.6774     335.4215      1.363     4.12     1006.084     59.11762     118.2908         8     0.884     0.872 -86.98   0
       168    572.0171    773.0142 307.6642285  +6.3672279      953.283     1467.803     2183.309     83.80536     167.4104     335.3215      1.685     5.99     1011.195     59.11762     134.6785        11     1.103     0.922  58.30   0
       169    653.7263    771.3121 307.6303445  +6.3706592     2615.581     3904.926     4260.042     84.07183     168.0771     335.4215      1.628     3.39     1009.943     59.11762     353.8625        22     1.217     1.069  73.99   0
       170    123.1431    771.9312 307.8507164  +6.3526470     1036.748     1485.966      1258.11     84.20475     167.6774     335.3215      1.530     4.58     1019.133     59.11762     148.7442        13     1.200     0.842 -85.37   0
       171     98.1098    772.1452 307.8611070  +6.3517185     951.5345     1468.565     1226.784      83.9387      167.544     335.5215      1.499     4.83     1018.983     59.11762     150.6542        12     1.184     0.777 -44.39   0
       172    387.5905    767.8691 307.7410098  +6.3631861     53546.73     82372.23     86342.41     83.53803      167.544     335.2214      1.650     3.28     1017.149     59.11762     7091.477        69     1.506     1.277 -83.30   0
       173    280.2379    769.3619 307.7855512  +6.3589750     681.6819     1198.796      1456.41     83.80536     167.6107     335.2548      1.836     5.37     1019.724     59.11762     109.3828         9     1.307     0.624  89.49   0
       174    243.2135    770.2109 307.8009014  +6.3573838     958.6203     2040.752     3342.628     83.80536     167.4772     335.3215      3.407     7.99     1019.588     59.11762     108.1094        16     1.587     1.126 -53.45   0
       175    930.7801    769.2145 307.5153273  +6.3807601     881.2218     1142.428     741.7599     83.80536     167.4772     335.2881      1.367     3.99     1003.189     59.11762      164.733         7     1.062     0.620  54.81   0
       176    505.3211    766.8300 307.6921415  +6.3675530     7211.545     10703.05     10765.16      83.9387     167.8108     335.3549      1.593     3.24     1012.878     59.11762     966.7341        31     1.349     1.075 -84.31   0
       177    422.0053    765.4891 307.7267948  +6.3653205     4576.538     6914.438     7912.584     83.53803     167.4104     335.1213      1.648     3.41     1016.342     59.11762     581.1596        29     1.342     1.084 -77.86   0
       178    750.4791    763.5090 307.5904163  +6.3771094      12614.4     17398.97     17185.89     83.80536      167.944     335.4549      1.493     2.84     1007.832     59.11762     1775.423        35     1.276     1.066 -86.61   0
       179    418.7592    758.8084 307.7283685  +6.3679706     2239.843      3484.66     3542.857     83.40405      167.544      335.088      1.615     3.71     1016.375     59.11762     276.0338        18     1.203     0.934 -68.96   0
       180    772.2431    757.8735 307.5815650  +6.3801622     1349.152     1751.839      1983.51      83.9387     167.8108     335.4215      1.542     4.04     1006.724     59.11762     217.2926        12     1.213     0.669 -85.88   0
       181    108.3085    755.4694 307.8574351  +6.3589468      11803.1     17808.32     19484.77     84.07183     167.8774     335.3882      1.646     3.31      1018.74     59.11762     1441.415        40     1.456     1.133  86.65   0
       182    116.5754    755.7633 307.8539914  +6.3591029     2942.036     4444.477     5143.405     83.67181      167.544     335.1213      1.619     3.22       1018.8     59.11762     402.3452        23     1.265     1.021 -76.39   0
       183    896.0157    752.0797 307.5303438  +6.3866787     7302.099     9857.826     9859.557     83.67181     167.4772      335.188      1.399     2.95     1003.964     59.11762     1248.471        28     1.267     0.954 -86.96   0
       184    100.5289    752.8324 307.8607557  +6.3597747     2934.802     4991.268     5830.739      83.9387     167.7441     335.3549      1.957     3.51     1018.673     59.11762     412.2635        25     1.479     0.977 -84.22   3
       185    100.7676    746.4080 307.8608739  +6.3624356     1799.977     2890.793     2957.366     83.53804     167.6107      335.188      1.680     3.67     1018.552     59.11762     264.9139        20     1.230     1.099 -40.54   2
       186    945.0450    751.9241 307.5099818  +6.3883751     1803.683      2156.26     2535.297      83.9387     167.8108     335.4215      1.257     2.92     1002.805     59.11762     314.1443        11     0.989     0.677 -88.24   0
       187    651.5258    749.7015 307.6319858  +6.3795098     1738.243     2801.373     3274.573     83.53804     167.8774     335.3549      1.784     4.36      1009.23     59.11762     227.2646        16     1.227     0.911 -70.51   0
       188    538.4352    748.9875 307.6789874  +6.3760277     2331.171     3467.651     3560.054     83.53803      167.544      335.188      1.573     3.64     1010.614     59.11762     315.4562        20     1.239     0.995 -72.25   0
       189    386.1521    748.8210 307.7422500  +6.3710038     1125.017     1707.162     1715.792     83.67181     167.7441     335.2214      1.791     5.41     1016.593     59.11762     155.7446        11     1.095     0.754 -75.78   0
       190    669.2079    748.4135 307.6246840  +6.3806319     438.9585     692.6182    -35.42013     83.67181     167.4772     335.2548      1.764     5.16     1009.106     59.11762     67.17859         5     1.029     0.732  77.45   0
       191    919.6882    743.6058 307.5207944  +6.3909662      3450.28     4447.497     4370.549     83.53804     167.4104     335.1213      1.323     2.95     1002.996     59.11762     508.6654        17     1.142     0.815 -80.44   0
       192    890.2833    744.0585 307.5329944  +6.3898002     3349.963     4433.785      4587.33     84.20475     167.7441     335.4549      1.409     2.94      1003.86     59.11762     524.0066        18     1.130     0.869 -73.57   0
       193    950.5239    743.2960 307.5079953  +6.3921205     2261.853     2955.823     2734.928     83.67181     167.8774     335.4549      1.358     3.23     1002.659     59.11762     328.0802        14     1.079     0.825 -62.19   0
       194    642.5300    743.5300 307.6359304  +6.3817581     1477.093     1960.527     2262.618     84.07183     167.8774     335.3549      1.514     4.35     1009.038     59.11762     190.1823        14     1.057     0.976  89.05   0
       195    789.9139    741.5668 307.5747725  +6.3874852      1150.14      1852.06     1895.596     84.07183     167.6107     335.3882      1.602     2.78     1005.387     59.11762     182.8655         9     0.853     0.695 -71.77   0
       196    865.2836    738.9781 307.5435501  +6.3910656     854.6126     1161.889     930.9624     83.80536     167.4104     335.2548      1.317     3.34     1004.334     59.11762     169.5006         5     0.766     0.422 -75.72   0
       197    215.1410    738.0321 307.8136494  +6.3697307     1803.151     3091.088     3811.159      83.9387     167.8108     335.3549      1.881     4.20     1018.609     59.11762     216.1988        19     1.322     0.958 -52.44   0
       198    907.8478    733.7748 307.5260431  +6.3946318     1110.049      1618.76     1587.417     83.67181     167.8108     335.2881      1.445     3.83      1002.98     59.11762     212.3422        11     1.297     0.693  86.41   0
       199    235.5761    733.3124 307.8053206  +6.3723647     642.1111     1116.584     1401.143     84.07183      167.544     335.2548      1.566     4.28     1018.331     59.11762     149.4766         7     1.223     0.427 -77.46   0
       200    934.6683    731.2696 307.5149855  +6.3965592     2891.998     3864.397     3778.481     84.07183     167.8774     335.3549      1.385     2.71     1002.226     59.11762     441.0909        19     1.192     0.882 -88.52   0
       201    881.7386    732.4459 307.5369338  +6.3943111     1398.687     1814.344     1938.374      83.9387     167.6107     335.4215      1.442     3.17     1003.581     59.11762     224.3071        13     1.061     0.777 -88.57   0
       202    130.9175    732.8353 307.8488097  +6.3690520       691.39     1098.756     807.0539     84.07183     167.6774     335.3549      1.697     4.53     1018.413     59.11762      90.5719         7     0.984     0.592 -14.55   0
       203    654.4059    730.4193 307.6314383  +6.3875686      956.998     1525.608      1922.09     83.67181     167.3436      335.188      2.021     4.84     1008.411     59.11762     125.6665        11     0.969     0.913  28.05   0
       204   1008.4816    725.3278 307.4845214  +6.4014688     8793.599     11155.65     11041.62     84.33746     168.0771     335.4215      1.342     2.83     1001.551     59.11762      1284.43        25     1.204     0.897 -87.76   0
       205    976.2935    724.7217 307.4979133  +6.4006483     2040.167     2431.085     2151.758     83.80536      167.944     335.4549      1.281     2.92     1001.684     59.11762     343.8918        12     1.051     0.720  84.10   0
       206    777.7226    723.1057 307.5804574  +6.3947024     1318.409     1789.844     2070.355     83.80536      167.944     335.4549      1.419     3.29     1005.113     59.11762     198.5385        12     1.044     0.777 -64.08   0
       207    602.5095    723.9699 307.6532135  +6.3884992     746.4954     1234.666     1411.439     84.20475     167.4772     335.3549      1.639     3.71     1008.497     59.11762     111.9143         6     0.798     0.496 -84.32   0
       208    863.9902    720.6312 307.5447035  +6.3985990     1752.896     2361.839     2505.698     83.53803      167.544     335.2214      1.410     2.98     1003.633     59.11762     284.1854        14     1.013     0.874 -63.36   0
       209    838.2435    715.7486 307.5555632  +6.3997576     1016.051     1545.932      1877.47     84.20475     167.6774     335.4215      1.683     3.47     1003.786     59.11762     189.4657        10     1.058     0.653 -79.16   0
       210    821.0068    711.9881 307.5628500  +6.4007362     1674.294      2319.65     2305.999     83.67181      167.544     335.2881      1.453     3.38      1003.89     59.11762     261.6146        13     1.144     0.702  89.57   0
       211     84.3164    710.3490 307.8689276  +6.3767734      809.505     1748.599     2404.711     84.07183     167.6774     335.4882      2.765     6.89     1017.907     59.11762     138.4257        14     1.808     0.914  84.71   0
       212     20.0488    710.7952 307.8956078  +6.3744311     2393.287     3989.021     4850.654     83.40405      167.544     335.0546      1.899     3.66     1017.901     59.11762     352.1667        20     1.288     1.020 -74.73   0
       213    432.2403    709.3665 307.7244362  +6.3888384     512.5164      534.817     680.8188     83.80536     167.6774     335.2214      1.430     4.19      1013.33     59.11762      82.2804         5     1.215     0.412 -12.59   0
       214    538.2686    705.6688 307.6805161  +6.3939105     484.9878     661.5817     244.9053     84.07183     167.8774     335.3549      1.172     3.50     1009.347     59.11762     102.4476         5     0.844     0.606 -44.22   0
       215    632.6296    699.3803 307.6415291  +6.3996592     6421.198     9807.904     10484.49     83.67181      167.544     335.2548      1.658     3.24     1007.197     59.11762     834.7581        34     1.346     1.187 -80.07   0
       216    579.5743    698.7549 307.6635901  +6.3981457     1281.533     2256.807     3138.064     83.53804     167.8108     335.2548      2.292     4.45     1008.295     59.11762     181.6407        12     1.089     0.854  34.59   0
       217    490.3278    698.5914 307.7006696  +6.3952307      780.853     1238.154     1676.667     83.53804     167.2768     335.2214      1.896     4.22     1010.265     59.11762     117.1811         7     1.158     0.635 -77.98   0
       218     95.7362    695.2407 307.8646953  +6.3833955      3805.46     5738.758     5974.511     84.07183     167.6774     335.4882      1.599     3.07     1017.647     59.11762     544.8774        28     1.357     1.106  70.10   0
       219    969.5184    694.6406 307.5017370  +6.4128452     2964.933     4035.742     3708.387     84.07183     167.7441     335.3215      1.466     3.09     999.5694     59.11762     435.4136        22     1.274     0.929 -66.58   0
       220    606.4595    695.0906 307.6525450  +6.4005568     2134.425     3080.397     2636.953      83.9387     167.7441     335.4549      1.543     3.22     1007.608     59.11762     286.6041        16     1.086     0.899 -89.45   0
       221    282.6425    695.3774 307.7870513  +6.3896068     593.1731     829.4872     1021.324     83.67181     167.6107     335.2214      1.387     3.40     1016.738     59.11762     91.44763         5     1.025     0.326  68.83   0
       222    749.5112    691.5347 307.5932382  +6.4067991     21401.96      30456.1        31216     84.07183      167.944     335.3882      1.566     3.04     1004.735     59.11762     2861.958        47     1.432     1.140 -78.44   0
       223    217.8528    694.6689 307.8139886  +6.3877280     722.3964     1299.158     1586.473      83.9387     167.6107     335.3215      1.732     4.17     1017.004     59.11762     123.5432         5     1.038     0.481  57.34   0
       224    879.4456    691.2210 307.5392707  +6.4112588     4163.178     5644.941     6441.527     83.67181     167.6774     335.2214      1.470     2.87     1001.889     59.11762      602.633        22     1.235     0.921 -79.62   0
       225    448.8044    691.6116 307.7181542  +6.3967243     1259.408     2032.667      1743.59     83.67181     167.4104     335.2548      1.710     3.64     1011.582     59.11762     191.1969        15     1.111     0.913 -78.83   0
       226    477.2849    691.3300 307.7063326  +6.3977931     1108.803     1610.156     1759.395     84.20475     168.0106     335.4215      1.564     4.77     1010.398     59.11762     155.1328        11     1.136     0.749 -71.29   0
       227    294.8473    691.2064 307.7821223  +6.3917381     725.3716     986.3987     1019.913     83.53803      167.544     335.0212      1.464     4.22      1016.41     59.11762     127.3965         6     1.133     0.449 -64.20   0
       228    250.8673    691.2347 307.8003906  +6.3902528     492.7104     733.6597     999.1688      83.9387     167.8108     335.4882      1.686     5.20     1016.693     59.11762     78.52399         5     1.187     0.644 -20.52   0
       229    223.1129    685.1119 307.8121266  +6.3918508     6016.873     9526.601     9614.888     83.80536     168.2102     335.4882      1.661     3.62     1016.552     59.11762     747.3904        31     1.400     1.127  89.11   0
       230    630.0581    684.2771 307.6431058  +6.4058103     7122.191     11042.77     11786.66     84.20475     167.7441     335.3215      1.659     3.30     1006.654     59.11762     986.9902        36     1.388     1.222 -89.74   0
       231    612.5221    685.4406 307.6503514  +6.4047443     1016.623     1294.569     1242.594     83.93871     167.7441     335.4215      1.474     3.66      1007.14     59.11762     169.3601        10     0.969     0.775 -18.04   0
       232    324.8795    684.6038 307.7698699  +6.3954705     623.0883     1119.882     713.0574     83.67181     167.2099     335.1213      1.780     5.03     1015.272     59.11762     82.61255         7     1.115     0.643 -39.04   0
       233    889.9371    676.6651 307.5354009  +6.4176192     1455.858     1855.021     2000.212     84.07183     167.7441     335.4215      1.347     3.49     1000.775     59.11762     223.9811        12     1.049     0.781 -54.87   0
       234    701.7170    672.6775 307.6137273  +6.4129920     3797.709     5708.809     5612.426     84.20475     168.0771     335.4882      1.629     3.40     1004.558     59.11762      510.105        23     1.311     0.973 -89.17   0
       235    657.3309    673.0544 307.6321538  +6.4113552     1171.849     1599.178     1293.262     84.07183     167.6774     335.3215      1.478     3.91     1005.342     59.11762     175.6839        11     1.050     0.797 -84.91   0
       236    309.5945    671.3900 307.7766655  +6.4004151     4886.864     7252.042     7236.612     83.53804     167.4772     335.2548      1.556     5.00     1015.255     59.11762     1210.394        15     1.670     0.423 -72.58   0
       237    968.0309    669.3231 307.5032044  +6.4232507     10302.32     13708.73      14519.1      83.9387     167.8108     335.3882      1.400     2.85          998     59.11762     1709.158        28     1.217     0.968 -81.94   0
       238    906.3719    669.8266 307.5288029  +6.4209904     2531.457     3453.699     3026.551     83.53803      167.544     335.2214      1.398     2.87     999.7497     59.11762     399.8503        18     1.184     0.831 -63.85   0
       239    506.7749    665.1284 307.6949652  +6.4095990     1989.228     3325.779      3044.25     83.67181     167.6107     335.3215      1.714     4.11     1009.103     59.11762     257.1249        21     1.358     1.030 -62.89   0
       240     45.4921    664.1909 307.8866172  +6.3945301     25251.45     39749.98        41604     83.67181     167.4104     335.1547      1.700     3.30     1017.462     59.11762     3454.112        57     1.534     1.278 -89.56   0
       241    475.4954    662.4465 307.7080498  +6.4096606     1319.429     1983.451     2156.105     83.93871     167.6774     335.5549      1.772     5.22     1009.692     59.11762      149.797        16     1.140     1.058  59.69   0
       242    896.4832    661.4418 307.5331926  +6.4241237     1179.849     1363.605     1677.655     84.07183     167.7441     335.3215      1.214     2.68     999.9355     59.11762     188.6205        10     0.930     0.690 -77.52   0
       243    515.8698    659.0120 307.6913931  +6.4124288     960.7865     1454.235     1506.358     83.53803      167.544     335.2214      1.601     3.93     1008.799     59.11762      154.833        10     1.062     0.664  76.80   0
       244    691.3945    656.3653 307.6185644  +6.4193838     3629.557      5107.35     4734.889     83.26986      167.544     335.1547      1.548     3.40     1004.109     59.11762      498.896        20     1.243     0.943 -73.61   0
       245    713.4544    654.6588 307.6094574  +6.4208245     4116.438     5938.768     5922.538     84.20475     167.6774     335.3882      1.582     3.35     1003.812     59.11762     525.3982        23     1.337     0.956 -87.92   0
       246    544.9932    652.6022 307.6795106  +6.4160490     3202.709      4910.71     5494.507     83.40405     167.4104      335.188      1.679     3.56     1008.073     59.11762     377.4771        26     1.344     1.058 -81.44   0
       247    381.0515    653.2525 307.7475937  +6.4102975     1273.966     2249.653     2483.865     84.20475     167.6107     335.4215      1.983     4.59     1012.211     59.11762     167.4214        17     1.329     0.939  76.12   0
       248    205.5106    652.3149 307.8205473  +6.4048038     1763.443     2953.015     2719.893     83.80536     168.0106     335.5215      1.775     3.95     1015.573     59.11762     245.8956        20     1.330     0.993 -80.30   0
       249    986.2903    650.8560 307.4962382  +6.4314843      5721.89     7735.383     7658.425      83.9387     167.6107     335.5215      1.390     2.88     997.5482     59.11762     938.9183        23     1.206     0.913 -79.30   0
       250    289.3228    651.2205 307.7857678  +6.4080649     1364.399     2089.422     1784.644     83.67181     167.4772     335.3549      1.638     4.19     1014.832     59.11762     207.8356        15     1.271     0.862 -65.10   0
       251    951.7161    649.6744 307.5106415  +6.4308218     9223.173     12329.16     12430.38     84.20475     168.0771     335.4549      1.405     2.90     998.0828     59.11762     1363.686        30     1.269     0.953 -85.93   0
       252    671.3446    648.3908 307.6271621  +6.4220077     790.6589     1212.829     1247.367     83.40405     167.6774      335.088      1.513     4.50     1004.137     59.11762     137.0804         7     0.917     0.783  55.16   0
       253   1000.8667    648.1873 307.4902720  +6.4330713     849.8211     1143.754     1431.713     83.53803      167.544     335.2881      1.554     3.93     997.2883     59.11762     121.7053         8     0.775     0.725  47.92   0
       254     63.1664    647.0034 307.8798573  +6.4022209     683.9677     1037.601     1342.659     83.26986      167.544     335.1547      1.590     3.88     1016.858     59.11762     101.0956         6     0.912     0.473 -52.09   0
       255    397.0244    644.0128 307.7412701  +6.4146476     2670.136     4505.588     5030.695     83.80536      167.544     335.3215      1.817     3.86     1011.377     59.11762     339.7798        26     1.386     1.133 -88.89   0
       256    110.2377    643.0875 307.8604363  +6.4054181     23160.57     36826.06     38301.95     84.07183     167.6774     335.3882      1.703     3.35     1016.181     59.11762     2912.081        53     1.534     1.253  85.89   0
       257    778.4242    643.7064 307.5828348  +6.4275140      1392.98     1981.716     1836.466     84.20475     167.4772     335.2214      1.501     3.34     1002.555     59.11762     194.8657        13     1.102     0.772 -68.82   0
       258    329.3885    638.0701 307.7695680  +6.4148373     717.5493     1148.308     918.8997     83.53803     167.4772      335.188      1.847     6.03     1013.169     59.11762     86.66199        10     1.364     0.749 -61.52   0
       259    946.6153    632.5817 307.5133342  +6.4377106     7657.339     11326.54      12152.4     83.80536     167.4104     335.2881      1.605     2.82     997.9803     59.11762     1126.239        36     1.440     1.100  51.98   0
       260   1001.9522    627.7682 307.4905059  +6.4415396     106271.2     142190.6     147612.8     83.80536     167.7441     335.2881      1.409     2.83     997.1443     59.11762     16705.52        88     1.413     1.131 -86.68   0
       261    540.2075    627.9222 307.6823303  +6.4260806      45031.8     72089.41     75325.71     83.67181     167.2099      335.188      1.719     3.47     1007.522     59.11762     5548.249        70     1.548     1.310 -85.73   0
       262    904.9536    629.8181 307.5307354  +6.4374650     720.8091     977.1946     1068.662     83.53803     167.6774     335.1213      1.537     4.59     998.7778     59.11762       128.72         7     0.932     0.642 -56.26   0
       263    499.0796    628.2692 307.6994045  +6.4245626     720.3148     1041.478     1104.537     84.33746     168.0106     335.3549      1.504     2.95     1008.503     59.11762     110.4079         7     0.741     0.652  -0.72   0
       264    147.8004    624.6153 307.8454574  +6.4143064     2652.054     4113.921     3395.603     83.67181     167.4104     335.1213      1.600     3.76     1015.076     59.11762     324.3105        22     1.341     0.989  79.26   0
       265    950.9883    624.0010 307.5118055  +6.4413996     636.5805     648.3967     467.0131     83.67181     167.4104      335.188      1.189     3.15     997.8281     59.11762     115.2419         5     0.951     0.380 -61.25   0
       266     40.4370    618.8051 307.8902539  +6.4131016      1248.22     2079.424     1847.736     83.13544     167.4772      335.188      1.659     4.20     1016.588     59.11762     176.8009        15     1.222     0.909 -78.88   0
       267    437.4792    611.7166 307.7255536  +6.4293378     59366.48     95654.73     100267.3     84.20475     168.0106     335.5215      1.760     3.64      1009.45     59.11762      6894.22        77     1.579     1.366 -87.57   0
       268   1015.8152    611.0138 307.4853084  +6.4489196     3941.207     5006.453     5310.239     83.80536     167.4104     335.3215      1.334     2.83     996.8547     59.11762     652.8081        18     1.091     0.845 -82.99   0
       269    623.1218    609.0031 307.6485216  +6.4366631     778.6546     1277.891     1265.304     83.40405     167.2099      335.188      1.612     4.58     1003.564     59.11762     119.4463         8     0.835     0.713 -49.74   0
       270    112.0106    606.8135 307.8609273  +6.4204564     1498.919     2611.841     3023.682     83.80536     167.4772     335.3215      1.966     3.94     1014.902     59.11762     211.6125        17     1.228     0.934 -80.49   0
       271    390.4237    605.3156 307.7453180  +6.4304065     651.2422     1209.237     1893.546     83.93871     167.4772     335.3215      2.229     5.90     1010.299     59.11762     84.09656         7     1.339     0.732 -86.94   0
       272    906.7343    604.0579 307.5308605  +6.4481621     638.8776     930.5324     1004.518     84.20475     167.6774     335.4215      1.411     4.28     998.0795     59.11762     98.87305         5     1.049     0.499 -53.49   0
       273    583.2322    603.5322 307.6652778  +6.4375901     834.2979     1327.395     1251.639      83.9387     167.7441     335.3549      1.765     3.95     1004.854     59.11762     128.6734         6     0.718     0.664  38.01   0
       274    283.0421    600.9334 307.7900757  +6.4286201      1889.44     3182.709     3210.768     84.07183     167.6774     335.4549      1.780     4.76     1012.295     59.11762     216.7516        21     1.462     0.981 -85.12   0
       275    435.8828    599.7087 307.7266218  +6.4342430     640.1151     1261.836     2031.743     83.80536     168.0106     335.4549      2.411     4.24      1009.03     59.11762     127.6605         5     1.056     0.486 -61.12   0
       276    709.5574    595.3218 307.6130724  +6.4451978     5179.616     7591.191     7590.285     83.93871     167.7441     335.4215      1.635     3.36     1001.895     59.11762     650.6857        29     1.384     1.088 -71.84   0
       277    980.5146    591.0611 307.5006438  +6.4559849     1084.026     1308.026     1110.356     84.20475     167.8774     335.4215      1.450     4.86     996.3779     59.11762     172.5442        11     1.385     0.607  85.43   0
       278    763.0269    590.4910 307.5910207  +6.4489762     14075.21     20583.79     21159.68     84.20475     167.4772     335.2548      1.557     3.24     1000.965     59.11762     1946.747        41     1.385     1.140 -81.49   0
       279    505.2898    590.4384 307.6980998  +6.4403923     1239.457     2325.738     2666.229     84.07183     167.6774     335.4215      2.036     5.34     1007.158     59.11762     168.7077        14     1.338     0.761 -50.45   0
       280   1002.6039    589.2863 307.4915259  +6.4574527     2319.476     2945.273     3135.401     83.53804     167.3436      335.088      1.328     3.20      995.874     59.11762     338.7098        17     1.140     0.869 -73.17   0
       281      8.1561    589.7969 307.9046463  +6.4239956     770.5043     960.6578     1295.858     83.40405     167.3436     334.0852      1.626     5.10     1016.733     59.11762     105.1178         8     1.255     0.585  65.37  16
       282    586.8411    588.5756 307.6642823  +6.4438869     2653.689     4226.538     4381.628     83.67181      167.544     335.1547      1.688     3.90     1004.215     59.11762     296.6642        24     1.329     1.086  88.18   0
       283    904.0419    584.5555 307.5326339  +6.4561261     1345.449     1875.735     2894.332      83.9387     167.7441     335.2548      1.463     4.05     997.6123     59.11762     185.9851        11     1.050     0.720 -81.43   0
       284    199.3410    582.4209 307.8254734  +6.4334589     1246.403     2427.613      3529.12     83.67181     167.6107     335.2214      2.549     4.64     1013.262     59.11762     181.2623        15     1.181     1.067 -67.35   0
       285    345.3605    582.1663 307.7648204  +6.4384572      977.388     1448.699     1669.233     83.80536     167.6107      335.188      1.541     4.41     1010.463     59.11762     127.8922        10     1.058     0.683 -51.30   0
       286    839.0721    573.6918 307.5599915  +6.4584482     2992.993     4343.763     5004.538      83.9387      167.944     335.3882      1.570     3.14     998.8517     59.11762     423.8727        22     1.295     0.910 -85.66   0
       287    797.6865    571.2214 307.5772688  +6.4580891      2564.36     3815.821     3975.945     84.07183     167.4772     335.2548      1.592     3.46     999.5937     59.11762     364.1288        22     1.342     0.977 -73.36   0
       288    768.7175    567.1640 307.5894408  +6.4587989     2389.413     3744.418     4588.529     84.07183     167.6774     335.3549      1.707     3.70     1000.174     59.11762     310.8002        22     1.323     1.034 -85.56   0
       289    225.9133    566.1438 307.8149847  +6.4410713     7010.503     12038.18     12814.67     84.07183     167.7441     335.5215      1.837     3.63     1012.211     59.11762     939.7237        40     1.503     1.316  87.38   0
       290    778.4329    562.3864 307.5855650  +6.4610957     158306.5     236715.9     247560.2     83.67181     167.4772     335.2881      1.651     3.24     999.7718     59.11762     21842.52       109     1.566     1.304 -85.03   0
       291    830.3091    564.5802 307.5639384  +6.4619189     560.8746     813.9104     1589.549      83.9387     167.4772     335.2214      1.510     3.90      998.777     59.11762     97.30713         6     0.942     0.462 -88.45   0
       292    160.1004    560.7567 307.8425079  +6.4410887     52990.85     88717.19     93214.31     84.07183     167.6107     335.6215      1.782     3.66     1013.788     59.11762     6197.062        71     1.626     1.333 -87.36   0
       293     84.1077    556.9838 307.8742054  +6.4400962     5702.583     9423.232     9961.676     83.80536      167.544     335.2548      1.750     3.59       1014.6     59.11762     680.9569        33     1.447     1.192  82.57   0
       294    949.2075    554.1948 307.5148881  +6.4701673     1473.956     2102.886     1971.822     83.40405     167.4772     335.2214      1.401     3.67     995.4004     59.11762     231.0116        12     1.108     0.776  86.15   0
       295    970.5524    552.7239 307.5060691  +6.4714850     733.3812     1117.124     598.2955      83.9387     167.8108     335.3549      1.410     2.55     994.7358     59.11762     133.3107         5     0.689     0.492  81.03   0
       296    814.9020    549.4846 307.5708469  +6.4676392     4704.137     6699.945     7021.092     84.07183     168.1437     335.4549      1.541     3.19     998.4385     59.11762     638.7152        27     1.342     1.009 -88.59   0
       297    333.4889    547.8522 307.7709111  +6.4522294      15142.8     25562.01     26705.45     84.07183      167.544     335.5215      1.814     3.82     1009.196     59.11762     1867.373        49     1.553     1.305  87.26   0
       298    135.3796    546.8952 307.8532467  +6.4459831     1724.254     2921.907     3636.021      83.9387      167.544      335.188      1.853     4.52     1013.875     59.11762     220.2559        22     1.474     0.978  76.76   0
       299    423.9135    548.3602 307.7333268  +6.4550467     651.0781     880.0291     824.5977     84.07183     167.7441     335.3882      1.529     4.71     1007.004     59.11762     101.7677         5     0.878     0.716  58.00   0
       300    768.8615    543.0777 307.5901909  +6.4687502     5797.615         8864      8786.72     84.33746     167.8108     335.3882      1.611     3.29     999.4437     59.11762     757.5899        38     1.452     1.193 -76.84   0
       301    499.7898    542.7432 307.7019927  +6.4599041     5750.953     9696.354     10131.02     83.40405     167.7441      335.088      1.784     3.71     1005.431     59.11762     720.8608        40     1.513     1.321 -82.90   0
       302    210.8971    544.3707 307.8219591  +6.4495588      834.938     1528.594     1849.705     84.20475     167.4772     335.3882      1.878     4.22     1011.915     59.11762     116.3168         9     0.950     0.675  68.66   0
       303     72.6247    543.8483 307.8794206  +6.4451347     691.3175     1394.709     1815.508     83.67181     167.7441     335.2881      2.377     7.69     1014.601     59.11762      110.578        11     1.462     1.133  39.52   0
       304    358.1755    539.5864 307.7609340  +6.4564694     1358.287     2183.062     2052.213     83.80536      167.544     335.3215      1.739     4.56     1008.338     59.11762     163.3208        13     1.189     0.744 -61.55   0
       305    544.5096    535.8436 307.6836458  +6.4642481     2272.747     4074.908      4652.22     84.07183     167.6774     335.4882      1.958     4.50     1002.737     59.11762     268.4642        28     1.524     1.170 -50.99   0
       306    146.8109    535.8267 307.8488722  +6.4509373     6000.126      10369.5     10919.81     83.67181      167.544     335.2548      1.828     3.74     1013.323     59.11762     763.7985        38     1.555     1.275 -87.97   0
       307    242.0946    532.3923 307.8094031  +6.4555511     75397.84       131213     138502.6     83.80536     167.4104      335.188      1.859     3.81     1010.299     59.11762     8521.543        83     1.666     1.390 -86.27   0
       308     18.4528    534.4980 307.9022421  +6.4471763     4764.372     7819.786     8592.343     83.93871     167.7441     335.6215      1.810     3.66     1015.608     59.11762     594.5914        34     1.518     1.163  85.58   0
       309    785.4982    535.3737 307.5835377  +6.4724862     1287.953     1878.042     1980.287     84.20475     167.4772     335.3549      1.570     3.46     998.6754     59.11762     192.0162        13     1.131     0.788  -4.17   0
       310    531.6158    529.7027 307.6892098  +6.4663530     1004.095     1499.985     1687.517     84.07183     167.4772      335.188      1.635     4.02     1003.166     59.11762     148.6203        12     1.020     0.925 -42.14   0
       311    765.1972    524.7554 307.5923294  +6.4761942     15993.09     24087.88     25485.64     83.40405     167.2768     335.0212      1.612     3.23     998.9485     59.11762     2182.362        44     1.438     1.171 -87.90   0
       312    226.1555    527.1757 307.8162014  +6.4571709     1360.745     2274.014     2432.154     83.53803     167.7441     335.2548      1.718     5.08     1010.521     59.11762     160.0976        17     1.222     1.090  79.49   0
       313    941.4581    526.0227 307.5190534  +6.4815432     1757.062     1977.476     2184.623     83.67181     167.7441     335.2214      1.282     2.72     994.6581     59.11762     305.9576        16     1.069     0.844 -85.89   0
       314    468.7998    523.1677 307.7155281  +6.4669514      35021.3     64289.69     69614.08     83.26985      167.544     335.1213      1.956     3.91     1005.449     59.11762     3943.684        81     1.655     1.602 -88.01   0
       315    691.1105    518.1094 307.6233344  +6.4764673     1117.019     2514.605      3121.33     84.07183     168.2766     335.4882      2.391     8.88     999.7624     59.11762     144.1144        23     2.008     1.156  70.68   0
       316    618.9767    521.4119 307.6531932  +6.4726955     803.7493     1377.977     1461.049     83.67181      167.544     335.2881      1.704     4.29     1001.557     59.11762      150.961         9     1.055     0.883  85.33   0
       317    181.3539    519.6130 307.8350699  +6.4587914     1638.999     2779.618         3273     83.40405      167.544     335.1547      1.798     4.46     1011.657     59.11762     198.9625        20     1.289     1.056 -51.26   0
       318     17.2633    519.9021 307.9032307  +6.4531634     1213.051     2218.686     1761.417      83.9387     167.8774     335.4215      1.871     5.08     1015.455     59.11762     164.8251        15     1.339     0.969 -82.78   0
       319    628.7252    518.1539 307.6492526  +6.4743664     2770.418     4366.823     4566.899      83.9387     167.8108     335.3882      1.731     3.67     1001.159     59.11762     343.0616        24     1.269     1.111  78.50   0
       320     67.5754    519.7618 307.8823337  +6.4549113     605.6281     657.7034     516.5987     83.67181      167.544      335.188      1.437     4.16     1014.085     59.11762     106.6354         5     1.156     0.427 -76.61   0
       321    638.9373    518.1464 307.6450100  +6.4747105     1300.607     2200.911      1889.82     84.07183     167.6774     335.3549      1.735     4.44     1000.874     59.11762     163.4935        17     1.291     0.930 -36.42   0
       322     47.9626    515.6322 307.8906216  +6.4559579     602.9429     948.8177     1193.347     83.67181     167.4772     335.1547      2.060     5.51      1014.54     59.11762     113.1559         8     1.358     0.630  33.39   0
       323    366.4146    514.0864 307.7583719  +6.4672753     1450.992     2368.366     2328.817     83.67181     167.4772     335.2548      1.792     4.80     1006.792     59.11762     184.2039        19     1.245     1.127 -61.31   0
       324    298.0400    512.0935 307.7868463  +6.4658082     3457.872     6206.751     6095.035     84.20475     167.6774     335.4882      1.891     3.95     1007.416     59.11762     420.7758        29     1.440     1.200  85.94   0
       325    113.2168    510.7425 307.8636776  +6.4601680     23159.23     39329.04        41571     83.53803     167.6774     335.1213      1.797     3.70     1012.716     59.11762     2804.452        56     1.596     1.313 -87.53   0
       326   1016.2618    511.3639 307.4884652  +6.4900856      1471.61      1895.82     1396.337     84.07183     167.7441     335.3549      1.287     3.38     991.5442     59.11762     266.3293        12     1.182     0.647  84.38  16
       327    478.1897    511.4833 307.7120209  +6.4720904      1688.88     2885.625     2613.481     83.67181     167.4772     335.2214      1.813     4.76     1004.661     59.11762     185.2458        22     1.349     1.149  80.78   0
       328    841.0778    510.8493 307.5612697  +6.4844661     1583.458     2174.841     2230.322     84.07183     167.8108     335.3549      1.513     3.80     997.0374     59.11762     208.1859        16     1.185     0.897 -85.23   0
       329     78.4838    508.9767 307.8781671  +6.4597311     2385.131     4037.527     4099.106      83.9387     167.4772     335.3215      1.796     3.96     1013.504     59.11762      364.314        24     1.374     1.085 -81.38   0
       330    938.6837    505.2046 307.5209050  +6.4900478     5466.018     7558.855     7740.882     83.53803     167.3436      335.088      1.420     2.86     994.0549     59.11762     797.3961        25     1.254     0.938 -89.90   0
       331    314.7173    505.7434 307.7801320  +6.4689891     699.2497     1534.261     2510.359     84.07183     167.7441     335.4882      2.135     5.16     1006.895     59.11762     107.9135         8     1.422     0.530  26.42   2
       332    512.0366    497.8913 307.6984167  +6.4788350     1393.061     2376.644     2201.137     84.20475     167.6774     335.4215      1.801     5.23     1002.644     59.11762     141.3716        18     1.236     1.079 -63.45   0
       333    410.1713    491.8819 307.7409419  +6.4779092     36594.57      63695.2     67379.18      83.9387      167.544     335.3215      1.848     3.88     1004.984     59.11762     4067.356        66     1.623     1.379 -84.39   0
       334    618.1800    491.5756 307.6545290  +6.4849897      11094.6      17886.3        18540     83.67181      167.544     335.3215      1.734     3.55     1000.477     59.11762     1265.606        43     1.500     1.209 -81.52   0
       335    175.3642    489.4943 307.8385771  +6.4710276     16790.85     29869.11     32254.93     84.20475     167.6107     335.4882      1.939     3.89     1010.212     59.11762     1924.804        55     1.681     1.375  74.11   0
       336    258.5751    491.3610 307.8039430  +6.4730470     732.2387     1285.871     1253.359     83.67181      167.544      335.188      1.715     6.07     1007.272     59.11762     106.3777         7     1.276     0.811  69.16   0
       337    952.2396    489.9630 307.5157842  +6.4967931     1224.182     1672.233     2163.222     83.80536     167.6774     335.2548      1.504     3.99      993.084     59.11762     171.7332        12     1.121     0.783 -81.94   0
       338    141.3376    490.0795 307.8526939  +6.4696443     1368.506     2206.415     2252.141     84.20475     167.8108     335.3882      1.756     3.66     1011.221     59.11762     202.4794        16     1.146     0.971  53.49   0
       339    791.6056    489.5516 307.5825407  +6.4916122     919.6631     1417.478     1580.628     83.40405      167.544     335.0546      1.575     5.26     997.3496     59.11762     133.6086        10     1.010     0.774 -78.37   0
       340    540.0470    488.3601 307.6871002  +6.4837071     2531.342     4324.167      4458.81      83.9387     167.7441      335.188      1.809     4.18     1001.158     59.11762     292.3706        27     1.384     1.202  82.54   0
       341    880.4981    489.1219 307.5456208  +6.4947518     708.9482     1087.687     1565.575     83.67181     168.0106     335.4215      1.366     3.74     995.3763     59.11762     106.6213         6     0.804     0.500  89.07   0
       342    913.8448    485.4330 307.5318893  +6.4973856     5121.991     7317.076     7913.341     83.67181     167.8108     335.2548      1.551     3.00     994.2402     59.11762     749.9474        26     1.249     0.995 -86.37   0
       343    586.9047    483.8701 307.6677830  +6.4871271     5757.546     9698.827      10118.6      83.9387     167.8108     335.4215      1.793     3.79     1000.553     59.11762      661.394        35     1.470     1.201 -86.75   0
       344     74.5371    484.5680 307.8806332  +6.4696778     1034.621     1756.152     1271.138     83.80536     167.8108     335.3549      1.789     5.47     1012.931     59.11762     129.9848        11     1.168     0.801 -70.56   0
       345    187.2859    483.8040 307.8338166  +6.4737772     407.8246     744.9556     758.9604     83.53803     167.3436      335.088      1.805     4.54     1009.552     59.11762     87.02295         5     0.800     0.732  59.27   0
       346    487.2537    483.0466 307.7092140  +6.4841364     555.9157     1063.399     1526.202     84.07183     167.7441     335.4215      1.607     3.84     1002.793     59.11762     80.83661         5     1.285     0.330  24.96   0
       347    936.4891    477.7234 307.5227394  +6.5013233     3591.546     4780.912     4963.617     84.07183     168.0106     335.4549      1.434     3.07      993.269     59.11762     555.5477        21     1.165     0.981 -88.01   0
       348    499.1145    475.1825 307.7045512  +6.4877805     6322.521     10485.76     10707.14     83.67181     167.4772     335.3215      1.755     3.82     1001.821     59.11762     731.7391        32     1.435     1.182 -81.72   0
       349    345.3294    475.4756 307.7684359  +6.4825133     2397.078     3957.165     3642.452     84.33746     167.8774     335.3882      1.807     4.25     1004.902     59.11762     285.4208        25     1.409     1.099 -63.56   0
       350    714.7902    474.8751 307.6149507  +6.4951111     575.5395      877.946     1205.624     83.67181     167.3436      335.188      1.588     3.77     997.8596     59.11762     85.27161         5     1.176     0.346 -79.03   0
       351    855.5191    471.0794 307.5566057  +6.5013704     3239.277     4556.521     5370.035     84.33746     168.0106     335.5549      1.523     3.02     995.4172     59.11762     468.3532        21     1.200     0.954 -88.51   0
       352    204.5426    470.6584 307.8270916  +6.4797843     621.4376     927.9327     1001.675     84.07183     167.7441     335.4215      1.614     4.11       1008.4     59.11762     95.13806         5     0.971     0.496  87.11   0
       353    863.1151    465.2202 307.5536464  +6.5040431     2187.156     3119.346     3653.086     83.67181     167.4104     335.3215      1.564     3.31      995.078     59.11762     323.9258        17     1.128     0.923 -81.29   0
       354    902.1848    464.6531 307.5374319  +6.5055786     1309.511     2025.174     1810.879     83.40405     167.7441      335.088      1.862     3.63     993.8506     59.11762     185.2152        14     1.015     0.966 -12.75   0
       355     82.2929    464.5565 307.8780885  +6.4782016     632.7843     989.2405     956.3292     84.07183     167.7441     335.5215      1.827     4.64     1012.073     59.11762     74.68018         7     0.910     0.671  72.15   0
       356    686.9850    461.3815 307.6269577  +6.4997554     2772.732     4416.542     4593.091     83.80536     167.4104     335.2881      1.685     3.79     997.8734     59.11762     320.0051        24     1.341     1.087 -50.20   0
       357    357.8922    459.5207 307.7637551  +6.4895224     3149.274     5464.499     6155.368     83.80536     168.0106     335.4549      1.903     3.94     1003.858     59.11762     365.8541        30     1.431     1.234  87.82   0
       358     48.9458    460.2015 307.8920904  +6.4788800     1714.133     3034.702     3166.416     83.40405     167.4772     334.9878      1.895     4.60     1012.998     59.11762      217.528        22     1.282     1.164  81.04   0
       359    397.9763    459.8492 307.7470898  +6.4907287     883.2756     1666.057     1682.748     83.67181     167.8108     335.2881      2.105     6.26      1003.37     59.11762     113.3006        11     1.382     0.797  25.73   0
       360    585.6812    456.1349 307.6692257  +6.4985394     8865.813     14809.68     15756.11     84.33746      167.944     335.3882      1.810     3.79     999.0958     59.11762     976.5427        40     1.506     1.259 -85.80   0
       361    748.5801    452.4061 307.6016669  +6.5055169      15170.9     24039.86     26495.08     83.67181     167.4772      335.188      1.794     3.76     996.8179     59.11762      1931.11        56     1.977     1.258 -56.36   0
       362    268.0665    453.0817 307.8012934  +6.4891721     2321.676     4100.395     4212.542     84.33746     168.0106     335.4549      1.837     5.01     1004.782     59.11762     270.7588        22     1.446     1.037 -60.61   0
       363    351.5148    449.6650 307.7667376  +6.4933787     1283.034     2176.981     2707.916     84.20475      167.944     335.4549      1.787     6.55     1003.278     59.11762     157.2463        20     1.561     1.011 -67.18   0
       364    777.4153    449.7845 307.5897739  +6.5075611     1241.456     1670.054     1484.777     83.80536     167.4104     335.3215      1.476     4.25     996.2691     59.11762     180.3225        12     1.016     0.879 -86.12   0
       365    699.6480    450.7834 307.6220529  +6.5045545     510.6111      983.954     1415.305     83.53804     167.7441     335.1547      2.149     4.52     997.4454     59.11762     86.90442         5     0.834     0.697 -28.53   0
       366    933.5828    447.6886 307.5249554  +6.5136295     2259.679     3144.552     2984.042     83.80536     167.4772     335.2548      1.477     3.23     991.9906     59.11762     326.6155        19     1.232     0.881 -87.82   0
       367    878.5997    449.3078 307.5477470  +6.5111300     515.4456     787.9694     972.5745     83.40405     167.2099     335.0212      1.250     3.46     994.0588     59.11762     101.0416         5     0.748     0.463 -74.19   0
       368     85.9775    444.6175 307.8772328  +6.4865588     3979.844     6697.855      7426.52     83.80536     167.6107     335.3215      1.801     3.90     1011.343     59.11762     453.1426        29     1.427     1.159 -77.76   0
       369    723.8721    443.4642 307.6122340  +6.5083852     2220.559     3520.094      3121.53     84.07183     167.7441     335.4215      1.721     3.73     996.9664     59.11762     276.9709        23     1.292     1.086  85.65   0
       370    987.5025    442.3625 307.5027298  +6.5176235     4469.693     6900.015     7528.006     84.07183     167.6107     335.5549      1.714     3.60     988.8046     59.11762     555.5494        28     1.368     1.107  40.24   0
       371    244.0171    441.5795 307.8116742  +6.4931157     1298.941     2206.495     2769.135     83.80536      167.544     335.2881      2.096     3.68      1005.45     59.11762     208.1318        15     1.170     0.863  -8.96   0
       372    321.8542    439.3160 307.7794107  +6.4966588      2572.06     4798.646     5109.897     84.07183     167.7441     335.5549      1.994     4.35     1002.742     59.11762     296.1105        27     1.496     1.129  85.55   0
       373    677.8178    436.9991 307.6315873  +6.5095182     1399.741     2376.083     2358.168     83.67181     167.2768     335.0546      1.855     4.26     997.3165     59.11762     171.4953        16     1.196     1.049 -57.46   0
       374    209.4106    435.1942 307.8262684  +6.4945921     720.5385     1276.105     1421.518     83.53804      167.544     335.2881      1.972     5.79     1006.785     59.11762     93.02631         9     1.348     0.701  28.51   0
       375    667.8860    429.6292 307.6359621  +6.5122301     525.6628      1032.76     884.1615     84.20475     167.4104     335.2214      1.976     4.92     997.2092     59.11762     77.08496         6     2.034     0.338 -47.99   0
       376    519.4180    430.0235 307.6976379  +6.5071075     855.7614     1419.855      1641.92     83.80536     167.6774     335.2881      1.865     6.29     998.1214     59.11762      103.337        12     1.214     0.916 -56.64   0
       377    803.6500    427.1415 307.5796345  +6.5177861     1415.203     2197.879     2324.019     84.07183     167.7441     335.4215      1.654     3.50      994.907     59.11762     203.6255        15     1.218     0.780  67.93   0
       378    789.6456    426.1646 307.5854863  +6.5177227     1946.783     2866.259     2799.341     83.80536     167.6774     335.2548      1.588     3.59     995.1786     59.11762     253.2064        18     1.156     0.998  81.23   0
       379    441.5750    427.4420 307.7300686  +6.5055701     1192.629     2123.277     2207.177     83.67181     167.6774     335.1547      1.886     5.03     1000.035     59.11762     141.9159        14     1.015     0.994 -66.38   0
       380    686.8262    424.3632 307.6282696  +6.5150368     13535.99     21848.73     23268.73     83.67181      167.544      335.188      1.727     3.53      996.866     59.11762     1612.323        45     1.477     1.263 -80.84   0
       381    580.3099    415.5684 307.6728243  +6.5151118     11168.87     25731.79     31404.46     84.20475      167.544     335.3882      2.518     6.43     996.9497     59.11762     1478.528        69     2.379     1.469  39.28   0
       382    607.8221    420.3524 307.6612316  +6.5140553     2267.194     3749.462     4114.479     83.67181     167.7441     335.2548      1.811     3.77     997.1458     59.11762     274.4698        25     1.270     1.190 -81.54   0
       383    912.0787    414.2574 307.5350133  +6.5267192     4071.707     5674.652     5526.531     84.07183     167.7441     335.3549      1.504     3.14     991.4619     59.11762     628.3629        25     1.318     0.996  83.15   0
       384    351.2668    410.2920 307.7681703  +6.5096291     24409.16     43191.99     45715.01      83.9387      167.944     335.4215      1.893     3.95     1000.824     59.11762     2788.607        61     1.653     1.374 -87.62   0
       385     97.5885    409.9807 307.8735814  +6.5012513     2106.632     3890.347     3968.363     83.67181     167.4772     335.2881      1.931     4.62     1009.987     59.11762     281.1793        23     1.490     1.034  89.98   0
       386    867.7618    409.9064 307.5535741  +6.5270399     1476.729     2187.011     2700.156     84.20475     167.6107     335.4549      1.627     4.38     993.1204     59.11762     206.8629        14     1.260     0.775 -74.77   0
       387    863.9303    406.5255 307.5552798  +6.5283084     909.1332     1438.981     1485.233     84.20475     167.8774     335.3882      1.616     5.19     993.1192     59.11762     116.3552        10     1.168     0.651  83.31   0
       388     30.9310    405.1701 307.9014392  +6.5009990     1433.234     2542.684     2229.396     83.80536     167.7441     335.3215      1.791     4.19     1011.603     59.11762     217.5908        16     1.324     0.957  88.12   0
       389    880.8876    404.7418 307.5482935  +6.5296099     5097.879     7497.781     7021.074     84.07183     167.7441     335.5215      1.566     3.18      992.319     59.11762     700.4569        29     1.343     1.090 -83.95   0
       390    208.7902    400.8358 307.8276881  +6.5087591     11812.33     21135.91     21808.75     83.53803     167.4772     335.1547      1.879     3.95     1005.203     59.11762     1434.983        48     1.632     1.318 -89.67   0
       391     44.7214    395.3174 307.8960433  +6.5055308     805.8319      1106.83     915.5374     84.20475     168.0106     335.5215      1.515     4.43     1011.019     59.11762     107.6182         7     0.979     0.569 -59.34   0
       392    703.4111    394.5005 307.6223834  +6.5279221     702.9741     915.4598     732.2991     83.80536     167.3436     335.1547      1.609     3.95     995.6075     59.11762     103.5112         5     1.032     0.434 -75.63   0
       393   1013.5251    391.4277 307.4936258  +6.5395230     10035.97     13603.61     13646.03     83.93871     167.6774     335.3549      1.457     2.84     985.3276     59.11762      1432.64        34     1.375     0.998 -86.32   0
       394    932.0076    393.1989 307.5274395  +6.5360789     1080.552     1554.588     1398.359     83.40405     167.4104      335.188      1.480     3.54     989.4813     59.11762     166.1089        11     1.025     0.790  64.98   0
       395    671.8197    393.9153 307.6355299  +6.5271094       760.73     1097.488     1104.297     83.67181     167.4104     335.3215      1.537     3.67     995.8729     59.11762     107.1562         8     0.830     0.748  76.86   0
       396    321.9814    390.3078 307.7810134  +6.5169005     1141.001     2127.422     2325.503      83.9387     167.4772     335.2548      2.020     4.19     1000.524     59.11762        152.4        13     1.137     0.809  80.93   0
       397    154.9253    390.6538 307.8504129  +6.5111566      730.605     1191.175     1133.012      83.9387     167.7441     335.3882      1.740     4.53      1007.73     59.11762     106.0659         8     0.987     0.800  -0.81   0
       398    109.1001    389.4290 307.8694943  +6.5101243     4433.798     7391.062     7178.513     84.07183     167.4772     335.4215      1.796     3.90     1008.992     59.11762     513.0823        29     1.437     1.155  76.71   0
       399    214.2239    388.1153 307.8258606  +6.5141941     1097.381     1823.823     1978.202      83.9387     167.4772     335.3549      1.696     5.10     1004.207     59.11762     145.2886        13     1.159     0.974  82.20   0
       400    794.8831    386.4507 307.5846454  +6.5342973     732.0644     1064.885     614.2885     84.07183     167.6774     335.4882      1.590     5.74     993.8062     59.11762     109.5255         9     1.280     0.726 -85.10   0
       401    131.2571    385.1436 307.8604333  +6.5126377     2230.933     3978.807     4115.189     84.20475     167.8108     335.4549      1.911     5.35     1008.256     59.11762     254.5873        25     1.556     1.074  87.28   0
       402    526.7200    384.4088 307.6961417  +6.5261880     755.1915     1114.318     264.8834     83.67181     167.3436     335.2214      1.626     6.04     995.8389     59.11762      96.6991        10     1.219     0.843 -27.35   0
       403    942.7737    379.6676 307.5234202  +6.5420251     1179.583     1876.883      2423.44     83.67181     167.6107     335.2881      1.779     6.05     988.3361     59.11762     232.7005        14     1.728     0.638 -62.75   0
       404    354.5072    379.9470 307.7678487  +6.5222683     1724.132      3112.82     2982.205      83.9387     167.6774     335.6215      1.939     5.07     999.2984     59.11762     193.5239        22     1.412     1.157  70.93   0
       405    243.0049    379.9824 307.8141772  +6.5185176      695.184     1068.844     802.2792     83.67181     167.3436     335.2214      1.434     3.96     1002.489     59.11762     96.86694         7     0.872     0.551 -44.01   0
       406    408.4238    373.6811 307.7456574  +6.5266609      6241.54     11239.97     12034.01     83.80536     167.4772     335.2881      1.935     4.05     997.9267     59.11762     693.6429        44     1.639     1.321  83.86   0
       407      4.6910    374.5509 307.9133789  +6.5127609     2767.427     4722.109     5270.424     84.07183      167.544     303.4203      1.861     4.23     1011.911     59.11762     335.5082        30     1.550     1.185 -79.47  16
       408    500.4244    374.7756 307.7073928  +6.5292868     3707.651     3591.225     3898.741     83.53804      167.544     335.2548      0.727     0.97     995.6343     59.11762     1519.721         5     0.496     0.457 -11.89   0
       409    749.0245    370.9276 307.6042231  +6.5391783     11870.86     18599.77     18671.51     83.67181     167.6107     335.3215      1.628     3.35     994.0351     59.11762     1581.301        42     1.495     1.173 -81.14   0
       410    741.0480    372.3647 307.6074892  +6.5383188     1728.402     2702.135     2910.718     83.80536     167.7441     335.3215      1.635     4.11     994.1953     59.11762      227.197        20     1.345     1.016 -82.37   0
       411    312.3112    369.2708 307.7857421  +6.5252636      967.431     1737.556     1245.695     84.20475     168.0106     335.4215      1.952     4.86     1000.183     59.11762      141.434        11     1.107     0.922 -84.85   0
       412    992.8485    366.0630 307.5030688  +6.5493096     3859.104     5442.505     5160.954      83.9387     167.6774     335.4549      1.423     3.09     985.9081     59.11762     595.9713        21     1.227     0.899  86.07   0
       413    157.7790    362.6952 307.8501733  +6.5227975     647.7446     1028.178     945.3469      83.9387      167.544      335.188      1.731     6.24     1006.996     59.11762     111.8564         9     1.540     0.710 -58.89   0
       414    923.6659    362.4510 307.5319383  +6.5484986     693.6949     1052.283     1314.009     83.93871     167.6774     335.3882      1.659     4.51     988.2179     59.11762     107.1079         7     0.900     0.642  68.85   0
       415    428.8643    358.0396 307.7376919  +6.5338040     1909.754     3468.591     3721.929     84.07183     167.6774     335.4549      1.986     5.19     996.4118     59.11762     230.3652        23     1.450     1.097 -51.79   0
       416    456.4494    357.2829 307.7262553  +6.5350395     2662.628      4570.79     4991.739     84.07183     167.7441     335.4215      1.871     4.03     995.6254     59.11762     312.2296        24     1.282     1.201  72.28   0
       417    885.4467    357.1043 307.5479995  +6.5494338     922.8179     1229.735     1082.486      83.9387     167.6774     335.5549      1.449     4.89     989.7362     59.11762     124.1566         9     1.196     0.783  57.49   0
       418    814.3510    353.8879 307.5776507  +6.5483931     31942.06     50258.21     52823.59     84.07183     167.6107     335.4882      1.704     3.40     992.3276     59.11762     4372.509        60     1.609     1.199 -84.75   0
       419    306.6743    350.2178 307.7887281  +6.5329425     764.2737     1189.264     1155.422     83.53804      167.544     335.2881      1.509     5.85     999.8474     59.11762     87.66351         9     1.305     0.739 -12.32   0
       420     32.7298    350.0333 307.9025598  +6.5238271     724.3318     1130.518      643.447      83.9387     167.7441     335.4215      1.504     4.21     1010.484     59.11762      129.044         7     1.023     0.638  76.89   0
       421    586.1578    346.2062 307.6727315  +6.5439501      2401.85      4069.06      4028.86     83.40405     167.4104      335.088      1.785     3.94     993.8642     59.11762     258.1776        25     1.308     1.176 -82.92   0
       422    670.8134    339.8800 307.6377673  +6.5493896     70758.78     116931.1     122982.6     83.67181     167.4772      335.188      1.757     3.58     993.4014     59.11762     8386.938        80     1.584     1.362 -83.96   0
       423    829.1398    341.2208 307.5719311  +6.5541169     1221.635     1840.028     2213.502     83.67181     167.6774     335.3215      1.579     4.36      991.232     59.11762     175.9624         9     0.954     0.687  80.05   0
       424     50.2193    339.5971 307.8956465  +6.5287241     1135.697     1807.992      1405.71     83.67181     167.2768     335.1213      1.785     4.34     1009.644     59.11762     157.2849        10     1.012     0.754 -44.70   0
       425    533.1584    336.7161 307.6950743  +6.5460977      2229.85     3813.822       4171.2     84.07183     167.6774     335.2881      1.838     3.87      993.562     59.11762     301.7376        24     1.325     1.142 -64.75   0
       426     70.5668    335.3437 307.8873361  +6.5311640     5515.295     9304.341     10059.19     83.93871     167.7441     335.3882      1.845     3.96     1008.919     59.11762     654.8531        39     1.636     1.220  85.10   0
       427    911.9133    337.1211 307.5376727  +6.5585674     870.0587     1276.111     1460.893      83.9387     168.0771     335.5215      1.458     2.03     987.7614     59.11762     184.1617         6     0.706     0.543 -52.34   0
       428    516.5565    332.7549 307.7021065  +6.5471784     6339.967     10633.37     10594.32     84.07183     167.7441     335.3215      1.812     3.84     993.4771     59.11762     676.0664        36     1.431     1.275 -88.93   0
       429    379.4941    327.9859 307.7592209  +6.5445619     21645.27     38641.68     41174.23     83.80536     167.4772     335.2214      1.932     4.06      996.401     59.11762     2420.203        63     1.676     1.399  88.21   0
       430    245.4254    330.4822 307.8148451  +6.5390392     2285.719      4132.59     4512.304     83.80536     167.4772     335.3882      1.959     4.74     1000.686     59.11762     260.3376        24     1.361     1.204 -79.59   0
       431    487.2152    326.7291 307.7145020  +6.5486856     1291.005     2022.564      1845.49     83.53803     167.6774     335.2881      1.743     4.99     993.5046     59.11762     164.7654        14     1.240     0.805 -61.87   0
       432    558.3869    327.4659 307.6849029  +6.5507608     615.3823     847.3163     121.3792     83.53804      167.544     335.2881      1.214     4.19     992.7249     59.11762     96.04614         6     1.056     0.474   9.49   0
       433    359.7430    326.1990 307.7674883  +6.5446384     1031.008     1874.678     2938.153     83.40405     167.4104     335.0546      2.079     5.55     997.0201     59.11762     157.9614        12     1.271     0.713 -47.38   0
       434    458.7565    323.4602 307.7264378  +6.5490835     1049.423     1588.197     1886.064      83.9387     167.7441     335.5215      1.855     5.51      993.866     59.11762     146.9406        14     1.334     0.810  86.61   0
       435    773.6993    320.7639 307.5956571  +6.5607163      750.888     1235.684      1200.68     84.07183     167.6107     335.5882      1.827     4.86     991.5737     59.11762      101.973         7     1.024     0.654  77.98   0
       436    468.5558    318.4141 307.7225361  +6.5514951     7380.019     12863.17     13718.28     83.40405      167.544     335.1213      1.859     3.92     993.4133     59.11762      783.829        39     1.531     1.264 -84.40   0
       437    737.6264    317.0676 307.6107715  +6.5610396     2998.029     4619.958     5458.362     83.67181     167.6107     335.2881      1.705     3.70     991.5521     59.11762     377.1349        21     1.262     1.005 -73.19   0
       438    893.2299    316.6475 307.5461244  +6.5663998     866.3015     1531.568     1497.274     83.67181     167.8108     335.2881      1.857     6.18     987.7839     59.11762     130.0422        12     1.190     0.901 -88.09   0
       439    685.2040    316.4362 307.6325767  +6.5595511     673.9217     1021.652     1363.743     83.13544     167.6107      335.188      1.636     2.45     991.8304     59.11762     116.1335         5     0.697     0.468  18.43   0
       440    294.9398    315.2130 307.7947869  +6.5470041     871.6776     1438.692     1018.579     83.40405     167.6774     335.0546      1.669     4.73      998.916     59.11762     129.0441        10     1.071     0.784 -44.30   0
       441   1021.9330    315.1967 307.4926896  +6.5712826     591.0076     785.5006     1044.388     83.40405     157.0705     280.4344      1.381     4.37     983.1047     59.11762     81.70221         6     0.818     0.663  -4.61  16
       442    231.2299    309.5230 307.8214523  +6.5472180     619.9887     1042.688     1004.325      83.9387     167.8108     335.4215      1.739     4.52     1000.732     59.11762     92.20947         6     0.946     0.612  68.72   0
       443    130.6155    308.9461 307.8632791  +6.5440806     914.1912     1628.536     2039.905     83.40405     167.7441      335.088      1.924     7.16     1007.152     59.11762      127.418        13     1.313     1.095  -4.30   0
       444    358.3860    302.6497 307.7688476  +6.5543174     6262.948     11427.65     12024.28     83.40405     167.6774      335.088      1.939     4.12     996.4115     59.11762     714.4146        44     1.687     1.322 -85.96   0
       445    214.2260    303.2205 307.8287309  +6.5492503     1754.789     3047.684     3076.077     83.67181      167.544     335.2881      1.843     4.66     1001.774     59.11762     238.6783        22     1.338     1.108  87.54   0
       446    712.0997    302.5784 307.6218667  +6.5661712     907.5117     1446.748     1531.555     84.07183     167.4772     335.1547      1.713     5.37      990.934     59.11762     123.6656        10     1.102     0.737 -88.15   0
       447    726.2854    298.4379 307.6161111  +6.5683543     50875.73     80239.14     84403.47     84.07183     167.7441     335.3882      1.726     3.49     990.6082     59.11762     6240.213        71     1.557     1.307 -84.74   0
       448    398.2142    297.9660 307.7524557  +6.5575851     2069.622     3547.064     4009.114     83.67181     167.4772     335.2548      1.806     3.82     994.3087     59.11762      276.502        22     1.275     1.062 -84.14   0
       449    961.1102    295.4271 307.5186287  +6.5774228     1945.046     2715.595     2373.602     84.20475     167.4772     335.2548      1.509     3.26     984.5876     59.11762     283.9161        13     1.013     0.835  78.71   0
       450    901.9965    294.8036 307.5432152  +6.5757122     2116.926     3095.876     2806.058     83.40405     167.2768      335.188      1.478     3.70     986.6646     59.11762     330.6157        16     1.295     0.756  82.95   0
       451    544.3452    295.0188 307.6918316  +6.5636903     1098.275     1839.064     1580.062     83.53803     167.7441      335.188      1.789     5.36     990.6482     59.11762     138.0849        13     1.226     0.928  66.35   0
       452    435.0872    293.9396 307.7372694  +6.5604819     1028.687     1985.052     2297.935     84.20475     167.8774     335.4882      2.541     6.17     992.8502     59.11762     151.4734        15     1.517     0.928 -74.59   0
       453    384.4642    293.5330 307.7583190  +6.5589553     1740.054     2841.108     3138.673     84.07183     167.7441     335.4549      1.865     3.94     994.8289     59.11762      199.973        16     1.106     0.975 -63.47   0
       454    805.5653    287.7977 307.5835237  +6.5753922     1060.004     1638.012     1145.006     83.13544      167.544     335.1547      1.607     4.20     989.8591     59.11762     167.8373        11     1.118     0.777  59.35   0
       455    161.1014    284.9474 307.8514238  +6.5550136     1893.537     3568.381     3876.222      83.9387     167.7441     335.5882      1.989     4.76     1005.873     59.11762     240.3549        25     1.433     1.243  69.26   0
       456    724.8455    283.0276 307.6172281  +6.5746700     5521.678     8807.593     9200.562     83.53803     167.8108     335.2881      1.700     3.69     989.9449     59.11762      647.921        31     1.422     1.129  80.12   0
       457    415.0558    284.4992 307.7459120  +6.5637098     1089.075     1624.668     2300.236     83.80536     167.7441     335.6548      1.791     5.70        992.9     59.11762     156.3666        11     0.977     0.937 -70.31   0
       458     57.0713    282.1208 307.8947465  +6.5526880      1073.91     1992.482     2348.611     84.33746     168.0106     335.3549      1.922     5.95     1008.394     59.11762     153.6834        12     1.325     0.752 -79.79   0
       459    741.1221    280.7820 307.6105397  +6.5761403     2468.759     3880.844     3914.204     83.53803     167.4104     335.3215      1.651     3.34     989.8578     59.11762     366.1959        24     1.318     1.052  89.35   0
       460     44.8855    276.3047 307.9000070  +6.5546803     1301.042      2275.05     2724.534     84.07183     168.1437     335.4882      1.935     5.83     1008.479     59.11762     175.7464        17     1.268     1.014  71.81   0
       461    330.4929    275.8450 307.7813437  +6.5644519     1602.694     3492.656     3525.224     84.07183     167.6774     335.5215      2.212     5.97     996.4199     59.11762     180.7442        26     1.590     1.259  -6.97   0
       462    979.3172    271.7455 307.5118575  +6.5878081     6364.303     8952.541     8942.148     84.07183     167.7441     335.4882      1.465     2.86     983.3538     59.11762     1065.477        26     1.299     0.929  82.74   0
       463    457.5927    271.7361 307.7286667  +6.5704036     1809.151     3166.996     3153.714     83.53804     167.4104     335.2214      1.890     4.49     991.3515     59.11762     200.6733        22     1.320     1.125 -75.23   0
       464    220.0845    267.4376 307.8275068  +6.5642228     4993.136     8873.914     9351.327     84.07183     167.7441     335.3549      1.900     4.15     1000.889     59.11762     554.9894        37     1.594     1.249  81.34   0
       465    784.0375    265.2273 307.5932289  +6.5839949     577.6277     895.3629      1565.74     83.67181      167.544     335.2214      1.852     3.79     989.1257     59.11762     87.22882         5     0.829     0.498  60.48   0
       466    739.5365    261.0852 307.6118615  +6.5842212     742.3533     1032.627     1078.694     84.20475     167.8774     335.3882      1.694     3.77     989.2444     59.11762     94.40088         6     0.821     0.499 -89.04   0
       467    196.5825    260.9584 307.8374920  +6.5661100     709.3486     921.0349     854.7441     83.53803      167.544     335.1547      1.517     6.00     1002.335     59.11762     109.2754         9     1.242     0.816   7.09   0
       468    354.3996    258.3257 307.7720012  +6.5724871     1524.171     2720.625      2551.92     83.26986     167.0761      335.188      1.865     5.12     994.5889     59.11762      214.355        21     1.437     1.100 -80.96   0
       469    940.8353    256.9060 307.5283478  +6.5926553     1049.662     1533.271     1727.911     84.20475     167.6107     335.4882      1.689     3.84     984.0703     59.11762     161.7308        13     1.095     0.826  83.93   0
       470    123.9964    254.0256 307.8678887  +6.5665368     1488.802     2582.442      2073.66     83.53803     167.4104     335.2214      1.764     4.62     1006.096     59.11762     191.2996        20     1.439     1.064  86.41   0
       471    276.8107    254.0401 307.8043878  +6.5716570     1028.864     1737.465     1638.753     83.40405      167.544     335.1213      1.741     5.85     998.2722     59.11762     121.4823        15     1.207     0.986 -51.74   0
       472    533.4634    249.6974 307.6978816  +6.5820418     1990.138     3337.975     2991.303     83.93871     167.8774     335.4215      1.784     4.83     988.6094     59.11762     205.5255        19     1.300     1.039 -61.99   0
       473    877.2823    248.6618 307.5550359  +6.5939434     1687.584     2445.376     2874.331     84.20475     167.7441     335.3549      1.627     2.99     985.6552     59.11762     244.4105        15     1.034     0.875  84.20   0
       474    697.1585    247.1877 307.6299401  +6.5885461     4631.991     7421.953     7680.502     83.40405      167.544     335.1213      1.678     3.48     988.8676     59.11762     606.8612        29     1.339     1.156 -83.61   0
       475    638.0681    247.0975 307.6544993  +6.5866106     1967.381     3448.885      3442.43     84.07183     167.8774     335.3549      1.844     4.18     988.8427     59.11762     228.0576        23     1.298     1.125 -76.53   0
       476    934.8854    246.6142 307.5311662  +6.5967073     688.3406     936.5168     737.9203     83.67181     167.4772     335.2548      1.338     3.33     983.8492     59.11762     118.5066         5     0.746     0.441  20.04   0
       477    352.8419    241.6786 307.7732108  +6.5793091     700.3091     1323.762     1413.884      83.9387     167.7441     335.3882      1.977     4.92     993.7795     59.11762     112.6194         7     1.097     0.624 -42.46   0
       478    893.0297    239.2916 307.5488065  +6.5983373     1191.938     1626.963     2012.688     84.20475     167.4772     335.3215      1.511     3.72     984.7776     59.11762     161.6406        11     0.946     0.829  71.32   0
       479    196.5662    232.5169 307.8384610  +6.5778539     2020.684     3411.614      3359.61     84.07183     167.7441     335.3549      1.863     5.11      1001.61     59.11762     217.8223        24     1.571     1.019 -77.02   0
       480    839.2944    231.4607 307.5714011  +6.5997808     1796.582     2638.885     3317.852     83.93871     167.7441     335.4215      1.727     3.55     986.2299     59.11762     241.3281        17     1.195     0.896 -88.99   0
       481    729.8505    231.0643 307.6168970  +6.5962951     1534.872     2497.738     2313.203     84.07183     167.6774     335.4215      1.756     4.43     988.3628     59.11762     208.3506        18     1.309     0.994 -77.84   0
       482    756.7075    221.4831 307.6060582  +6.6011476     12168.08     19746.67     21920.73     83.80536     168.0771     335.5215      1.769     3.56     987.7758     59.11762     1545.521        54     1.581     1.406 -56.86   0
       483    430.6691    222.3619 307.7415213  +6.5898914     19237.76     34451.21     36511.34      83.9387     167.7441     335.4882      1.912     4.06     990.6807     59.11762      2036.24        58     1.606     1.443 -87.73   2
       484    436.4743    216.7028 307.7392999  +6.5924225     1116.043     1836.885     2009.138     83.80536      167.944     335.4215      1.808     5.11     990.0675     59.11762     135.0521        10     1.015     0.894  79.81   2
       485    291.2448    223.2690 307.7994299  +6.5848473     561.9784     911.8392     725.7737     84.07183     167.6774     335.3882      1.764     4.54     997.4788     59.11762     102.7527         5     0.845     0.692 -79.17   0
       486    118.9775    215.8091 307.8712682  +6.5821492     2040.631     3721.677     4005.231     83.67181     167.4772     335.2214      1.984     4.98     1005.042     59.11762     257.5676        27     1.516     1.326 -71.95   0
       487    695.1715    216.9509 307.6317839  +6.6009659     689.9997     1238.731     1115.432     83.67181     167.8108     335.2881      1.788     4.37     988.0641     59.11762     112.5266         5     0.781     0.695  72.83   0
       488    749.2177    213.8816 307.6094266  +6.6040367     662.5643     1089.717     1421.309     83.67181     167.4104     335.3215      1.705     5.32     987.7189     59.11762     95.27411         9     1.561     0.512 -45.08   0
       489     93.8082    214.1348 307.8817839  +6.5819953     727.5894     1574.962     1852.109     83.53803     167.4772     335.2548      2.178     6.43     1006.243     59.11762     114.5355         9     1.248     0.929 -50.20   0
       490    892.9935    212.0072 307.5497383  +6.6096032     1541.026     2188.777     2208.969     83.40405      167.544     335.2214      1.442     3.96     983.6702     59.11762     202.5869        13     1.051     0.866  72.74   0
       491    145.8574    213.1681 307.8601877  +6.5841420     734.6688     979.2611     719.7364      83.9387     167.7441     335.3215      1.413     3.90      1003.49     59.11762     107.0181         6     0.796     0.548 -29.38   0
       492    554.7197    207.9592 307.6904555  +6.5999878     4046.758      7046.33     7470.409     84.07183     167.7441     335.3215      1.889     4.07     987.1693     59.11762     472.5724        31     1.415     1.235 -71.52   0
       493    517.4839    208.1278 307.7059240  +6.5986734      1748.74     3078.879     3189.572     84.20475     168.0771     335.4215      1.874     4.60     987.0223     59.11762     217.1595        22     1.382     1.097  77.42   0
       494    275.2228    208.9516 307.8065720  +6.5902225     947.3472     1706.808     1837.997     83.67181     167.7441     335.2881      1.990     4.78     998.5215     59.11762     141.2652        12     1.094     0.931 -54.74   0
       495    861.7588    204.6841 307.5629653  +6.6115868     11254.99     16751.51     18005.78     84.07183     167.6107     335.3215      1.612     3.12     984.4756     59.11762     1460.178        42     1.477     1.150 -85.54   0
       496    359.2271    207.1571 307.7717235  +6.5937782     1199.435     2219.159     1913.305     83.67181     167.7441     335.2881      1.922     5.68     992.6664     59.11762     138.6556        15     1.308     0.878  66.73   0
       497    915.4992    205.1174 307.5406166  +6.6131979       2785.3     4039.541     4416.993     84.07183     168.2766     335.4882      1.560     3.11      982.569     59.11762      383.425        20     1.198     0.931  87.88   0
       498    289.5333    205.3212 307.8007478  +6.5922013     776.6944     1215.419     1589.225     84.20475     167.8774     335.3549      1.864     5.75      998.057     59.11762     100.8642         9     1.176     0.793 -89.67   0
       499    536.9625    204.1772 307.6979624  +6.6009560     753.8256     1421.008     1604.486     83.67181     167.4772     335.1547      2.114     5.16     986.9453     59.11762     103.4888         8     1.229     0.612 -68.22   0
       500    181.1750    204.8007 307.8457946  +6.5887824     573.3792      1034.78      858.045     83.67181     167.4104     335.1547      1.907     3.97     1001.835     59.11762       77.979         6     0.786     0.573 -39.53   0
       501    948.3129    202.4173 307.5270702  +6.6154054     10546.49     14816.68     15521.93     83.80536     167.4772     335.2548      1.519     2.90     981.7169     59.11762     1529.679        34     1.315     1.086  80.72   0
       502    659.6531    202.6431 307.6470264  +6.6056886     2649.976     4241.126     5057.889     84.07183     167.7441     335.3882      1.821     3.81     987.9321     59.11762      323.897        24     1.351     1.087 -80.73   0
       503    234.2372    202.0155 307.8238384  +6.5917125     890.4583     1726.456     2054.643     83.67181      167.544     335.1213      2.160     5.53     1000.039     59.11762     163.7033        11     1.199     0.919 -40.20   0
       504    468.3344    197.3852 307.7267117  +6.6014656     1770.739     3204.352     3327.072     83.53804     167.6107     335.3215      1.892     4.53      987.403     59.11762     199.9965        20     1.298     1.055 -81.85   0
       505    800.2907    193.9362 307.5888722  +6.6139764     1913.463     3006.589     3459.651     84.07183      167.944     335.4882      1.835     4.26     986.0493     59.11762     235.8246        19     1.291     1.018 -80.41   0
       506    480.3636    193.2720 307.7218515  +6.6035665     2138.444     3735.019     3756.058      83.9387     167.7441     335.4215      1.822     4.19     986.7285     59.11762     266.7511        24     1.301     1.231 -31.84   0
       507    852.4667    193.0471 307.5672181  +6.6160826     2004.849     3049.684     3200.337     84.07183     167.6774     335.4215      1.519     3.11     984.3458     59.11762     321.3582        19     1.187     0.927 -69.03   0
       508    711.8868    190.6207 307.6257236  +6.6123968     37083.04     59893.68     62832.82     84.07183     167.4772     335.2548      1.741     3.53     987.5687     59.11762     4318.814        58     1.557     1.270 -87.49   0
       509    314.9381    190.0329 307.7907072  +6.5993657     5240.681     11282.94     12719.77     83.80536     167.8108     335.3215      2.280     6.08     996.2568     59.11762     522.8147        52     2.198     1.282 -78.84   0
       510    945.5648    189.3172 307.5286522  +6.6207237      3102.29     4346.834     4420.599     84.07183     167.7441     335.3215      1.529     3.23     981.0814     59.11762     436.7084        18     1.220     0.876 -71.89   0
       511    879.7706    187.7232 307.5560497  +6.6191908     7731.703     11452.54     12054.02      83.9387     167.8108     335.4215      1.566     3.18     983.1416     59.11762     990.4356        33     1.363     1.096 -88.40   0
       512    983.9563    187.7818 307.5127483  +6.6226355     1701.258     2265.108     2148.941     83.53803     167.6107     335.1213      1.427     3.29     980.6779     59.11762     251.5181        12     1.075     0.710  76.77   0
       513    423.2921    186.8289 307.7457865  +6.6043175     4308.351     7646.523     8208.559     84.20475     167.4772     335.2881      1.898     4.07     988.9425     59.11762     481.2894        33     1.445     1.273 -84.39   0
       514   1017.1767    187.3078 307.4989577  +6.6239365     516.3593     680.2219     79.75623     84.07183      167.544     332.8779      1.403     3.57     980.3248     59.11762     109.5115         5     0.976     0.377 -86.14  16
       515    197.8615    184.3494 307.8395524  +6.5977873     705.8986     1106.053      1525.49     84.07183     167.6774     335.4215      1.830     5.00     1001.132     59.11762      94.8797         5     0.986     0.718 -73.59   0
       516     80.7008    178.1266 307.8884503  +6.5964239      4231.45     7287.445     7100.968     83.67181     167.8774     335.3549      1.817     3.82     1005.266     59.11762     569.8109        33     1.495     1.213  89.69   0
       517    899.8416    177.5174 307.5480512  +6.6240739     1036.404      1316.71     1886.076     84.07183     167.7441     335.3215      1.401     3.07     981.8934     59.11762     153.9052        10     0.921     0.733 -82.85   0
       518    866.4537    177.1331 307.5619401  +6.6231204     411.6098     528.6343     482.2747     84.07183     167.6774     335.2881      1.519     4.44     983.2839     59.11762     86.24713         5     1.452     0.387  77.06   0
       519    251.0157    174.8436 307.8177848  +6.6034953     28525.24     51584.24     54479.19     83.53803      167.544     335.1547      1.905     3.97     999.8885     59.11762     3312.083        64     1.647     1.423 -87.72   0
       520    226.2524    175.9698 307.8280376  +6.6021998     5533.643     9802.188     10367.18     83.80536     167.8774     335.3215      1.854     4.16     1000.472     59.11762     660.4332        35     1.534     1.246 -84.18   0
       521    577.2136    176.3045 307.6821746  +6.6138112     744.4507     1059.464     1524.721     83.80536     167.4772      335.188      1.577     4.62     986.9012     59.11762     134.2443         6     0.893     0.679 -65.66   0
       522    375.0963    170.3205 307.7663730  +6.6095209     42356.54     75637.45     79703.59     83.80536     168.0106     335.4549      1.901     3.87     991.2068     59.11762     4808.605        75     1.679     1.433 -87.54   0
       523    131.0576    171.6319 307.8677440  +6.6007968     3366.414      5853.04     5582.472      83.9387     167.7441     335.3215      1.788     3.99     1002.833     59.11762     393.8606        30     1.501     1.165 -80.82   0
       524    392.6371    170.5764 307.7590748  +6.6100025     1114.012     1832.302     1570.501     83.67181     167.4772     335.1547      1.746     4.81     989.8794     59.11762     162.6699        12     1.310     0.841 -81.60   0
       525    279.1201    168.0273 307.8063360  +6.6072522      15345.2     27720.56     29899.65      83.9387     167.6107     335.4215      1.918     4.00     999.4031     59.11762     1791.252        54     1.619     1.403 -85.78   0
       526    714.2944    166.4682 307.6255361  +6.6224508     30936.12     49048.16     51174.54     83.93871      167.944     335.4215      1.723     3.50     987.0947     59.11762     3795.466        60     1.560     1.263  89.58   0
       527    662.3315    168.6804 307.6470572  +6.6198027     963.9748     1355.456     1363.459     84.20475     168.0106     335.3549      1.574     4.46      987.559     59.11762     114.3683        10     0.964     0.750  46.33   0
       528    286.5584    167.8221 307.8032517  +6.6075863     1754.178     3224.198     4125.266     83.67181      167.544     335.1547      2.173     6.43     999.2339     59.11762     203.2733        22     1.752     1.005 -75.64   0
       529    762.5216    166.6280 307.6054876  +6.6239937     1170.494     1699.182     2060.368     83.93871     167.6774     335.3882      1.612     3.95     986.0837     59.11762     148.0994        13     1.181     0.902  40.93   0
       530     31.1527    163.7176 307.9095286  +6.6007091     8241.852     14013.46      14858.6     84.07183     167.7441     335.4215      1.831     3.65     1008.213     59.11762     1095.416        43     1.601     1.258  89.36   0
       531    972.6424    160.9479 307.5183513  +6.6333401      1097.44     1423.857     1707.269     84.07183     167.8108     335.4215      1.380     3.59     979.4589     59.11762     166.1051        12     1.122     0.744  85.97   0
       532     65.0529    161.6095 307.8955125  +6.6027187     1234.746     2106.133     1956.205     83.40405     167.6107      335.088      1.788     4.64     1005.767     59.11762     155.0745        16     1.173     0.975 -20.60   0
       533    940.3506    159.5844 307.5318179  +6.6328282     656.4575     854.6082      377.394     83.40405     167.8108      335.088      1.364     3.96     979.6844     59.11762     107.8021         6     0.940     0.477  88.93   0
       534    548.0433    151.7339 307.6951258  +6.6229825     779.1741     1249.702     1416.302     84.07183     167.6774     335.4215      1.747     6.20      986.085     59.11762     113.0347        10     1.185     0.913 -38.24   0
       535    973.6584    146.9348 307.5183996  +6.6391606     2501.332     3609.679     3985.376     84.20475     167.6774     335.4215      1.623     3.34     978.9089     59.11762     322.4359        18     1.209     0.926 -89.98   0
       536    564.8617    142.9437 307.6884326  +6.6271745     1725.303     3005.693     3546.096     84.20475     167.7441     335.4215      1.821     4.34     986.2763     59.11762     198.4509        22     1.327     1.101 -80.51   0
       537    249.9196    141.1388 307.8193802  +6.6173764     26157.68     46507.39     49218.22     84.20475     167.7441     335.3882      1.900     3.91     1000.338     59.11762     2955.159        59     1.637     1.389 -84.50   0
       538    309.1842    143.2269 307.7946803  +6.6185008     773.1005     1309.836     1350.787     83.67181      167.544     335.2881      1.665     4.50     997.5367     59.11762     103.6371         7     0.922     0.624 -30.16   0
       539    681.5701    137.7419 307.6401036  +6.6332209     7496.338     11811.46     12279.35     83.80536     167.8108     335.2881      1.713     3.64      986.329     59.11762     886.0266        34     1.447     1.161 -88.47   0
       540    159.4568    138.2777 307.8570714  +6.6155230     784.3834     1139.919     1366.833     84.07183     167.7441     335.3549      1.449     3.39     1001.517     59.11762     135.0049         6     0.908     0.650 -59.68   0
       541     92.4396    134.8375 307.8850385  +6.6146935     4390.286     7581.844     8226.429     83.80536     167.6774     335.2548      1.858     3.88     1003.414     59.11762     586.6895        33     1.499     1.193 -76.23   0
       542    235.7905    136.2658 307.8254168  +6.6189148     620.0785     1027.298     456.2496     83.53803     167.6107     335.2881      1.491     3.25     1000.651     59.11762     117.0945         5     0.828     0.471 -46.83   0
       543    554.7895    132.6463 307.6929657  +6.6310900     720.6384     977.3911     959.2471     83.53804      167.544     335.0546      1.543     4.11     986.0967     59.11762     102.2493         9     0.889     0.779 -26.81   0
       544    431.3470    132.2599 307.7442812  +6.6271207     1259.942     1904.143     1670.367     84.07183     167.6774     335.3882      1.660     4.54     986.7225     59.11762     136.0386        15     1.136     0.964  12.84   0
       545    363.0194    130.9040 307.7727235  +6.6253929     3297.937      6114.01     6693.672      83.9387      167.544      335.188      1.943     4.39     992.1332     59.11762      347.836        34     1.602     1.232  87.72   0
       546    620.0175    131.3388 307.6659009  +6.6338096     766.6389     1502.162     1422.143     83.67181     167.6774      335.188      1.962     3.77      986.518     59.11762     126.3257         5     0.830     0.492  48.58   0
       547    327.4696    129.6372 307.7875404  +6.6247251     2867.919     5046.334     5619.198     83.93871     167.7441     335.4882      1.943     4.24     995.8014     59.11762     307.5049        28     1.367     1.273  74.21   0
       548     81.7224    129.5703 307.8896707  +6.6165085     1697.288      2987.55     2691.392      83.9387     167.8108     335.3882      1.796     5.32     1004.106     59.11762     211.3965        21     1.529     0.985 -79.62   0
       549    540.0177    129.5791 307.6992083  +6.6318628     612.6751     1123.397     1396.952     83.80536     167.6107     335.2881      2.010     4.91     985.9885     59.11762     79.12854         7     1.163     0.588  59.30   0
       550    974.2106    123.9411 307.5189422  +6.6486742     1623.389     2223.535     2248.421     83.40405     167.6107      335.088      1.381     2.96     978.0181     59.11762     291.0421        12     1.001     0.784  59.54   0
       551    179.3923    118.6797 307.8494500  +6.6242847     4915.424     8463.186     8993.556     83.67181     167.2768     335.2214      1.829     3.68      1001.28     59.11762     646.4684        36     1.509     1.246 -84.91   0
       552    641.0682    117.4150 307.6576212  +6.6402624      5453.18     9429.863     10139.44     83.53803     167.6107     335.2881      1.841     3.83     985.8893     59.11762     660.1608        35     1.505     1.208 -86.52   0
       553     62.0234    118.5529 307.8982303  +6.6203961      2016.31     3634.251     3990.416     83.67181     167.7441     335.2548      1.969     4.51     1005.518     59.11762     236.4209        27     1.376     1.286 -51.91   0
       554    789.1202    117.1282 307.5960983  +6.6453216     1038.245     1814.916     1503.873     84.33746     168.0106     335.3882      1.856     5.21     983.4654     59.11762     154.8754        14     1.204     1.060  81.86   0
       555    593.3482    114.6255 307.6775481  +6.6398202     8470.228     14465.49     15937.17     83.67181     167.7441     335.2881      1.877     3.84     986.1973     59.11762     980.4324        46     1.621     1.294 -86.30   3
       556    596.8335    106.2461 307.6763820  +6.6433969     48039.43      80570.8     84761.55     83.80536     167.7441     335.3215      1.781     3.63      986.066     59.11762     5444.547        69     1.583     1.365 -89.06   2
       557    228.2976    114.5924 307.8292639  +6.6276131     733.7743     1141.656     475.5183     83.80536     167.3436     335.1547      1.716     5.65     1001.023     59.11762     121.1271         9     1.238     0.855  53.89   0
       558    320.4880    110.5995 307.7910853  +6.6323525     3199.811     6072.723     6697.261     83.26986     167.2099     335.0546      2.012     5.06     996.7037     59.11762     367.5773        41     1.792     1.389 -61.30   0
       559   1016.2449    111.2006 307.5018994  +6.6553340     1046.644     1343.126     1685.962     83.40405     167.4104     334.9544      1.239     2.39      976.737     59.11762     179.9193         8     0.760     0.658 -58.16   0
       560    502.0131    109.6795 307.7156745  +6.6388093     1667.411      2795.11     2885.475     83.67181     167.4772      335.188      1.780     4.01     985.9701     59.11762     211.8731        21     1.296     1.066  82.21   0
       561    966.4104    109.1709 307.5226801  +6.6545139     834.3834      1176.43     991.7702     83.53803      167.544     335.2214      1.434     4.03     977.5888     59.11762      137.054         7     0.970     0.478 -81.99   0
       562    275.9472     99.8700 307.8099590  +6.6352903     3001.253     5273.281     5854.661      83.9387     167.6107     335.3215      1.832     4.11     1000.312     59.11762     377.2385        29     1.408     1.269 -78.26   0
       563    675.8553     94.2624 307.6439430  +6.6509847      895.676     1324.811       1201.9     84.20475     167.7441     335.3882      1.612     4.42     984.3495     59.11762     132.3706        10     1.185     0.717 -62.44   0
       564    647.2576     93.2508 307.6558629  +6.6504476     1340.552     2173.953      2493.48     84.07183     167.7441     335.3882      1.873     4.50     984.9403     59.11762     186.9477        19     1.350     0.978  82.14   0
       565    661.2366     90.2996 307.6501523  +6.6521330     3028.167      4595.27     4740.899     84.07183     167.6107     335.5882      1.668     4.03     984.5009     59.11762     338.5859        24     1.365     1.054 -76.69   0
       566     33.0932     88.0323 307.9112874  +6.6320267     574.7115     579.3953     240.6064     84.20475     167.6107     335.4549      1.280     3.76     1007.041     59.11762     89.19867         6     0.784     0.673 -85.00   0
       567    402.9185     81.2443 307.7578188  +6.6472353     3654.453     6523.425     7033.418     84.07183     167.7441     335.3549      1.906     4.02     988.5613     59.11762     415.4164        32     1.419     1.299  86.38   0
       568     40.2253     82.9751 307.9084949  +6.6343546     574.0825     956.9837     548.7753     83.53803      167.544     335.2548      1.669     4.71      1006.21     59.11762     78.57623         5     0.941     0.668  60.13   0
       569    875.4983     76.4238 307.5615662  +6.6650094     4006.433     5550.011     5724.486     84.20475     167.4772     335.2214      1.543     3.14     977.8992     59.11762     532.7767        23     1.231     1.001  89.21   0
       570    857.3978     77.3799 307.5690572  +6.6640114     2251.748     3411.939     3657.262     83.67181     167.3436     335.1213      1.610     3.12     978.3923     59.11762     368.1157        17     1.095     0.927  80.33   0
       571    567.5652     75.2559 307.6895911  +6.6552159     1598.305     2698.163     2823.902      83.9387     167.7441     335.4215      1.890     5.00     985.3914     59.11762     183.2216        18     1.314     1.016 -68.14   0
       572    366.3103     72.9855 307.7733125  +6.6494197      1694.46     3212.612      3727.85     83.80536      167.544     335.2214      2.010     5.50     992.1875     59.11762     188.6406        23     1.422     1.176  74.92   0
       573    213.7230     74.5017 307.8366774  +6.6436789     711.8941     1071.323     849.8693     83.67181     168.0106     335.3882      1.495     4.76     1001.369     59.11762     108.9129         8     1.200     0.535 -37.42   0
       574    114.3335     69.9374 307.8781379  +6.6422278     2865.306     4746.791      4774.55     84.07183     167.7441     335.3882      1.762     3.92     1001.574     59.11762     358.3018        27     1.399     1.161 -69.99   0
       575    262.2770     68.3000 307.8167080  +6.6478682     1080.735     2135.879     2884.584     83.53804     167.8774     335.4215      2.220     7.76     1001.106     59.11762     131.2052        20     1.649     1.022 -63.58   0
       576    742.9215     62.7490 307.6171296  +6.6662363     3346.433     5107.073     5750.781     84.07183     167.8108     335.3882      1.705     3.40     981.4517     59.11762     442.1542        25     1.292     1.071  71.53   0
       577    864.6302     63.6146 307.5665140  +6.6699368     738.0424     1079.803     1313.801     83.67181     167.4772     335.3215      1.592     3.43     977.7128     59.11762     115.2194         5     0.990     0.344 -68.60   0
       578    797.7953     62.3403 307.5943359  +6.6682353      6132.84     9320.991        10370     83.40405     167.6107     335.1547      1.640     3.42     979.8228     59.11762     760.3239        30     1.358     1.078  78.94   0
       579    388.4536     62.6161 307.7644597  +6.6544432     988.4625     1872.895     2070.349     83.40405     167.7441     335.1213      1.973     5.26     990.5129     59.11762     145.8448        13     1.252     0.984 -87.23   0
       580    888.7998     61.8234 307.5565283  +6.6714817     590.0558     1056.907     1348.666     83.67181     167.4104      335.188      2.070     4.68     977.3798     59.11762     83.83337         6     1.137     0.546 -67.86   0
       581    505.1712     60.6199 307.7160171  +6.6591736     851.3524     1331.103     1711.434     83.67181      167.544     335.3215      1.558     5.54     985.8041     59.11762     140.1841        10     1.337     0.647  84.78   0
       582     36.5087     59.7297 307.9108273  +6.6438283     2895.968     4924.192     4991.078      83.9387     167.8774     335.3882      1.820     3.85     1004.984     59.11762     387.3338        26     1.460     1.068 -80.05   0
       583     20.9476     60.5592 307.9172663  +6.6429628     939.0946     1304.251     1273.789     84.07183     167.8108     335.4215      1.565     4.71     1005.987     59.11762     120.2792        10     1.096     0.750 -56.96   0
       584    397.7514     59.0250 307.7607167  +6.6562374     826.1522     1357.403     1354.286     83.67181     167.7441     335.2881      1.575     5.37     989.8508     59.11762     126.3889         8     1.150     0.709 -49.66   0
       585    560.0916     56.2563 307.6933380  +6.6628118     1137.611     1851.422     1165.823      83.9387     167.6107     335.5215      1.765     4.87     984.9684     59.11762      150.185        14     1.187     0.915 -88.47   0
       586    737.5477     50.2553 307.6197837  +6.6712162     1906.534     2882.788     2915.308     84.07183     167.7441     335.3549      1.654     3.21     980.8064     59.11762     278.1587        18     1.081     1.020  58.22   0
       587    378.2979     49.9991 307.7691068  +6.6593131     974.6204     1746.567     1972.082     83.53803     167.3436     335.0212      1.852     5.43     991.5887     59.11762     143.8912        11     1.162     0.838 -82.52   0
       588     75.4314     49.1728 307.8950090  +6.6494954     833.6813     1362.364     1644.241     83.53803     167.4772      335.188      1.794     5.93     1002.338     59.11762     120.1695         9     1.128     0.878  31.25   0
       589     64.2489     44.0167 307.8998311  +6.6512488     8515.524     14363.28     15301.51     83.53803     167.8108     335.1547      1.811     3.61     1002.673     59.11762     1080.082        44     1.708     1.206 -85.54   0
       590    393.2234     43.6829 307.7631168  +6.6624211     2254.143     3920.526     4315.659      83.9387     167.4772     335.3215      1.896     4.53     990.7307     59.11762     275.9659        25     1.389     1.185  58.14   0
       591    199.4470     42.2938 307.8437004  +6.6564996     1952.336     2003.564     1629.739     83.93871     167.6774     335.5215      0.846     2.54     1001.329     59.11762     655.4873         6     0.779     0.359  52.09   0
       592    606.9656     35.9522 307.6745402  +6.6727626     16969.85     27790.33     29185.29     83.80536     167.7441     335.3215      1.727     3.52     984.2559     59.11762     2123.607        49     1.539     1.254 -89.32   0
       593    231.3888     38.1763 307.8305644  +6.6592713     1334.139     2381.072      2652.18     83.67181      167.544     335.2881      1.851     4.76     1001.674     59.11762     185.8973        16     1.210     1.070  -6.52   0
       594    506.7461     32.1060 307.7163245  +6.6710007       4722.8     7868.705     7932.016      83.9387     167.6774     335.6215      1.779     3.89     985.6216     59.11762     560.4784        33     1.443     1.234 -88.18   0
       595    224.8650     32.4457 307.8334696  +6.6614189     1483.369     2841.059     4201.435     84.07183     167.6774     335.3882      2.506     5.32     1001.725     59.11762     187.7536        24     1.417     1.215  80.33   1
       596    862.7579   1021.0082 307.5351302  +6.2745158     1856.011     2823.748      2692.19     83.40405     165.2589      293.833      1.473     3.10     1014.097     59.11762     275.5626        16     1.101     0.880  71.82  16
       597    412.3342     27.6170 307.7557165  +6.6696951     20011.48     34408.07     36106.18     83.53804     167.6774     335.2548      1.835     3.85     990.2615     59.11762     2285.776        54     1.599     1.327 -85.78   0
       598    232.9132     27.9663 307.8302762  +6.6635385     8140.929     14109.51     15224.16     84.07183     167.6107     335.3882      1.861     3.68     1001.764     59.11762     977.3337        42     1.545     1.295 -77.85   0
       599    889.9728     27.3714 307.5571988  +6.6857476     2161.287     3064.658     3536.176     83.53803      167.544     335.2214      1.453     2.93     976.4418     59.11762     364.4523        16     1.245     0.771 -88.92   0
       600    292.9069     28.2187 307.8053331  +6.6654459     811.1471      1385.79     1010.783      83.9387     167.4772     335.2548      1.584     5.73     1001.312     59.11762      111.189        10     1.334     0.694  88.14   0
       601    497.0411     28.1868 307.7204905  +6.6722945     607.1906     887.1885      1500.92     83.53803      167.544      335.088      1.744     3.57     985.9137     59.11762      92.2337         5     1.013     0.520 -32.29   0
       602    220.8017     24.5870 307.8354243  +6.6645276     2607.202     4628.484      5006.58     83.67181     167.4104     335.1547      1.884     4.09     1001.708     59.11762      305.234        25     1.368     1.121  87.17   0
       603    274.2773     22.8068 307.8132590  +6.6670561     781.4863     1430.636     1812.592     83.67181     167.2099      335.188      2.061     5.08     1001.926     59.11762     104.8229         9     1.297     0.562 -75.76   0
       604    910.5142     17.6030 307.5489890  +6.6904656     1017.216     1400.444     1578.007     83.40405     167.3436      335.088      1.460     3.72     975.8817     59.11762      163.035        11     1.064     0.802 -78.83   0
       605    185.4566   1019.6195 307.8164617  +6.2524574     2268.475      3321.38     3125.882     83.53804     167.6774       311.28      1.509     3.19     1020.166     59.11762     339.3493        19     1.227     0.862  87.69  16
       606    721.5587   1018.5819 307.5938539  +6.2708120     670.6335      1232.03     1305.638     83.53804      167.544     322.1211      2.137     5.62     1017.465     59.11762     111.3174         8     1.356     0.657  82.30  17
       607    950.8954   1018.9800 307.4985931  +6.2782874     693.6063     961.6462     644.6456      83.9387      167.544     318.4898      1.485     3.71      1012.69     59.11762     101.7606         6     0.984     0.579 -45.00  16
       608    688.7543   1016.6624 307.6075424  +6.2705104     8550.768     11184.47     11775.79      83.9387     167.6774     335.1213      1.373     2.79     1017.567     59.11762     1276.859        26     1.259     0.892 -80.95  16
       609    403.5974   1016.9289 307.7259606  +6.2608739     4463.685     6147.938     6809.799     83.53803     167.3436     333.9513      1.463     3.01     1020.831     59.11762     640.5893        19     1.192     0.847 -89.01  16
       610    544.7903   1015.7936 307.6673612  +6.2660630     4365.091     6074.755     6960.931     83.53803      167.544     335.2214      1.445     3.29     1021.006     59.11762      660.734        23     1.289     0.917 -83.18  16
       611    681.2133   1016.0544 307.6106948  +6.2705099     1393.821     1610.811     2350.941     83.40405     167.6774     335.1213      1.299     2.88     1017.578     59.11762     256.2979        11     0.910     0.801  62.82   0
       612    720.9635   1011.8866 307.5943261  +6.2735569     1493.489     2186.423     1974.444     84.07183     167.6107     335.3882      1.517     3.60     1017.188     59.11762     198.8521        11     1.011     0.738  86.23   0
       613    928.2460   1006.2429 307.5084271  +6.2827935     7963.351     10421.56     10476.85     84.07183     167.7441     335.3215      1.360     2.99     1013.353     59.11762     1369.467        27     1.213     0.957  83.54   0
