#   1 NUMBER                 Running object number                                     
#   2 X_IMAGE                Object position along x                                    [pixel]
#   3 Y_IMAGE                Object position along y                                    [pixel]
#   4 ALPHA_J2000            Right ascension of barycenter (J2000)                      [deg]
#   5 DELTA_J2000            Declination of barycenter (J2000)                          [deg]
#   6 FLUX_APER              Flux vector within fixed circular aperture(s)              [count]
#   9 FLUXERR_APER           RMS error vector for aperture flux(es)                     [count]
#  12 FLUX_RADIUS            Fraction-of-light radii                                    [pixel]
#  13 FWHM_IMAGE             FWHM assuming a gaussian core                              [pixel]
#  14 BACKGROUND             Background at centroid position                            [count]
#  15 THRESHOLD              Detection threshold above background                       [count]
#  16 FLUX_MAX               Peak flux above background                                 [count]
#  17 ISOAREA_IMAGE          Isophotal area above Analysis threshold                    [pixel**2]
#  18 A_IMAGE                Profile RMS along major axis                               [pixel]
#  19 B_IMAGE                Profile RMS along minor axis                               [pixel]
#  20 THETA_IMAGE            Position angle (CCW/x)                                     [deg]
#  21 FLAGS                  Extraction flags                                          
         1    210.1320     23.3186 307.8650542  +6.6680590     10248.42     16127.07     16812.97     85.21123     170.0188     339.4307      1.710     3.89     1018.239     59.82424     1243.627        40     1.608     1.080  85.65   0
         2    955.6596     20.9506 307.5553291  +6.6940238     4396.552     6058.342     6339.872     85.07671     169.7491     339.4645      1.423     3.56     981.1129     59.82424     634.7617        19     1.294     0.764  80.00   0
         3    554.2619     21.4131 307.7221189  +6.6804036     2893.715     4365.001     4296.834     84.53654     169.5466     339.0932      1.643     4.10     992.7509     59.82424     378.0088        24     1.510     0.930  80.84   0
         4    756.5543     19.5671 307.6381170  +6.6879408     2168.161      3128.74     2814.386     84.80706     169.7491     339.2957      1.535     3.73      987.523     59.82424     276.1749        16     1.287     0.786  88.51   0
         5   1020.4918     17.1932 307.5285124  +6.6977389     2247.766     3424.353     3914.512     84.67191     169.4114     304.2743      1.672     3.91     972.6699     59.82424     317.4706        17     1.337     0.735 -81.76  16
         6    739.8693     13.6543 307.6452492  +6.6898237     7875.092      11437.6     11502.06     84.94199     169.6816     339.2957      1.547     3.63     987.5212     59.82424     1055.449        30     1.449     0.916  80.84   0
         7    660.1751     13.0960 307.6783858  +6.6873864      3765.19     5579.974     5911.781     85.21123      169.479      339.262      1.574     3.77     990.5352     59.82424     491.7057        20     1.322     0.875  79.80   0
         8    362.1777     12.7342 307.8022310  +6.6775405     1004.506     1656.328      1545.49     84.67191     169.7491     339.3295      1.743     5.79     1008.977     59.82424     130.2891        12     1.343     0.703  66.52   0
         9    415.6008     11.2306 307.7800820  +6.6799554     750.9819     1001.491     861.2106     84.40096     169.5466     339.1945      1.576     5.41     1000.618     59.82424     110.5943         9     1.292     0.640 -87.43   0
        10    460.2570      9.1366 307.7615958  +6.6823189     6037.945     9536.433     10688.56     85.21123     169.6816     339.4307      1.714     3.90     997.0124     59.82424     760.9675        29     1.528     0.968  77.93  16
        11     61.2597      8.8588 307.9274025  +6.6690159     8395.456      13038.3     13268.09     85.07671     169.7491     339.4307      1.646     3.85     1023.089     59.82424     1030.391        34     1.527     1.017  86.31  16
        12      7.1912      9.2763 307.9498548  +6.6670211     1028.172     1392.174     964.0237     84.67191     169.2085     332.5797      1.359     3.66     1025.756     59.82424     152.0112         9     1.014     0.628 -69.84  16
        13    707.0864      8.0973 307.6590592  +6.6910208     965.8972     1253.546     1285.084     85.07671     170.1534     338.2816      1.401     3.86     988.4637     59.82424     142.8065        10     0.960     0.705 -85.63   0
        14    535.9980      6.3053 307.7302168  +6.6860286     902.5015     1377.922     1562.221     84.53654     169.4114      324.704      1.681     3.95     992.7225     59.82424     127.2737        10     1.036     0.728 -79.70  16
        15    356.8288      4.1404 307.8047433  +6.6809088     12366.85      19428.8     20213.72     84.67191     168.3943     299.5325      1.661     3.83     1009.751     59.82424      1547.16        39     1.548     1.093  84.18  24
        16    130.4229      4.6837 307.8988047  +6.6730693     2573.028     4155.917     5189.646     84.94199      169.479     306.6364      1.850     4.02     1019.122     59.82424     345.3784        25     1.494     1.003 -88.93  16
        17    451.8459      4.7705 307.7652380  +6.6838392     839.4335     1331.833     1710.305     84.53654     169.8166     307.7549      1.762     5.27       997.62     59.82424     108.9653        10     1.274     0.616  71.61  16
        18    423.0562      2.3562 307.7772829  +6.6838695     2323.981     3150.944     3251.856     84.53654     150.2053     272.7565      1.514     3.98     999.9711     59.82424     296.6913        17     1.186     0.961  86.97  24
        19    121.8775      3.3429 307.9024008  +6.6733351     1554.958     2153.276     2415.147     85.07671     162.0166     288.1517      1.539     3.82     1019.546     59.82424     192.4498        14     1.114     0.840  89.26  24
        20    825.1917      2.8046 307.6101561  +6.6971569     816.5854     1153.362     1376.421     84.40096     155.8189     279.8854      1.459     3.76      984.793     59.82424     157.3011         6     1.061     0.390  61.79  24
        21    491.7815      2.8509 307.7487073  +6.6859717     588.6086      832.431     496.2723     84.53654     156.6984     280.5801      1.555     3.68     994.7116     59.82424     89.93317         5     1.146     0.340 -77.62  24
        22    628.8740    994.9055 307.6584174  +6.2809782     1538.667     2364.353     2379.387     84.80706     169.9514      339.397      1.610     4.19     1036.405     59.82424     249.0684        15     1.290     0.740 -80.96   0
        23    780.6243   1023.7561 307.5944386  +6.2741424     802.6323     965.8035     998.6819     72.58236     133.4067     253.7451      0.869     1.75     1033.156     59.82424     257.1481         5     0.663     0.428   4.40  24
        24     25.6284    996.1606 307.9088503  +6.2602073     558.2023     988.0206     1553.541     84.67191      169.479      339.262      2.149     3.68     1046.791     59.82424     124.8749         5     0.880     0.482  87.76   0
        25    560.2305    993.1312 307.6869798  +6.2794121     4615.265     6322.049     6729.545     84.94199     169.7491     339.3633      1.430     4.03     1038.464     59.82424     683.1346        19     1.351     0.735  85.69   0
        26    564.7016    993.7761 307.6851016  +6.2792956     715.0737     1042.647     1343.564     85.21123      169.479     339.1945      1.841     4.75     1038.297     59.82424     96.37268         8     1.009     0.634 -84.10   0
        27    669.9507    992.2512 307.6414501  +6.2834488     1635.857     2161.419     2339.584     85.21123     169.6141     339.3295      1.442     3.03     1035.593     59.82424     296.4972        12     1.088     0.651 -86.75   0
        28     95.1267    991.9277 307.8801379  +6.2642941     995.7161     1447.516     1763.476     85.34552      169.884     339.4307      1.463     4.42     1046.335     59.82424     159.0607        11     1.177     0.645 -78.68   0
        29    513.5943    989.8546 307.7064545  +6.2792024     2440.139     3558.994     3716.125     84.53654      169.479     339.0594      1.513     4.03     1039.305     59.82424     355.0787        16     1.392     0.670  88.50   0
        30    825.3623    990.9002 307.5769626  +6.2892029     611.3747     853.0924     998.5029     85.07671     169.6141     339.6331      1.438     3.89     1030.691     59.82424     117.4978         6     1.085     0.399  74.57   0
        31     56.1623    986.8287 307.8964878  +6.2650879     542.8165     426.7008     472.7938     84.53654      169.479      339.262      1.271     4.36     1046.628     59.82424     82.24475         5     0.849     0.637 -50.20   0
        32    947.9659    981.6145 307.5263627  +6.2971305     49830.45     69788.74     72179.44     84.67191      169.479      339.262      1.496     3.45     1027.133     59.82424      7759.37        55     1.508     0.976  84.73   0
        33    621.5757    983.6218 307.6618266  +6.2853926     4085.712     4251.666     3882.977     84.67191     169.5466      339.397      0.871     2.25     1036.321     59.82424     1943.455         6     0.864     0.341 -56.14   0
        34    352.9475    983.4601 307.7733737  +6.2764546     556.7523     559.3762     302.5442     85.07671     169.6816      339.397      1.262     5.55     1046.824     59.82424     103.7245         7     1.355     0.642  83.05   0
        35     20.8358    981.4243 307.9113377  +6.2661298     3562.179     5098.625     5020.951     84.67191     169.5466     339.1607      1.520     3.61     1046.915     59.82424     563.7467        20     1.413     0.802  77.04   0
        36    255.3047    979.9277 307.8140355  +6.2746341     1971.775     2888.953     3079.579     84.94199      169.884      339.397      1.582     4.42     1046.658     59.82424     276.3879        14     1.331     0.675 -88.51   0
        37    143.1395    979.3002 307.8606288  +6.2711227      679.979     855.2972      159.154     84.80706     169.6816      339.532      1.613     5.65     1046.349     59.82424     105.5292         8     1.477     0.609 -83.66   0
        38    794.1113    973.2657 307.5905301  +6.2954395     7389.364     10149.57     11319.36     85.07671     169.9514     339.3633      1.475     3.48     1031.151     59.82424     1183.707        27     1.463     0.826 -83.90   2
        39    654.2457    978.1176 307.6484456  +6.2887586      963.838     1328.984     1984.219     85.07671     169.7491      339.397      1.458     3.82      1035.59     59.82424     196.6951         7     0.999     0.570  79.33   0
        40    845.7987    975.5059 307.5689920  +6.2962416     2660.652     3677.457     3772.831     84.53654     169.3438     339.0256      1.490     3.44      1029.75     59.82424     454.8594        18     1.290     0.759  89.25   0
        41      1.4210    975.9597 307.9195831  +6.2677321     519.6917     712.6217     840.0273     75.06452     136.2102      256.885      1.332     4.88     1047.098     59.82424     103.0541         6     1.204     0.560  64.76  24
        42    263.6488    972.4591 307.8108225  +6.2779979     1574.267     2198.551     2340.605     85.07672     169.7491     339.4645      1.458     4.70     1046.728     59.82424     270.0543        13     1.457     0.583  83.02   0
        43    580.7460    972.6287 307.6791496  +6.2885642     967.1945     1344.744     1298.854     84.80706     169.8166     339.2957      1.588     3.31     1037.469     59.82424      171.838         9     1.012     0.618  84.67   0
        44    227.7372    971.7642 307.8257570  +6.2770782     808.1951     1100.187     1363.463     84.94199     169.7491     339.3633      1.631     4.65     1046.534     59.82424     105.3175         8     1.021     0.602 -80.58   0
        45     88.4735    970.5316 307.8836222  +6.2729038     2968.994     4269.005     4578.675     85.21123      169.884     339.3633      1.538     3.69     1046.448     59.82424     398.1852        20     1.376     0.846 -89.57   0
        46    982.3790    968.4218 307.5125139  +6.3037257     7714.831     10994.06     11203.25     84.80706     169.5466     339.3633      1.492     3.59       1025.2     59.82424     1234.741        31     1.448     0.920  83.62   0
        47    238.6031    964.5402 307.8214887  +6.2804258     786.8987     1074.643     1345.136     84.40096      169.479     339.0932      1.367     4.74     1046.615     59.82424     143.4854         8     1.215     0.524  70.43   0
        48    956.0930    960.1863 307.5237048  +6.3062490      2317.32     2957.615     3200.704     84.80706      169.479     339.1945      1.380     3.13     1025.864     59.82424      399.405        16     1.383     0.673  83.62   0
        49    664.6215    962.9633 307.6446456  +6.2953627     786.7917     1121.875     1198.937     84.67191      169.479     339.1269      1.429     3.34      1035.05     59.82424     147.5321         7     0.867     0.600  64.35   0
        50     13.9483    958.1020 307.9149848  +6.2755266     1281.783     1752.447     2519.778     84.94199     169.7491     339.6331      1.454     4.59     1047.112     59.82424     197.2347        13     1.306     0.655 -87.20   0
        51    815.5719    956.6312 307.5821759  +6.3030247     1469.487     1817.949     1388.182     84.53654      169.479     339.1607      1.246     3.23     1030.037     59.82424     256.8474        10     1.093     0.584  89.51   0
        52    676.7902    956.1125 307.6398224  +6.2985984     5197.034      7127.06     7112.603     84.67191     169.4114     339.2282      1.423     3.60     1034.626     59.82424     808.4586        21     1.341     0.775  86.38   0
        53    289.0532    956.2086 307.8008214  +6.2855605     4589.854     6666.188     6901.096     84.53654     169.6141     339.0932      1.501     3.38     1046.893     59.82424     729.2581        23     1.448     0.803  85.31   0
        54     57.7812    953.7730 307.8969313  +6.2787897     2508.415     3306.775     3674.396     84.67191     169.5466     339.2957      1.405     3.12     1046.758     59.82424     410.6367        16     1.299     0.708  76.98   0
        55    499.1277    954.3684 307.7136539  +6.2933687      1171.54     1433.937     1241.979     84.94199     169.7491      339.397      1.309     3.64     1039.733     59.82424     195.2632        10     1.176     0.579  68.74   0
        56    908.6654    952.4201 307.5436593  +6.3078726     947.5209     1036.607      359.248     84.67191     169.7491      339.262      1.224     4.01     1027.192     59.82424     158.8661         7     1.035     0.444  80.19   0
        57    325.0417    950.0521 307.7860853  +6.2893108     1035.227     1317.309     1992.196     85.07671     169.8166      339.397      1.471     5.36     1046.859     59.82424     165.0804        12     1.458     0.654 -86.65   0
        58   1000.6501    950.4390 307.5055280  +6.3117599     824.3474      1046.68      596.425     84.94199     169.7491     339.3633      1.340     4.59     1023.841     59.82424     129.4956         8     1.002     0.598  73.26   0
        59    980.4462    949.7796 307.5139400  +6.3113583     914.7148     1106.559     930.5422     84.67191     169.7491     339.2282      1.329     5.03     1024.586     59.82424     153.8896         8     1.179     0.611  79.52   0
        60    601.4691    948.5336 307.6713535  +6.2992064     2037.461     2667.768     2270.397     85.07672     169.8166      339.397      1.423     4.05     1036.281     59.82424     285.5404        13     1.318     0.621  81.82   0
        61    640.5571    944.8335 307.6552466  +6.3020426     1475.437     1863.679     1577.013     84.80706     169.7491     339.1945      1.352     4.72     1035.169     59.82424     216.9736        12     1.268     0.774 -63.70   0
        62     90.5537    945.1497 307.8836148  +6.2834529     748.3189     1297.778     1488.392     85.07671     169.6141     339.4645      1.832     5.12       1046.5     59.82424     113.0819         9     1.525     0.486 -85.77   0
        63    320.3958    942.4059 307.7882718  +6.2923117     1445.892     2430.636     2561.328     84.40096     169.4114      339.262      1.810     5.10     1046.873     59.82424     254.3412        13     1.612     0.561  87.09   0
        64     85.1366    943.4664 307.8859209  +6.2839655     618.3242     1047.234     1215.545     85.07671     169.7491      339.397      1.764     2.78      1046.56     59.82424     124.7261         5     0.732     0.453  21.29   0
        65    588.8823    940.8578 307.6768378  +6.3019540     709.1855     977.0807     694.4242     85.21123     169.7491     339.4645      1.391     3.70     1036.698     59.82424     129.5535         5     0.997     0.395  59.92   0
        66    787.5425    938.8494 307.5944110  +6.3094297     1016.191     1380.959     1284.883     85.07671     169.7491     339.4645      1.506     4.62     1030.435     59.82424     147.7917        11     1.199     0.718  67.64   0
        67    924.9780    935.2687 307.5374594  +6.3154986     8134.765     10976.31     11219.21     84.67191     169.6816     339.3633      1.432     3.35      1025.85     59.82424     1326.621        25     1.376     0.797  83.41   0
        68    163.4600    937.0301 307.8536168  +6.2892577     677.8158     975.1507     838.7756     84.80706     169.7491     339.3633      1.460     3.73     1046.438     59.82424       97.005         6     0.802     0.498 -88.58   0
        69    460.8922    932.4065 307.7302690  +6.3011543     2414.291     3250.426     3443.494     84.67191     169.4114     339.1945      1.425     3.88     1041.116     59.82424     365.3225        16     1.291     0.722  80.90   0
        70    362.5610    930.7841 307.7711546  +6.2985254     10306.05     14604.34     15327.87     84.67191     169.5466     339.1607      1.478     3.65     1046.187     59.82424     1445.814        30     1.488     0.845 -89.00   0
        71    282.6402    929.8187 307.8043730  +6.2962405     7772.653     10751.98     10967.12     84.67191     169.5466     339.1269      1.453     3.44     1046.915     59.82424     1165.996        27     1.467     0.820  88.02   0
        72    201.3573    927.6943 307.8381956  +6.2943863     595.5359     759.0917     993.6743     85.07672     169.6816      339.532      1.514     4.12     1046.586     59.82424     95.41577         5     1.017     0.477 -87.12   0
        73    795.1957    924.2845 307.5917210  +6.3156990     929.7341     1364.195      1023.91     84.53654     169.3438     339.0594      1.381     5.15     1029.683     59.82424      167.076        12     1.367     0.600  76.70   0
        74    610.8253    924.5231 307.6682744  +6.3094329     1515.369     1841.725     1655.464     84.67191     169.7491     339.3633      1.397     3.73     1035.425     59.82424     218.7504        11     1.097     0.695  81.33   0
        75    940.8720    920.3774 307.5313574  +6.3221774     1457.176     1861.631      2241.08     84.67191     169.5466      339.397      1.390     5.15     1024.662     59.82424     188.5206        11     1.042     0.727 -86.75   0
        76    897.3824    919.5625 307.5494445  +6.3210621     783.4052      970.348     671.8783     84.67191     169.6141     339.1269      1.429     3.56     1026.472     59.82424     124.3508         7     1.089     0.485  88.16   0
        77    244.6630    919.9407 307.8204751  +6.2990429     497.2804     616.2659     778.4739     85.07671     169.6816     339.4307      1.340     3.46     1046.781     59.82424     107.8397         5     0.823     0.421  72.28   0
        78   1008.0986    915.8434 307.5035917  +6.3262922     858.8199     1072.846       605.04     85.07671     169.6141     339.6331      1.634     4.96     1021.943     59.82424     127.4039         9     1.313     0.531  72.77   0
        79    776.9563    913.5610 307.5996546  +6.3195168     2081.632     2963.356     3544.047     84.80706     169.7491     339.2282      1.587     3.75     1030.006     59.82424     333.9878        18     1.299     0.846  88.31   0
        80    870.0163    914.0095 307.5609948  +6.3224410     515.0531     472.3641     410.4668     84.80706      169.479     339.2957      1.133     3.08      1027.37     59.82424      129.666         5     0.954     0.372  59.46   0
        81    600.7880    914.0037 307.6727956  +6.3134400     799.9497     974.0411     610.4119     84.67191     169.4114      339.262      1.248     3.78     1035.611     59.82424     156.8953         6     0.919     0.446  58.89   0
        82    652.8906    909.8951 307.6512974  +6.3168806     721.1119     896.7989     843.5406     85.07671      170.288      339.397      1.465     5.70     1034.062     59.82424     107.2358         8     1.257     0.729  80.71   0
        83    641.3353    910.0209 307.6560917  +6.3164419     957.9376     1193.837     829.8455     84.67191     169.7491      339.262      1.288     4.45     1034.354     59.82424     135.7124         8     1.192     0.472 -89.23   0
        84     27.4994    910.5694 307.9109632  +6.2956069     1050.073     1301.926     1184.348     85.07672      169.479     339.4645      1.378     3.31     1047.166     59.82424     170.4264         9     0.995     0.617 -87.59   0
        85   1008.4996    909.0612 307.5036519  +6.3291059     1431.042     1855.734     1660.791     84.80706     169.6141      339.532      1.372     3.76     1021.432     59.82424     254.7794        11     1.231     0.579 -88.51   0
        86    562.2710    909.1249 307.6889539  +6.3141643     1326.455     1911.391     2310.778     85.34552      169.884      339.397      1.552     4.45     1037.383     59.82424     181.4498        14     1.188     0.859  88.93   0
        87    695.6030    906.6831 307.6336684  +6.3196360     3078.789     4240.114     4574.062     84.40096     169.3438     339.0594      1.493     3.53     1032.648     59.82424     471.5538        21     1.376     0.785  84.25   0
        88    985.9836    904.7018 307.5131481  +6.3301547     743.2147     905.3793     584.2471     85.07671      169.479     339.1945      1.355     4.60     1022.103     59.82424     121.7349         7     1.175     0.511  82.58   0
        89     92.3008    902.7613 307.8843197  +6.3010120     3218.311     4870.027     4727.333     85.07672     169.6141     339.6331      1.619     4.10     1046.581     59.82424     472.7561        21     1.453     0.769  83.05   0
        90    856.5068    903.4708 307.5669578  +6.3263410     1021.598     1217.745     1063.146     85.07672     169.8166      339.397      1.352     4.19     1027.295     59.82424     151.0217         8     1.045     0.499  87.82   0
        91    109.7726    902.2614 307.8770818  +6.3018063      2125.54     3075.149     2908.143     84.67191     169.8166     339.3633      1.377     3.75     1046.538     59.82424     324.4769        15     1.330     0.646  87.24   0
        92    973.7894    902.0817 307.5182997  +6.3308297      945.898     1410.543     1736.571     84.67191     169.4114     339.2282      1.335     4.15     1022.461     59.82424     165.3492        10     1.314     0.524  77.58   0
        93    235.8474    901.6707 307.8247512  +6.3062896     2275.626     3240.104     3511.132     85.07671     169.6816      339.397      1.518     3.75     1046.815     59.82424     382.0834        18     1.456     0.727  80.42   0
        94    992.2963    898.9650 307.5107184  +6.3327340     500.9951     546.4452      664.126     85.21123     169.6141     339.5657      1.497     4.54     1021.451     59.82424     97.94495         5     1.267     0.461  61.13   0
        95    269.9006    898.2887 307.8107249  +6.3088301     855.9246     1326.544     876.4921     85.07671     170.2207     339.3633      1.580     4.17     1046.931     59.82424      149.946         9     1.084     0.757 -84.22   0
        96    827.7379    897.1746 307.5791156  +6.3279795     831.3659     936.0287     1230.369     84.67191     169.6816     339.3295      1.255     4.36     1027.812     59.82424     143.3842         7     1.039     0.520  66.87   0
        97    690.2507    895.8930 307.6362529  +6.3239119     7867.807     10616.24     10851.97     84.94199     169.5466     339.5994      1.406     3.42     1032.484     59.82424     1223.811        23     1.377     0.767  86.21   0
        98     50.3901    894.2806 307.9020084  +6.3031026     1326.495     1748.404      1670.28     84.67191     169.4114     339.2282      1.380     4.59     1046.962     59.82424     191.1378        11     1.439     0.478  85.88   0
        99    927.9112    892.1387 307.5376846  +6.3334040      3221.45     4514.082     4231.556     85.07671      169.884     339.4645      1.436     3.32     1024.205     59.82424     564.4167        22     1.382     0.842  80.90   0
       100    479.7542    892.8870 307.7237651  +6.3181031     623.0668     605.7493     350.7484     85.07671     169.6141      339.397      1.393     4.23     1040.454     59.82424     130.1432         6     1.447     0.353  79.89   0
       101     63.4848    892.6783 307.8966252  +6.3042049     1375.859     1765.728     1580.111     85.07672     170.0861      339.532      1.345     3.31      1046.85     59.82424     207.7704        12     1.032     0.749 -88.80   0
       102    803.0023    892.7302 307.5895366  +6.3289880     649.3839      730.826     318.9291     84.53654     169.3438     339.1945      1.232     4.27     1028.346     59.82424     96.57031         7     0.749     0.694  10.36   0
       103    373.3225    889.0513 307.7680903  +6.3161166        17724     25600.97     27232.13     85.07671     169.8166      339.397      1.511     3.50     1045.242     59.82424     2482.428        39     1.483     0.941  84.50   0
       104    108.0108    890.2136 307.8782198  +6.3067210      1451.38     1799.839     1631.115     84.80706      169.479     339.3295      1.453     4.37     1046.563     59.82424     222.1934        14     1.344     0.649  80.38   0
       105    244.1341    888.3250 307.8217599  +6.3120780     1407.277     1818.779     1934.803     85.21123     169.7491     339.3633      1.379     4.13     1046.889     59.82424     207.5842        12     1.140     0.687  80.90   0
       106    450.9724    879.8524 307.7361552  +6.3225196     1257.399     1709.567     1850.492     84.80706      169.884     339.2957      1.429     3.58     1041.525     59.82424     249.0211        11     1.086     0.705  77.04   0
       107    136.6340    879.7820 307.8666863  +6.3119907     1715.918     2339.366     1985.498     84.53654     169.5466     339.1945      1.430     4.18     1046.599     59.82424     247.2052        14     1.340     0.670  84.08   0
       108    483.3146    879.1149 307.7227496  +6.3239086     508.7218     617.7906     1271.941     84.80706      169.884     339.4645      1.247     4.33     1040.327     59.82424     131.6406         5     1.348     0.408  80.06   0
       109    704.6824    875.8619 307.6309318  +6.3326651     955.1329     1367.305     1936.542     85.21123     169.7491     339.3633      1.771     5.71     1031.083     59.82424     134.8694        11     1.191     0.772  78.26   0
       110    531.6138    876.6622 307.7027751  +6.3265401     718.0719     914.1553     1124.218     84.53654     169.5466     339.1945      1.252     4.69     1038.081     59.82424     103.0597         8     0.959     0.652  88.43   0
       111    120.1582    873.3652 307.8737441  +6.3140857     2622.664     3790.031      4580.49     84.80706     169.7491     339.1945      1.600     3.78     1046.607     59.82424     379.8289        19     1.445     0.747  83.82   0
       112    918.3792    873.8765 307.5422543  +6.3406260     2238.962     2856.305     2603.385     84.67191      169.479     339.3295      1.341     3.11     1023.952     59.82424     327.3148        14     1.177     0.658  83.32   0
       113    889.1887    873.5107 307.5543889  +6.3398024     2290.174     3142.414     3355.072     84.80706     169.4114     339.1945      1.464     3.64     1024.962     59.82424     393.8003        15     1.268     0.679  83.22   0
       114    852.4100    872.7558 307.5696878  +6.3388858     3554.878     4822.052     5224.351     84.53654     169.6141     339.0932      1.401     3.75     1026.154     59.82424     528.7428        20     1.370     0.776  84.57   0
       115    588.3810    864.2973 307.6796168  +6.3335469     371728.9     515025.2     534108.4     84.94199     169.6141     339.1269      1.508     3.58     1035.112     59.82424     52798.34       142     1.600     1.097  86.01   4
       116    432.6335    866.8536 307.7442078  +6.3272713     8313.834     11945.14      12395.1     84.94199     169.7491     339.3295      1.490     3.48      1042.19     59.82424     1264.764        28     1.426     0.882  83.98   0
       117    676.0565    867.1198 307.6431127  +6.3353167     1355.721     2023.776     1726.786     85.21123     169.7491      339.397      1.415     3.61     1032.177     59.82424     231.8838        15     1.294     0.733  88.25   0
       118    375.8130    865.2423 307.7678573  +6.3260301     13497.53     19480.22     20497.53     84.40096     169.5466     339.1269      1.513     3.42     1044.896     59.82424     2130.959        34     1.456     0.933  86.41   0
       119    926.7357    860.4990 307.5392317  +6.3464282     6315.164     8569.479      9717.26     85.07672     169.8166     339.4307      1.455     3.57     1023.118     59.82424     943.4668        24     1.382     0.815  84.09   0
       120    694.2845    861.4404 307.6357335  +6.3382715     3919.716     5336.217     4788.024     85.07672     169.6816     339.3295      1.453     3.56     1031.027     59.82424     601.2061        22     1.321     0.849  89.21   0
       121    765.6854    858.0027 307.6061974  +6.3420788     740.2653     965.7923     1238.274     84.40096     169.3438     339.0932      1.395     5.14     1028.056     59.82424     128.0396         8     1.264     0.590  66.52   0
       122    669.0485    855.6832 307.6464067  +6.3398041     3740.073     5115.967     5452.643     85.07671     169.7491     339.4307      1.431     3.57     1031.919     59.82424     630.4031        16     1.304     0.676  88.51   0
       123    857.5128    854.6512 307.5681750  +6.3465312     1761.929     2367.896     2358.497     85.07672     169.6141     339.4982      1.360     4.51     1025.266     59.82424     282.7073        10     1.313     0.471  82.19   0
       124    211.9453    856.2170 307.8362083  +6.3242523     466.9651     843.4777     1262.004     84.53654     169.6816     339.1269      2.089     3.92     1046.871     59.82424     85.78479         5     0.861     0.511 -60.23   0
       125    659.4080    854.3708 307.6504542  +6.3400233     1084.545     1631.868     2033.197     84.67191     169.5466     339.1607      1.631     5.14     1032.147     59.82424     148.3262         9     1.207     0.619 -83.50   3
       126    662.0339    850.2078 307.6495035  +6.3418300     2434.431     3488.348      4390.37     84.53654     169.5466     339.1945      1.647     4.02     1031.851     59.82424     381.9784        16     1.352     0.689  88.16   2
       127    984.4597    853.6786 307.5154876  +6.3511704     1014.413     1391.895     1556.499     85.21123     169.7491     339.3295      1.423     4.29     1019.502     59.82424     177.0955         9     1.046     0.639  65.57   0
       128    945.5327    848.2108 307.5318367  +6.3521292     3718.533     5344.852     5461.496     84.53654     169.5466     339.2282      1.453     3.54     1021.545     59.82424     536.3563        23     1.458     0.769  75.20   0
       129    355.9158    848.9712 307.7766675  +6.3320801     1256.909     1767.196     1491.635     85.07671      169.479      339.262      1.442     4.40     1045.284     59.82424     155.8378        13     1.196     0.738  77.38   0
       130    403.7839    844.0823 307.7569540  +6.3357050     2945.948     4216.616     3850.262     84.67191     169.4114      339.262      1.496     3.69     1042.858     59.82424     443.6749        20     1.371     0.810  85.54   0
       131    539.9783    834.0573 307.7007330  +6.3444107     3221.015     4444.838      4369.39     84.67191     169.6816     339.1945      1.456     3.53     1036.682     59.82424     529.7209        19     1.291     0.819  86.90   0
       132    371.9514    835.7456 307.7704536  +6.3380787     588.3575     667.5288     792.6442     85.07671     169.7491     339.4645      1.636     3.74     1044.051     59.82424      105.025         5     1.264     0.317  64.59   0
       133    884.6312    833.0241 307.5576372  +6.3563663     1338.954     1865.616     1615.213     84.53654     169.6141     339.1945      1.447     4.27     1023.551     59.82424     204.0664        13     1.243     0.720  71.75   0
       134    605.1993    831.8937 307.6737206  +6.3474887     801.8129     933.5804     540.6249     84.53654     169.2762     339.0594      1.600     4.13     1033.373     59.82424     137.8997         7     1.256     0.387  85.32   0
       135    586.7835    830.0985 307.6814287  +6.3476132      6547.06     9021.728     9065.202     85.07671      169.479     339.1945      1.459     3.32     1034.238     59.82424     1022.972        28     1.421     0.869  89.65   0
       136    504.5798    829.0829 307.7156005  +6.3452781     1741.705     2596.245     3172.862     84.80706     169.4114     339.3295      1.521     4.59     1037.884     59.82424     235.2679        15     1.453     0.677 -85.87   0
       137    298.2244    830.3145 307.8012528  +6.3378456       883.43     1195.529     930.3871     85.07672      169.479     339.1945      1.319     5.17     1046.523     59.82424     164.2849         9     1.096     0.688 -81.80   0
       138    593.7833    829.3574 307.6785467  +6.3481536     1401.884     1703.983     1191.569     84.53654     169.5466     339.1607      1.406     4.76     1033.851     59.82424     187.2556        13     1.152     0.772 -73.54   0
       139    922.5660    828.1690 307.5420454  +6.3596375     1471.095     1938.411     1780.866     84.53654      169.479     339.1269      1.452     4.42     1021.873     59.82424     217.2036        11     1.261     0.588  84.37   0
       140    146.4545    828.0862 307.8643520  +6.3336642     1351.411     1873.938     1807.723     85.07671     169.6816     339.5657      1.419     4.12     1046.633     59.82424      219.412        10     1.236     0.498  89.14   0
       141    722.4812    826.7070 307.6251889  +6.3535553     822.9618     982.2055     806.6448     84.80706     170.0861     339.4645      1.428     4.04     1028.603     59.82424     134.0955         7     1.195     0.390 -73.95   0
       142    557.4724    823.9760 307.6938067  +6.3491592     20931.75     29816.66     30701.67     84.67191     169.6141     339.3295      1.483     3.47     1035.627     59.82424     2838.312        41     1.483     0.926  87.42   0
       143    398.5851    825.7557 307.7597295  +6.3430971     834.9031     1262.076       1295.5     84.40096     169.5466     339.1269      1.379     3.33     1042.559     59.82424     138.4193         8     0.915     0.611  74.26   0
       144    971.1323    822.2997 307.5220721  +6.3636816     4498.672     6088.453      6139.14     85.07671      169.884     339.3633      1.456     3.23     1019.385     59.82424     749.9637        26     1.335     0.942  82.00   0
       145    204.3294    823.3773 307.8404778  +6.3375545      550.297     786.9783     879.7098     84.67191     169.6141     339.3633      1.582     5.55     1046.792     59.82424     99.56775         8     1.256     0.691 -82.17   0
       146    443.2237    819.6489 307.7413976  +6.3471159     630.9305     918.4283     581.2968     84.67191     169.7491     339.2957      1.442     3.79     1040.329     59.82424     94.81799         5     1.010     0.408  84.70   0
       147    725.6340    815.8098 307.6242450  +6.3581599     622.3662     822.8647      514.717     84.53654     169.5466     339.2282      1.407     4.58     1028.148     59.82424     101.7188         6     0.965     0.618 -59.95   0
       148     67.9074    814.4416 307.8974296  +6.3366542     1561.299     2142.378     2210.743     85.07671     169.6816     339.4982      1.417     3.31      1046.51     59.82424     282.4049        14     1.230     0.626  86.95   0
       149    612.6498    813.2861 307.6712513  +6.3554208      659.562     1035.626     1127.257     85.07672     169.6141     339.4982      1.518     5.71     1032.422     59.82424     97.12939         8     1.264     0.727  66.99   0
       150    350.1384    812.5098 307.7802940  +6.3469398      3479.26      4912.77     5113.364     85.07671      169.884     339.4645      1.487     3.37     1044.081     59.82424     549.8947        22     1.392     0.845  87.56   0
       151    815.6400    808.5450 307.5871091  +6.3641685     63188.71     84978.55     87934.33     84.94199     169.8166     339.3633      1.439     3.45     1024.318     59.82424      9301.02        58     1.451     0.962  86.11   0
       152     50.0392    810.9044 307.9049688  +6.3375130     2232.666      2962.35     3204.458     85.07671     169.6141      339.532      1.430     3.49     1046.482     59.82424     362.3093        13     1.184     0.646  78.61   0
       153    754.4514    810.7383 307.6124473  +6.3612176     707.5638     914.1674     1154.356     85.07672     169.6816      339.397      1.396     4.01     1026.905     59.82424     114.0249         7     0.973     0.474  79.68   0
       154    272.9222    806.3812 307.8125662  +6.3468768     5468.548     8610.882     10108.83     84.53654      169.479     339.3633      1.788     3.63     1046.724     59.82424      800.968        36     1.601     1.019  87.73   0
       155    459.1450    807.1516 307.7352060  +6.3528096     832.7908     1224.937     1212.199     85.07671     169.7491     339.4982      1.433     3.82     1039.016     59.82424     144.8735         7     0.998     0.521  73.00   0
       156    940.8878    803.7868 307.5352523  +6.3703159     9810.588     13268.59     14053.58     84.67191     169.5466      339.262      1.413     3.29     1020.093     59.82424     1575.312        28     1.379     0.827  87.06   0
       157    743.8491    803.1118 307.6171062  +6.3640119     23722.83     33655.68     35545.48     85.07671     169.6141     339.4982      1.476     3.40     1027.164     59.82424      3767.79        44     1.497     0.948  82.59   3
       158    737.5752    799.6103 307.6198291  +6.3652477      98299.3     135927.5     140651.2     84.67191     169.5466      339.262      1.475     3.47     1027.358     59.82424     14060.63        71     1.522     0.987  87.51   2
       159    382.5073    800.5179 307.7672555  +6.3529774     21864.88     31744.77     33175.27     84.80706     170.0861     339.4982      1.576     3.47     1042.391     59.82424     2819.097        47     1.519     1.033  84.19   0
       160    431.7754    800.8009 307.7467857  +6.3545136     1464.708     2251.196     2426.278     84.67191     169.4114     339.1607      1.637     4.21     1040.326     59.82424     224.3367        13     1.192     0.814  85.75   0
       161    241.3314    802.2575 307.8258239  +6.3475178     654.9191     939.0526     1662.383     85.21123     169.6816     339.3295      1.488     4.60     1046.776     59.82424     103.6211         6     1.063     0.565  36.72   0
       162    671.3441    800.4739 307.6473059  +6.3626754     863.1344      1228.08     1482.341     84.94199     169.6141     339.3295      1.394     3.64     1028.939     59.82424     155.1145         6     0.881     0.475  89.00   0
       163    444.3738    798.3746 307.7416354  +6.3559379     23388.46     33629.72     34564.06     84.53654     169.5466     339.2957      1.548     3.44     1039.549     59.82424     3132.869        44     1.497     0.985  87.89   0
       164    272.4066    784.9233 307.8135032  +6.3557187     773234.7      1681555      1846702     84.67191     169.2085      339.262      2.214    10.08     1045.985     59.82424     63538.69       540     2.424     1.924  84.72   4
       165    937.8235    795.2487 307.5368107  +6.3737389     7816.925      10631.3     10939.07     84.67191     169.7491     339.2957      1.371     3.17     1019.911     59.82424     1307.345        26     1.377     0.797  87.26   0
       166    910.4394    795.8124 307.5481648  +6.3725920      844.264     1020.028     1061.688     84.53654     169.5466     339.1607      1.293     4.33      1021.11     59.82424     149.3147         8     1.149     0.543  67.83   0
       167    678.4099    794.2359 307.6445808  +6.3654874     6989.181     10103.61     10834.48     84.53654      169.479     339.1607      1.499     3.60     1028.573     59.82424     1029.827        28     1.444     0.884  88.91   0
       168    467.0262    792.2279 307.7324349  +6.3592354     1773.499     2534.391      1743.99     84.53654     169.5466     339.2282      1.458     3.55     1038.097     59.82424     280.2203        14     1.229     0.705  82.18   0
       169    192.3676    791.4713 307.8465208  +6.3503251      947.677     919.5018     927.2599     84.94199     169.7491     339.3633      1.302     4.76     1046.582     59.82424     127.5035         9     1.024     0.649 -85.01   0
       170    766.1472    789.0591 307.6083168  +6.3705595     698.9706     882.2873     560.3562     85.07671     169.6816      339.397      1.493     5.62     1025.327     59.82424     100.4883         8     1.275     0.698 -73.06   0
       171    906.2997    786.1186 307.5502086  +6.3764562      693.905     904.5715     1015.283     85.07671      170.288     339.4982      1.263     3.86     1020.937     59.82424     116.6036         6     1.025     0.417 -78.25   0
       172    713.5208    784.5314 307.6303247  +6.3706689     2687.462     3784.423     3399.379     85.21123     169.9514     339.3633      1.525     3.61     1027.189     59.82424     373.1877        20     1.361     0.870  78.04   0
       173    631.4651    786.4665 307.6643378  +6.3671239     996.3416     1086.131     1086.755     85.07672     169.7491     339.4307      1.274     4.11     1030.484     59.82424     153.1769         8     1.047     0.499 -89.03   0
       174    182.6028    784.6460 307.8508060  +6.3528146     823.3164     1212.136     1492.664     84.40096     169.4114     339.0256      1.419     4.25     1046.536     59.82424     163.4994         8     1.373     0.376  76.26   0
       175    157.9187    784.8712 307.8610490  +6.3518915     1084.969     1597.036      1244.34     85.34552     170.0861     339.4307      1.446     3.50      1046.63     59.82424      202.113        11     1.114     0.706  89.20   0
       176    447.2804    781.0410 307.7410113  +6.3631919     56013.65     82950.09      86419.2     85.07671     169.7491     339.3295      1.565     3.46     1038.864     59.82424      7459.43        65     1.569     1.086  86.56   0
       177    990.1239    782.8774 307.5155035  +6.3805920     985.2031     1320.928     1175.699     85.34552     170.0188     339.4645      1.334     3.85     1017.378     59.82424     154.9455        10     1.053     0.662  81.02   0
       178    246.2046    783.7597 307.8244236  +6.3553186     493.8687     1344.278     3827.931     84.26515      169.479     339.0932      4.428     4.32     1046.138     59.82424     75.93042         5     0.849     0.626 -41.83   0
       179    565.0024    780.0061 307.6921567  +6.3675653     7351.799     11013.25     11452.58     84.40096     169.4114     339.2282      1.513     3.54     1033.673     59.82424      1128.95        30     1.448     0.918  84.98   0
       180    481.8824    778.6589 307.7267215  +6.3653358     4722.911     6878.666     8028.778     85.07671     169.8166     339.4645      1.555     3.54     1036.992     59.82424     722.1365        24     1.423     0.877  82.89   2
       181    478.4691    772.1947 307.7283563  +6.3678902     2415.341     3419.989     3475.704     84.53654     169.3438     339.2282      1.523     3.67     1037.019     59.82424     303.4542        20     1.365     0.852  78.49   3
       182    810.2201    776.6694 307.5904282  +6.3771481     12994.66     17881.54     18147.39     84.67191     169.6141     339.3295      1.445     3.35     1023.039     59.82424     2107.644        30     1.375     0.888  83.31   0
       183     39.8815    773.1373 307.9104621  +6.3527633     1167.681     1636.186     1841.129     85.21123     169.7491      339.397      1.461     5.05      1046.14     59.82424     191.1866        11     1.231     0.658  85.50   0
       184    831.9589    770.7204 307.5815991  +6.3803308     1306.566      1815.69     1991.153     84.94199     169.7491      339.397      1.523     4.05     1022.449     59.82424     196.2444        14     1.273     0.752  74.00   0
       185    176.1608    768.8380 307.8540142  +6.3591244     3128.376     4857.311     5189.841     84.80706     169.6816      339.262      1.594     3.91     1046.444     59.82424     450.8711        21     1.476     0.782  83.33   0
       186    168.0644    768.6667 307.8573823  +6.3589229     12176.61     18003.54     18941.62     85.07671     169.7491     339.4645      1.542     3.61     1046.542     59.82424     1758.137        37     1.528     0.959  87.23   0
       187    955.7232    765.2476 307.5303807  +6.3867232     7420.127     10168.73     10688.64     84.94199     169.8166     339.3633      1.432     3.31     1018.205     59.82424     1134.237        27     1.401     0.812  85.16   0
       188    160.1471    765.8816 307.8607640  +6.3598064     3047.644     4556.748      4951.65     85.07671     169.7491     339.4307      1.610     3.68     1046.617     59.82424     415.3652        21     1.404     0.819  78.44   2
       189    160.3077    759.6237 307.8609084  +6.3623955     2148.354     2907.885      2984.63     85.07672     169.5466     339.2282      1.473     4.06     1046.609     59.82424     279.9557        14     1.168     0.754  83.35   3
       190   1004.9332    765.4058 307.5099373  +6.3882997     1757.229     2298.137     2583.778     84.53654     169.4114     339.1945      1.424     3.79     1016.037     59.82424     272.3326        12     1.149     0.645  83.18   0
       191    711.0627    762.7046 307.6320778  +6.3795984     1700.861     2191.613     1676.459     84.94199      169.884     339.4307      1.378     3.36     1026.256     59.82424     263.6008        13     1.108     0.756  80.78   0
       192    598.1531    762.0582 307.6789919  +6.3760859     2505.509     3406.206     3362.513     85.07671     169.7491      339.532      1.412     3.47     1030.929     59.82424     370.7318        17     1.236     0.824 -88.27   0
       193    981.4799    797.0054 307.5186209  +6.3744704     2299.001     3273.009     3528.416     84.67191     169.2762     339.1607      1.473     3.95     1018.262     59.82424     324.7978        16     1.276     0.740  77.97   0
       194    446.1628    761.1927 307.7421430  +6.3713492      1142.66     1678.647     1621.184     84.26515     169.5466     339.1269      1.653     3.62     1038.305     59.82424     166.7817        10     1.054     0.630  69.19   0
       195    729.4052    759.7441 307.6245592  +6.3814343     663.9627     1020.983     790.8441     84.40096     169.5466     339.0932      1.664     4.17     1025.237     59.82424     91.71838         7     1.048     0.474  82.18   0
       196   1010.2641    756.3512 307.5080261  +6.3922160     2112.028     2958.602     3438.761     84.94199     169.6141     339.4645      1.466     3.59     1015.452     59.82424      365.016        16     1.349     0.702  87.42   0
       197    979.4734    756.7692 307.5208003  +6.3910162     3690.212     4993.099     5560.183     84.94199     169.7491      339.397      1.400     3.60     1016.899     59.82424     547.8419        20     1.289     0.867  73.17   0
       198    949.8637    757.1982 307.5330837  +6.3898511     3492.282       4568.2     4625.174     84.40096      169.479     339.1607      1.393     3.27     1018.215     59.82424     573.5734        16     1.178     0.735  78.90   0
       199    702.2913    756.4373 307.6359309  +6.3818925      1677.04     2146.002     1860.625     85.21123     169.6816     339.4307      1.429     3.61     1026.391     59.82424       250.23        15     1.190     0.797  81.06   0
       200    849.3370    754.5907 307.5749221  +6.3875710     1123.966     1483.217     1307.063     84.53654     169.5466     339.1607      1.508     4.89     1021.496     59.82424     181.3285        10     1.243     0.581  81.00   0
       201    924.7088    752.4088 307.5436914  +6.3909889     793.4572     803.0439     1151.792     84.67191     169.4114     339.1269      1.150     3.96     1019.153     59.82424     154.9481         7     1.026     0.438  82.48   0
       202    274.7973    751.5473 307.8136348  +6.3695787     2086.813     3040.827     3966.583     84.40096      169.479     338.9243      1.630     3.28     1044.455     59.82424     346.0167        18     1.267     0.843  87.02   0
       203    711.8389    749.2131 307.6322080  +6.3851947     602.8687     897.0834      452.902     84.53654     169.5466     339.1607      1.349     3.53     1025.545     59.82424     115.2644         5     1.130     0.319  80.28   0
       204    967.7685    746.6109 307.5260016  +6.3948199     1184.023     1601.378     1425.156     84.53654      169.479      339.262      1.441     4.49     1017.053     59.82424     177.9771        11     1.187     0.650  87.18   0
       205    190.6617    746.3864 307.8487493  +6.3688815     910.1179      1322.27     640.2453     84.53654     169.5466     339.1607      1.489     4.73     1045.922     59.82424     145.8892        12     1.284     0.675  81.05   0
       206    295.3794    746.7758 307.8052480  +6.3722402     762.6122     1019.882     1373.722     84.67191     169.5466     339.3633      1.315     3.51     1043.743     59.82424     111.5317         5     0.815     0.435 -71.89   0
       207    994.3478    744.4761 307.5150338  +6.3965881     2958.469     3975.704     3859.423     85.07672     169.8166      339.397      1.417     3.88     1015.722     59.82424     474.4213        17     1.331     0.683  83.26   0
       208    941.4600    745.2502 307.5369738  +6.3945037     1233.336     1595.515      1510.21     85.07672     169.6816     339.4307      1.427     3.25     1018.255     59.82424     223.0656         9     1.109     0.495  86.45   0
       209    713.7518    743.5502 307.6316035  +6.3875967     852.7794     1201.729     1180.426     85.07672     169.6141      339.397      1.685     5.10     1025.188     59.82424     167.2297         8     1.256     0.586  86.69   0
       210    837.5311    736.2463 307.5804399  +6.3947506     1418.161     1720.295     1375.938     85.07672     169.6816      339.397      1.345     3.56     1020.889     59.82424     226.0401        10     1.099     0.619  86.76   0
       211    662.5042    737.0632 307.6531053  +6.3885602      775.908     955.6796     407.1064     84.94199      169.884     339.4645      1.344     3.78     1027.714     59.82424     135.8987         6     0.839     0.490 -81.59   0
       212    923.5435    733.6126 307.5448046  +6.3987106      1689.06     2422.587     2550.477     84.40096     169.6816     339.0594      1.585     3.66     1018.593     59.82424     269.1155        16     1.356     0.774  73.49   0
       213    897.9884    728.8170 307.5555790  +6.3998374     1052.069     1470.825      1406.84     84.67191     169.4114     339.2957      1.402     2.69     1019.176     59.82424     177.3875        10     0.905     0.696  87.90   0
       214    880.6414    725.1456 307.5629068  +6.4007739     1671.154     2113.589     1669.047     84.94199     169.7491     339.4307      1.341     4.07     1019.575     59.82424     241.5974        12     1.256     0.618  82.00   0
       215    143.9113    722.7516 307.8689614  +6.3770669     1103.199     1975.686     1726.168     85.07671     169.6141     339.4982      1.915     6.94     1045.783     59.82424     135.8417        17     1.700     0.839  75.05   0
       216     79.7744    723.8823 307.8955585  +6.3744416     2532.732     3706.868      4708.53     84.94199      169.479      339.397      1.571     3.24     1045.677     59.82424     385.4469        19     1.272     0.837  84.50   0
       217    735.0097    715.9481 307.6237004  +6.3997041     624.5885     746.4506     774.3425     84.40096     169.6141     339.1269      1.222     2.11     1023.355     59.82424     146.5328         5     0.606     0.570   0.69   0
       218    692.3699    712.6248 307.6415214  +6.3996497     6732.169     9644.156     9759.521     84.53654     169.6141     339.1945      1.528     3.50     1025.687     59.82424     938.4935        27     1.394     0.911  83.51   0
       219    639.0768    712.0489 307.6636748  +6.3981038     1600.162      2487.95     2800.035     84.94199     169.8166      339.397      1.638     3.81     1027.856     59.82424      247.058        12     1.111     0.733  86.21   0
       220    550.0635    712.2945 307.7006359  +6.3950210     835.3516     1106.498     934.6805     84.94199      169.884     339.4645      1.546     4.89     1032.392     59.82424     143.4486         9     1.303     0.521  73.96   0
       221    155.3189    708.3649 307.8647092  +6.3833903     3885.709     5876.432     5997.447     84.94199     169.8166      339.397      1.590     3.58     1045.063     59.82424     486.8286        24     1.376     0.929  81.49   0
       222    666.1969    708.3825 307.6525342  +6.4005254      2228.37     3130.682     2917.846     84.67191     169.2762     339.1945      1.523     3.61     1026.821     59.82424     313.9976        18     1.265     0.904  75.04   0
       223    342.2832    708.6406 307.7870531  +6.3895601     708.0546     1060.803     1113.033     85.07672     169.8166     339.3295      1.559     3.84     1040.617     59.82424     93.94312         8     0.961     0.593  72.27   0
       224    809.2019    704.6880 307.5932635  +6.4068336     22198.78      30519.7     31698.35     84.26515     169.3438     339.1269      1.469     3.27     1020.814     59.82424     3357.211        40     1.416     0.931  86.60   0
       225    939.2646    704.3750 307.5392538  +6.4113070     4114.892     5545.237     5620.699     84.67191     169.7491     339.3295      1.413     3.70     1016.616     59.82424     692.6559        19     1.307     0.705  84.33   0
       226    536.6810    704.6733 307.7064501  +6.3977192     858.8661     1189.286     880.1072     85.34552     170.0188     339.4307      1.573     5.36     1032.905     59.82424     118.9858         9     1.254     0.645 -89.48   0
       227    508.2484    705.1838 307.7182415  +6.3965554     1409.104     2149.004     1565.115     84.53654     169.7491     339.1269      1.606     4.64     1033.933     59.82424     179.6233        11     1.126     0.697  88.55   0
       228    354.3822    704.7996 307.7821576  +6.3915521     769.1543     1031.407     188.0474     84.67191     169.2762     339.0594      1.466     4.52     1040.025     59.82424     109.4124         8     1.196     0.486  89.43   0
       229    310.4724    705.0067 307.8003868  +6.3899921     576.8785     718.6393     398.4869     84.67191     169.2762     339.2957      1.373     4.78     1041.625     59.82424     79.34668         6     1.298     0.499  89.60   0
       230    689.7904    697.4204 307.6431030  +6.4058409      7597.66        11124     11378.48     84.67191     169.4114     339.1945      1.565     3.52     1025.405     59.82424     1084.045        33     1.522     0.938 -89.07   0
       231    282.8053    698.2000 307.8121064  +6.3918729     6194.655     9279.089     9436.683     84.40096     169.4114     339.1945      1.585     3.55      1042.28     59.82424     838.7527        32     1.491     1.010  87.24   0
       232    672.3812    698.3413 307.6503027  +6.4048781     1064.498     1435.231     1486.303     84.67191     169.6141     339.1607      1.492     3.84       1026.3     59.82424     178.2678        11     1.017     0.794 -54.53   0
       233    385.0162    697.0241 307.7696966  +6.3957907     731.2953     1138.166     1067.027     84.80706     169.6141     339.3295      1.612     4.00     1038.426     59.82424     121.0225         6     1.012     0.524 -76.90   0
       234    949.6349    690.2363 307.5354198  +6.4174907     1052.677     376.3914     212.0563     84.80706      169.479     339.1269      0.578     4.00     1015.612     59.82424     178.1349        13     1.211     0.728  67.54   0
       235    761.4987    685.7830 307.6137102  +6.4130444      3861.33     5852.747     6324.614     85.07672     169.5466     339.1945      1.621     4.08     1022.162     59.82424     544.6663        24     1.495     0.884  80.57   0
       236    716.8492    686.1887 307.6322413  +6.4113835     1085.967     1526.719     564.9661     84.40096     169.6816     339.0594      1.463     4.99     1023.942     59.82424      146.728        10     0.993     0.709  85.34   0
       237    966.1654    682.9658 307.5287971  +6.4210442     2729.666     3652.959     3841.207     84.80706      169.479     339.1269      1.423     3.62     1014.812     59.82424     425.8793        16     1.259     0.732  85.19   0
       238     47.0753    682.3179 307.9105415  +6.3905007     1879.692     3227.702     3890.276     85.34552     170.0861     339.4645      1.990     4.47     1045.371     59.82424     286.4917        20     1.322     1.082 -88.06   0
       239    566.2762    678.4039 307.6950410  +6.4095567     2162.795     2865.048     2584.553     84.67191     169.2085     339.2282      1.443     3.55     1031.156     59.82424     275.0341        18     1.247     0.870  89.49   0
       240    105.1757    677.3170 307.8865813  +6.3945215     26549.54     39419.91     40660.03     84.94199      169.479     339.3295      1.591     3.67     1044.742     59.82424     3566.871        47     1.560     1.034  85.46   0
       241    535.0150    675.7512 307.7081140  +6.4096044     1283.259     1905.069      2322.37     84.40096     169.6816     339.0932      1.604     4.42     1032.571     59.82424     173.3354        14     1.246     0.779 -88.68   0
       242    956.1642    674.7085 307.5332275  +6.4241198     1225.971     1589.121     1832.204     85.21123     169.6141     339.4307      1.467     5.21      1014.81     59.82424       196.45        11     1.293     0.594 -84.85   0
       243    575.7875    671.9249 307.6913083  +6.4125504     1090.047     1430.262      1378.51     84.53654     169.4114     339.1945      1.358     4.82     1030.532     59.82424     144.2291        13     1.215     0.784  87.91   0
       244    751.1446    669.5267 307.6185559  +6.4194100     3684.556     5032.944     5031.837     84.94199     169.6141     339.2957      1.469     3.57     1022.402     59.82424     567.9987        22     1.499     0.805  80.24   0
       245    773.1553    667.8264 307.6094708  +6.4208480     4457.811     6045.824     5616.328     84.53654     169.8166     339.2957      1.395     3.28      1021.48     59.82424     688.6616        20     1.297     0.784  84.06   0
       246    604.6059    665.6411 307.6795501  +6.4161101     3486.504     4959.386     4736.796     84.26516     169.4114     339.0932      1.552     3.49     1028.883     59.82424     444.9302        21     1.311     0.877  85.75   0
       247    440.8544    666.1407 307.7475449  +6.4104150     1344.898     2041.062     2207.004     85.21123     169.6816      339.397      1.633     4.11     1035.005     59.82424      172.113        14     1.093     0.912  77.67   0
       248    265.0789    665.4665 307.8205714  +6.4047917      1714.53     2485.998     1835.506     85.21123      169.884     339.3633      1.565     4.34     1041.604     59.82424     232.4153        15     1.326     0.718 -83.62   0
       249    348.7779    664.8104 307.7858316  +6.4078741     1395.922     1970.959     1871.957     84.67191      169.479      339.262      1.517     4.70      1038.54     59.82424     181.3795        13     1.138     0.825  85.69   0
       250   1011.4316    662.8489 307.5106687  +6.4308603     9231.754     12193.98     12372.57     84.80706     169.7491     339.3295      1.362     3.56     1012.557     59.82424      1399.67        24     1.301     0.783  82.95   0
       251    565.4214    663.7564 307.6958882  +6.4155756      569.095      783.213     594.2532     84.53654     169.6141     339.1945      1.379     3.46     1031.017     59.82424     83.00024         5     0.765     0.453 -71.39   0
       252    731.4280    661.3129 307.6270206  +6.4221418     1060.106     1261.735     822.0289     85.21123      169.479      339.262      1.307     3.42     1023.184     59.82424     187.1276         9     1.131     0.494  88.72   0
       253    123.0981    659.9989 307.8797224  +6.4022745     920.2377     1453.588     1308.069     84.53654     169.3438     339.0256      1.651     5.14     1043.924     59.82424     135.4326        10     1.145     0.651 -86.91   0
       254    456.7062    657.2535 307.7412601  +6.4146161       2888.5     4443.199     4819.208     84.94199     169.6816     339.6331      1.660     4.03     1034.308     59.82424     404.7651        22     1.400     0.920  86.58   0
       255    169.9479    656.2518 307.8603916  +6.4053977     24393.78     36881.26     38293.78     85.34552     169.6141      339.397      1.615     3.86     1042.888     59.82424     3298.387        50     1.594     1.076  85.51   0
       256    838.0998    656.6089 307.5828721  +6.4276501     1303.408     1771.284     1661.758     84.80706     169.3438     339.2282      1.478     4.81     1018.911     59.82424     188.7634        10     1.088     0.602  67.76   0
       257    389.7804    651.6434 307.7692453  +6.4146868     734.3792      1313.25     1984.558     84.53654     169.6141     339.2282      2.299     6.05     1036.281     59.82424     125.2892         8     1.371     0.750  86.85   0
       258   1006.2562    645.7214 307.5133913  +6.4377593     7878.542      11566.8     12073.57     85.07672     169.7491      339.397      1.554     3.71     1011.737     59.82424     1071.029        29     1.512     0.861  70.26   0
       259    599.8854    641.1044 307.6823348  +6.4260825      49804.1     73113.51     75703.67     85.07671     170.1534     339.4982      1.540     3.60     1029.067     59.82424      6710.78        59     1.550     1.065  87.90   0
       260     50.9410    644.8867 307.9102001  +6.4060846     1177.197     1730.998     1500.907     85.07671     169.7491      339.532      1.552     3.68     1044.643     59.82424     164.7784        10     1.015     0.815 -73.38   0
       261    964.4728    642.8619 307.5308423  +6.4375459     787.2642     1022.538     461.3053     85.21123     169.7491     339.4645      1.263     5.14     1013.243     59.82424     127.0192         8     1.169     0.640  83.33   0
       262    243.3068    642.1326 307.8304002  +6.4136937     688.6594     1097.148     1096.728     84.94199     169.9514     339.4307      1.495     2.60     1041.421     59.82424     116.3115         5     0.847     0.461 -88.02   0
       263    559.1420    640.9077 307.6992640  +6.4247988     581.2392     845.8785     600.7411     84.94199     169.6816      339.532      1.312     2.85     1030.889     59.82424      120.326         6     0.893     0.439  55.77   0
       264      7.8245    640.4539 307.9282565  +6.4064624     895.0537     1197.873     2099.091     84.53654     169.8166     336.7887      1.337     2.77     1045.041     59.82424     153.7064         8     0.929     0.574  70.50   0
       265    207.4626    637.6819 307.8454372  +6.4143262     2671.545     4045.256      4853.32     85.21123     169.7491      339.397      1.709     3.95     1041.992     59.82424     346.2848        21     1.400     0.897  88.05   0
       266   1011.0291    637.8542 307.5116720  +6.4411667     755.7351     1119.625     1246.592     84.80706     169.8166     339.3295      1.554     5.83     1011.064     59.82424     93.72913        10     1.267     0.755 -88.68   0
       267     99.9837    632.0119 307.8902667  +6.4130512     1290.284     2050.201      2381.28     84.94199     169.4114     339.2957      1.915     4.31     1043.729     59.82424     172.3655        14     1.206     0.809  75.59   0
       268    497.1494    624.8839 307.7255510  +6.4293367     63625.17     95719.28     99701.09     85.07671     169.6816     339.4982      1.598     3.55     1032.821     59.82424     8151.213        71     1.580     1.143  87.03   0
       269    682.8912    621.7444 307.6485081  +6.4368547     870.0361     1112.456      1084.28     84.94199     169.6141      339.532      1.319     3.62     1024.894     59.82424     172.5273         8     1.086     0.566  65.32   0
       270    171.6515    620.1674 307.8609012  +6.4203528     1672.223       2663.2     2711.861     84.94199     169.8166     339.2957      1.761     4.01     1042.456     59.82424     230.6105        15     1.244     0.842 -87.68   0
       271    632.3086    618.5403 307.6696256  +6.4364844     2737.061     2673.902     2720.911     84.94199     169.7491      339.532      0.860     2.49     1027.441     59.82424      872.424         7     0.869     0.402 -72.79   0
       272    966.7788    617.5269 307.5307324  +6.4480832     529.5031     702.9647     876.2657     84.67191     169.5466     339.3295      1.661     3.75     1012.047     59.82424      95.5296         5     1.020     0.396  82.35   0
       273    450.6433    616.9587 307.7451337  +6.4310491     771.8048     1339.268     1852.341     84.80706     169.7491      339.262      1.761     4.72     1033.652     59.82424     111.8215         8     1.186     0.533  68.97   0
       274    643.2977    616.4852 307.6651302  +6.4377008     946.1194      1371.88     1417.199     85.07672     170.1534     339.4645      1.602     4.03     1026.849     59.82424     148.9525         9     1.157     0.734 -85.71   0
       275    342.6321    614.2707 307.7900859  +6.4285338     2120.508     3571.612     4106.604     84.94199     169.7491      339.397      1.858     4.22     1036.174     59.82424     273.2306        21     1.381     0.979  83.19   0
       276     43.7289    615.7198 307.9141804  +6.4178833     700.1434     1129.001     1560.708     85.34552     170.0188     339.4307      1.791     4.02     1044.104     59.82424     110.1237         7     1.081     0.697 -57.59   0
       277     40.8119    626.6044 307.9150243  +6.4132913     1767.881     2975.164      3327.93     84.67191      169.479      339.262      1.771     4.55     1044.378     59.82424     236.7396        20     1.536     0.881 -86.85   0
       278    632.4709    612.2059 307.6697708  +6.4391051     7193.849     7740.127     7378.269     84.53654     169.3438     339.2957      0.751     1.23     1027.431     59.82424     3277.968         9     0.708     0.389  49.54   3
       279    630.0095    610.1047 307.6708638  +6.4398903     6289.589      6410.71     5795.628     84.80706     169.3438     339.1607      0.830     1.55     1027.535     59.82424     2372.843        11     0.770     0.524 -19.69   2
       280     50.8272    612.7725 307.9113319  +6.4193392      504.409     794.7825     1044.348     84.53654     169.5466     339.2282      2.007     3.64     1043.938     59.82424     104.1954         5     1.170     0.326 -80.19   0
       281    769.1490    608.3821 307.6131282  +6.4452572     5670.981     7678.932     7000.341     84.53654     169.8166     339.1269      1.445     3.35     1020.872     59.82424     869.9656        26     1.361     0.872 -87.48   0
       282    822.7263    603.6883 307.5910312  +6.4489862     15277.55     20881.74     21312.29     85.07672     170.0188     339.4645      1.451     3.44     1018.054     59.82424     2194.297        35     1.386     0.911  86.71   0
       283    565.1715    603.5739 307.6980142  +6.4404149     1258.465     1699.428     1853.438     84.53654     169.5466      339.262      1.609     3.56     1030.031     59.82424     201.2103        10     0.995     0.678  82.44   0
       284    646.6137    601.6662 307.6642504  +6.4439302       2971.6     4170.162     3716.782     84.53654     169.5466     339.3295      1.526     3.88     1026.635     59.82424     404.4009        19     1.368     0.828 -84.71   0
       285     68.2995    603.1545 307.9044001  +6.4238984      668.508     1017.201     1419.432     85.07671     169.7491     339.6331      1.841     5.44     1043.591     59.82424     95.84106         7     1.014     0.823  19.31   0
       286    964.1142    597.9152 307.5324956  +6.4560915     1317.882       1979.5     2430.067     84.80706     169.9514     339.4645      1.625     4.19     1011.307     59.82424     190.0719        14     1.240     0.797 -89.80   0
       287    405.4771    595.8021 307.7646053  +6.4382686      860.873     1442.706     1811.256     84.40096     169.2085     339.1945      1.888     5.35     1033.813     59.82424     139.8794         9     1.222     0.662  68.48   0
       288    223.3943    596.6390 307.8402042  +6.4318068     512.4617     813.9377      1060.05     84.12914      169.479     339.0932      1.360     3.39     1040.056     59.82424     94.73486         5     1.105     0.301  68.75   0
       289    259.1782    594.8333 307.8254026  +6.4337552     1273.991      1983.59     2282.585     84.53654     169.5466     339.1607      1.745     3.14     1039.155     59.82424     195.6476        12     1.092     0.710 -89.89   0
       290    898.8528    587.0649 307.5599671  +6.4583928     3127.191     4317.073     4294.367     85.07671     169.6816     339.3633      1.476     3.54     1014.452     59.82424     467.6287        20     1.432     0.774  83.44   0
       291    193.8878    586.5072 307.8528010  +6.4349976     632.5834     1128.988     2305.212     85.07671     170.2207     339.4982      2.406     5.92     1040.643     59.82424     93.00952         8     1.296     0.762 -89.75   0
       292    857.6384    584.2900 307.5771797  +6.4581619     2769.624     3816.002     4000.836     85.07672     169.6816     339.4307      1.454     3.75     1016.359     59.82424     378.4788        18     1.341     0.828  78.50   0
       293    838.1309    575.5506 307.5855756  +6.4611184     174338.4     240231.8     249769.3     85.07671     169.6816     339.4307      1.493     3.35     1017.161     59.82424     26246.97       106     1.542     1.108  83.79   0
       294    828.4935    580.4671 307.5894139  +6.4587664     2755.094     3759.297     4599.251     84.94199     169.9514     339.4307      1.504     3.53     1017.664     59.82424     417.3937        20     1.328     0.812  89.45   0
       295    285.5034    579.2953 307.8149922  +6.4410549     7698.835     11753.04     11800.14     85.07672     170.3552     339.2282      1.647     3.68      1037.27     59.82424     959.1362        35     1.546     1.054  77.34   0
       296     85.7803    581.3646 307.8978755  +6.4334830     395.1822     773.1207     484.4143     84.53654     169.5466     339.1607      1.684     5.13     1043.314     59.82424     90.84753         6     1.110     0.671  89.73   0
       297    219.8148    573.8740 307.8424585  +6.4410852     56930.68     89091.71     94291.33     84.53654      169.479     339.2282      1.656     3.69     1038.635     59.82424     7681.257        71     1.634     1.187  86.48   0
       298    767.9532    575.6086 307.6147239  +6.4587486      666.814     894.5192     987.7558     84.53654     169.6816     339.0256      1.246     4.23     1020.969     59.82424     118.3008         7     0.875     0.686 -71.02   0
       299    143.7958    570.1826 307.8741570  +6.4400523     6182.951      9414.89       8792.5     84.67191     169.2762     339.2282      1.595     3.68     1042.058     59.82424      852.589        28     1.459     0.942  85.40   0
       300    258.0822    564.9924 307.8268636  +6.4460385     642.6852     733.1418     125.3163     84.67191     169.3438      339.262      1.228     2.31      1036.85     59.82424     131.0277         6     0.940     0.605  40.90   0
       301    874.7120    562.8370 307.5708064  +6.4675897     4850.132     6623.358     6882.182     85.07671     169.6141      339.397      1.443     3.36     1015.109     59.82424     641.5573        21     1.292     0.819  78.51   0
       302    393.1333    560.9948 307.7709039  +6.4522250      16373.3     25925.82     27117.39     84.53654     169.4114     339.1945      1.671     3.86      1033.47     59.82424     1984.493        41     1.545     1.084  85.98   0
       303    483.2589    561.1495 307.7334638  +6.4551848     732.0046      1278.54      1541.92     85.07671     169.7491      339.397      2.253     6.13     1031.317     59.82424     109.1204        10     1.454     0.726  87.06   0
       304    194.8721    560.0635 307.8532841  +6.4459483     2024.565     3367.899     4632.853     85.07671     169.7491     339.4307      1.937     4.71     1039.275     59.82424     241.9333        17     1.335     0.886 -76.05   0
       305    939.9713    558.4678 307.5438447  +6.4715728     510.2007     418.7115    -223.0351     84.80706     169.7491     339.3633      1.095     3.71     1011.269     59.82424     100.2422         5     0.772     0.606 -86.17   0
       306    828.6340    556.1218 307.5901716  +6.4688227     6320.924     8664.561      9089.17     84.94199     169.7491     339.3633      1.446     3.44     1017.414     59.82424     869.2092        22     1.328     0.793  84.59   0
       307    559.5256    555.9562 307.7019595  +6.4598857     6528.403     9715.661     9944.015     84.94199     169.8166     339.4307      1.596     3.62      1029.73     59.82424     779.6925        29     1.454     0.992  84.85   0
       308    270.3938    557.3985 307.8220059  +6.4495875     885.1923     1472.127     1153.238     84.40096     169.4114     339.1945      1.796     5.57     1035.886     59.82424     127.7562        10     1.352     0.715  68.13   0
       309    200.5304    557.6915 307.8510139  +6.4471179     687.9999     1284.575     2566.811     85.07672      169.884     339.4307      1.888     4.53     1038.791     59.82424     124.3203         5     1.230     0.474  82.03   0
       310   1009.0099    567.3403 307.5148697  +6.4702133     1436.074     1887.602      1757.05     84.40096     169.6141     339.0932      1.407     4.40     1006.636     59.82424     237.4681        11     1.276     0.660  84.70   0
       311    417.8806    552.6432 307.7609059  +6.4565036     1412.657     2108.799     2108.817     85.07671     169.7491     339.3633      1.640     4.89     1033.049     59.82424     210.2196        16     1.288     0.860 -74.62   0
       312    604.0808    549.1503 307.6836810  +6.4641883     2300.146     4171.601     4238.742     85.07671     169.8166      339.397      1.973     4.62     1028.768     59.82424     296.2312        26     1.530     1.102 -61.82   0
       313    301.7734    545.5329 307.8093720  +6.4555407     83804.56     131687.4     138010.5     84.67191     169.6141     339.2957      1.718     3.83     1034.243     59.82424     10766.35        82     1.678     1.200  86.42   0
       314    206.5821    548.9669 307.8487946  +6.4509234     6623.081     10408.91     11056.96     84.67191     169.5466      339.262      1.718     3.68     1037.888     59.82424     818.3271        32     1.573     1.003  82.55   0
       315      3.0845    550.1751 307.9332755  +6.4435744     1352.021     1908.805     1687.625     84.94199     159.2359       284.23      1.495     4.33     1044.582     59.82424     172.1088        13     1.157     0.797  82.53  24
       316    845.3027    548.7396 307.5834950  +6.4724277     1540.075     1919.445     1860.566     84.80706     169.7491     339.4982      1.424     4.72      1016.47     59.82424     204.1832        14     1.331     0.697  89.95   0
       317     78.2186    547.7604 307.9021508  +6.4471021     5055.688     7833.989     7807.341     84.67191     169.5466     339.1269      1.625     3.73     1043.431     59.82424     616.7135        28     1.490     0.962  84.73   0
       318    590.8435    543.1011 307.6893827  +6.4662424     842.3721      1330.92     1419.797     85.07671     169.6141     339.6331      1.642     5.07     1028.986     59.82424     123.4755         8     0.956     0.760  11.89   0
       319    285.8802    540.6299 307.8161386  +6.4570310     1311.598     2285.792     2604.309     84.94199     169.7491     339.3633      1.908     4.47     1034.202     59.82424     193.5381        14     1.323     0.745 -86.61   0
       320    824.8561    537.9299 307.5923506  +6.4762075     17693.92     24357.67     24842.43     85.21123     169.6816     339.3633      1.450     3.41     1017.546     59.82424     2581.348        36     1.406     0.927  86.61   0
       321   1001.2363    539.3026 307.5190370  +6.4815302     1969.837     2497.156     2835.137     85.07672     169.6141     339.5657      1.352     3.00       1005.6     59.82424     323.5083        13     1.109     0.669  74.99   0
       322    528.4981    536.3399 307.7155069  +6.4669447     39433.47     66018.74     70642.98     84.80706     169.7491      339.532      1.838     3.83     1029.838     59.82424     4668.427        76     1.662     1.407  82.83   0
       323    678.8965    534.5824 307.6530930  +6.4727080     1005.068     1578.097     1904.869     84.94199     169.5466     339.1945      1.815     6.33     1025.198     59.82424     121.5874        12     1.339     0.842  56.06   0
       324    240.9545    532.8120 307.8350625  +6.4587488     1829.519     2968.683     3564.732     84.53654     169.5466     339.0932      1.734     4.32     1035.294     59.82424     262.2325        18     1.422     0.842  87.54   0
       325     77.0033    533.0362 307.9031528  +6.4531402      1042.46      1671.35     1588.619     84.12914     169.5466     339.1607      1.671     4.83     1043.091     59.82424     174.7271        11     1.331     0.769  70.29   0
       326    688.4194    531.4255 307.6492433  +6.4743301     3076.572     4473.546     4627.524     84.53654     169.5466     339.2957      1.588     3.62     1024.832     59.82424     387.4683        21     1.347     0.860  85.69   0
       327    127.3594    532.6962 307.8822489  +6.4549757     544.0723     737.6595     201.6422     85.07672     169.6141     339.5657      1.440     4.20     1041.674     59.82424     98.37976         5     1.051     0.478 -87.36   0
       328    698.8851    531.4946 307.6448937  +6.4746518     1373.666     1961.103     1940.746     85.07671     170.1534     339.4982      1.488     4.07     1024.408     59.82424     179.1794        12     1.033     0.799  87.25   0
       329    750.6501    530.1819 307.6234351  +6.4769255     1434.729     2376.647     2521.711     84.53654     169.8166     339.1269      1.927     4.03      1022.06     59.82424      183.501        16     1.233     0.849  74.19   0
       330    426.2432    526.8860 307.7582992  +6.4674185     1693.811     2549.889     2407.926     85.07671     169.6141      339.397      1.648     4.01     1031.404     59.82424     205.8311        16     1.223     0.832  72.48   0
       331    357.6809    525.2659 307.7868326  +6.4657860     3794.927      6042.73     5945.684     85.34552     169.9514      339.397      1.702     3.95     1031.952     59.82424     486.6024        25     1.455     0.974  84.44   0
       332    172.8853    523.9017 307.8636362  +6.4601384     25342.74     39003.79     40450.41     85.07671     170.2207     339.4645      1.633     3.85     1039.238     59.82424     3362.018        48     1.574     1.103  86.26   0
       333    537.6014    524.6194 307.7121196  +6.4720889     2026.115     3279.117     3570.319     84.67191     169.2762     339.0932      1.807     4.37     1029.382     59.82424     237.1295        20     1.420     0.896  75.52   0
       334    900.8640    523.9899 307.5612443  +6.4845023     1717.362     2293.057     2420.758     84.53654     169.5466     339.2282      1.401     3.42      1012.74     59.82424     301.0987        13     1.211     0.665  79.98   0
       335    138.0419    522.0834 307.8781700  +6.4597167     2715.744       4073.6      3615.25     85.07671     169.7491     339.3295      1.562     4.32     1040.841     59.82424     343.5913        19     1.406     0.841  83.66   0
       336     18.1421    522.1432 307.9279686  +6.4556548      1943.38      3179.42     3611.458     85.21123     169.8166     339.4307      1.719     4.17     1044.118     59.82424     275.3451        19     1.472     0.798  86.51   0
       337    374.9511    520.5762 307.7798170  +6.4683021     875.1921      1165.49     1305.662     84.67191     169.7491     339.2957      1.489     5.35     1031.507     59.82424     107.1486        10     0.926     0.872  59.73   0
       338    998.3638    518.4409 307.5209282  +6.4900478     5802.005     7754.518     7840.604     84.80706     169.7491      339.262      1.397     3.41      1005.06     59.82424     957.1079        22     1.339     0.770  81.84   0
       339    571.5354    510.9951 307.6984818  +6.4788512     1473.405     2215.939     2426.853     84.40096     169.4114     339.1607      1.657     3.61     1028.641     59.82424     193.7697        14     1.164     0.790  78.67   0
       340     37.1865    508.2696 307.9205272  +6.4620241     24857.01     38039.04     39675.05     84.53654     169.5466      339.262      1.632     3.69     1043.452     59.82424     3110.626        47     1.581     1.066  83.25   0
       341    469.8443    505.0269 307.7409236  +6.4779062     40929.34     64422.41     67322.21     84.67191     169.8166     339.2957      1.666     3.86     1029.311     59.82424     4938.311        61     1.612     1.156  87.09   0
       342     19.7517    502.5016 307.9279637  +6.4638181     195549.3     294255.1     307783.8     85.07672     169.6816     339.5994      1.644     3.67     1043.865     59.82424     27570.15       111     1.689     1.182  86.22   0
       343    677.8912    504.6741 307.6545147  +6.4850227     12429.42     18236.72     19601.58     85.07671     169.9514     339.4307      1.582     3.63     1025.085     59.82424     1618.374        35     1.456     1.001  85.00   0
       344    235.0528    502.6971 307.8385292  +6.4709836     18021.22     29732.26     31612.38     84.94199     169.7491     339.6668      1.766     3.89     1034.191     59.82424     2021.836        53     1.694     1.197  75.32   0
       345    318.0426    505.2979 307.8039699  +6.4726988     1003.526     1288.053     1157.212     85.07671     169.6141     339.6331      1.474     5.43     1031.344     59.82424     132.1471        10     1.101     0.756  87.11   0
       346    200.9261    503.7790 307.8526679  +6.4693894     1530.927     2386.015     1615.131     84.67191     169.6141     339.3295      1.692     4.55     1036.358     59.82424       185.55        16     1.225     0.911  74.40   0
       347   1011.9437    502.9182 307.5158064  +6.4969098     1291.173     1674.061     2371.265     85.07671     169.7491     339.4307      1.381     4.34     1003.421     59.82424     185.8358        12     1.154     0.680  80.56   0
       348    940.2852    502.4485 307.5455899  +6.4947125     952.3654     1123.966     713.1354     85.07672     169.6816      339.397      1.348     3.65     1008.928     59.82424     143.4291         9     1.010     0.608  85.20   0
       349    851.6928    502.4730 307.5823910  +6.4917437     873.5357      1189.01     1457.089     84.94199      169.884     339.4307      1.275     3.19     1016.016     59.82424     205.3566         7     1.120     0.461  89.09   0
       350    599.6171    501.4397 307.6871380  +6.4837371     2773.981     4238.935     4141.517     84.67191     169.5466     339.1607      1.643     3.84      1028.25     59.82424     333.1074        19     1.314     0.862  84.83   0
       351    973.4576    498.6259 307.5319377  +6.4973979     5218.798     6988.777     7373.072     84.67191     169.7491     339.2282      1.380     3.27     1006.267     59.82424     832.3928        21     1.312     0.749  85.94   0
       352    646.7450    497.0359 307.6677092  +6.4871336     6633.363     10067.49     11071.81     84.94199     169.7491     339.4307      1.633     3.78     1026.417     59.82424     820.5906        34     1.525     1.008  86.75   0
       353    134.5085    497.3295 307.8804731  +6.4698176     1021.482     1561.242     1449.178     84.94199      169.884      339.397      1.565     5.13     1039.924     59.82424     151.4518        11     1.322     0.662  77.87   0
       354    558.8490    488.3431 307.7045129  +6.4877784     7286.957     10996.89        11286     85.07671     169.7491      339.532      1.637     3.73     1028.163     59.82424     940.2249        33     1.523     1.025 -87.02   0
       355    434.4994    489.8923 307.7561146  +6.4829690     789.6096     1212.842     1668.001     85.07671      170.288     339.3633      1.641     4.84     1028.773     59.82424     117.6376         7     0.972     0.684 -25.06   0
       356    404.8802    488.4860 307.7684654  +6.4825557     2551.224      3821.18     3468.268     84.80706     170.0861      339.532      1.649     4.29     1028.764     59.82424     315.9432        20     1.345     0.938  81.86   0
       357    774.7068    488.5662 307.6148378  +6.4949121     547.9802     489.0883     197.1828     85.21123     169.6141     339.4645      1.100     3.50     1020.508     59.82424     99.04724         5     0.741     0.476  14.05   0
       358    996.2032    490.8320 307.5227497  +6.5013748     3786.758     5324.469     6011.144     84.26515     169.5466     339.1269      1.428     3.35     1004.204     59.82424     665.9243        20     1.338     0.846  89.69   0
       359    915.2818    484.1206 307.5565904  +6.5014449     3345.661     4463.369       5065.6     85.21123     170.0188      339.532      1.359     3.27     1010.347     59.82424     528.1104        18     1.278     0.719  82.61   0
       360    568.1449    485.1479 307.7007588  +6.4894091     793.5939      1432.97     1543.478     85.07671     169.7491     339.3633      1.824     6.61     1028.074     59.82424      114.097        10     1.376     0.890  59.61   0
       361    273.5989    482.8084 307.8231886  +6.4804905     6010.985     7420.077     7481.893     84.40096     169.4114     339.1607      0.986     4.34     1031.555     59.82424     3990.388        14     1.300     0.412 -10.90   0
       362    922.7870    478.6439 307.5536560  +6.5039567     2457.466     3346.474     3334.565     84.53654     169.5466     339.1269      1.422     3.56     1009.434     59.82424     369.9955        14     1.213     0.702  77.66   0
       363    962.0133    477.9165 307.5373851  +6.5055665     1319.514     1780.744     1822.108     84.67191      169.479     339.2282      1.399     4.48     1006.357     59.82424     183.4021        12     1.166     0.678  81.71   0
       364    142.3761    477.4005 307.8778778  +6.4783102     709.1224     1045.655     874.2619     84.67191     169.4114     339.1607      1.839     4.16     1038.729     59.82424     108.4799         7     1.066     0.463 -81.49   0
       365    746.6478    474.4422 307.6269675  +6.4998052      3157.05     4495.696     4756.392     85.07672     169.6816     339.3295      1.553     3.56     1021.883     59.82424     412.9325        20     1.272     0.847  86.73   0
       366    417.6548    472.7038 307.7636902  +6.4895003     3484.146      5490.83     5785.429     84.94199     169.7491     339.6331      1.725     3.99     1027.417     59.82424     403.1841        26     1.492     0.998 -87.83   0
       367    108.5640    473.5769 307.8920514  +6.4787508     1748.134     2629.643     2712.933     84.67191      169.479     339.1607      1.698     4.39      1039.98     59.82424      234.576        17     1.402     0.852  84.99   0
       368    458.0679    473.2297 307.7468852  +6.4906392      939.563     1278.055     1561.881     84.80706     169.7491     339.3633      1.442     4.59     1027.468     59.82424     163.3745         7     0.893     0.668 -79.33   0
       369    645.3766    469.2265 307.6692115  +6.4985695     10091.41     15391.93      16109.9     84.53654     169.6141     339.2957      1.623     3.44     1025.922     59.82424     1367.455        37     1.466     1.071  85.78   0
       370    808.0343    465.8350 307.6017554  +6.5054115     16923.29     24578.26     25812.17     84.80706      169.479     339.1269      1.519     3.48     1017.917     59.82424     2439.644        42     1.477     1.021  85.31   2
       371    812.0914    461.3304 307.6002210  +6.5074070     1485.793      2287.37     2583.791     85.07671      169.884     339.4307      1.764     4.36     1017.546     59.82424     222.1028        15     1.312     0.780  86.47   3
       372    327.8886    466.1327 307.8011995  +6.4891994     2449.116     3871.635     3757.132     85.21123     169.9514     339.3633      1.687     4.27     1028.393     59.82424     301.2064        22     1.389     0.997 -81.15   0
       373    837.0569    462.9594 307.5897953  +6.5075688     1298.209      1943.86     2548.625     85.07671     169.8166     339.4307      1.621     3.60     1016.499     59.82424     212.8459        11     1.051     0.686  83.93   0
       374    410.8774    462.7030 307.7668421  +6.4934018     1565.888     2347.036     2518.623     84.67191     169.9514     339.4645      1.633     4.28      1026.57     59.82424     192.4489        16     1.255     0.844 -85.93   0
       375    993.1208    460.7889 307.5250356  +6.5136761      2224.33     2893.235     2886.781     84.67191     169.4114     339.2282      1.379     3.36     1003.936     59.82424     400.0665        15     1.404     0.636  88.65   0
       376    937.4741    462.1861 307.5481059  +6.5112421     490.4349     909.7009     833.5223     84.53654      169.479     339.2282      1.810     2.85     1008.199     59.82424     116.2852         5     0.729     0.461  70.17   0
       377    145.4886    457.8166 307.8772458  +6.4865003     4270.569     6614.077     6766.271     84.80706      169.479      339.262      1.648     3.72     1037.379     59.82424     534.2825        26     1.464     0.981  86.73   0
       378    783.6285    456.5968 307.6122038  +6.5084099     2522.179      3531.35     3925.356     84.53654      169.479     339.1945      1.471     3.69     1018.859     59.82424     326.0861        18     1.318     0.789  82.89   0
       379    303.3669    454.8753 307.8117649  +6.4930233      1392.21     2125.685     2639.209     84.94199     169.7491     339.3633      1.782     5.21     1028.448     59.82424      165.738        17     1.409     0.849 -87.59   0
       380    381.5198    452.4952 307.7793808  +6.4966308     3130.201     4995.354     4936.967     84.80706     170.0188     339.4982      1.716     3.98     1026.106     59.82424     374.3447        24     1.458     0.957  86.58   0
       381    737.3355    450.5143 307.6316388  +6.5093729     1717.787     2301.236     2566.904     85.21123     169.9514     339.4307      1.540     3.93     1021.354     59.82424     223.4639        17     1.239     0.937  71.24   0
       382   1011.5515    448.7721 307.5177812  +6.5192525     732.8925     978.6564     1322.055     84.67191     169.8166     339.3295      1.498     5.03     1002.404     59.82424     104.8733         7     0.992     0.721 -88.63   0
       383    269.4786    448.3588 307.8260613  +6.4945750     823.8405     1204.953     1092.373     84.94199     169.7491      339.397      1.585     5.10      1029.58     59.82424     106.0432         8     0.978     0.752 -50.70   0
       384    578.9487    443.3371 307.6976760  +6.5070335     1011.453      1547.06     1600.038     85.07671     169.6816     339.3633      1.930     5.67     1025.237     59.82424     116.2103        10     1.175     0.771  87.13   0
       385    501.0836    440.7417 307.7301092  +6.5054951     1333.474     2176.405     1967.525     85.07671     169.7491     339.4645      1.656     4.36      1024.55     59.82424     194.9528        16     1.319     0.832  80.15   0
       386    863.5694    440.3004 307.5795409  +6.5178101     1578.603     2182.156     2141.445     85.07672      169.479     339.4645      1.423     3.98     1015.231     59.82424     213.6873        13     1.209     0.689  73.03   0
       387    848.9537    439.6338 307.5856350  +6.5175970     1971.603     2959.498     3073.089     84.67191     169.7491     339.3295      1.545     3.25     1015.677     59.82424     347.7625        17     1.293     0.766 -89.84   0
       388    746.5212    437.5571 307.6282576  +6.5150299     15564.17     22559.77     24091.66     84.94199     169.7491     339.4307      1.603     3.63     1020.133     59.82424     1963.805        40     1.482     1.009  85.12   0
       389    648.5831    439.3233 307.6688837  +6.5110231     760.4859     1039.303     1532.734     84.53654      169.479      339.262      1.706     4.90     1024.703     59.82424     116.6045         8     0.982     0.693  83.34   0
       390    667.6249    433.6525 307.6611638  +6.5140019     2681.893     3914.448     5053.214     84.53654     169.7491     339.2957      1.720     3.53     1024.301     59.82424     361.0895        23     1.344     0.956 -88.45   0
       391    642.5143    430.4949 307.6717013  +6.5144649     5706.231     8972.595     9818.616     85.07672     170.1534     339.4645      1.727     3.73     1024.435     59.82424     636.4045        20     1.234     0.994  82.89   3
       392    638.9739    428.0167 307.6732553  +6.5153695     14191.41     22277.35     23590.73     84.67191     169.5466     339.3295      1.652     3.65     1024.385     59.82424     1874.696        43     1.653     1.149  75.99   3
       393    971.7840    427.5405 307.5350125  +6.5266917     4366.883     5915.047     5710.932     84.53654     169.6816     339.1269      1.413     3.49     1005.391     59.82424     672.2684        19     1.351     0.739  85.41   0
       394    410.9225    423.4661 307.7681442  +6.5096029     27426.16      43450.8     45071.84     85.21123     169.8166     339.3633      1.725     3.81     1022.961     59.82424     3186.664        53     1.655     1.155  86.24   0
       395    927.6229    423.2983 307.5535006  +6.5269692     1511.895     2236.394     3497.714     85.07672      169.479     339.1945      1.704     4.06     1008.856     59.82424     207.0301        11     1.171     0.605  77.11   0
       396    461.0706    421.1246 307.7473909  +6.5122523     7375.626     7860.505     7862.581     85.34552      169.884      339.397      0.745     1.85     1022.598     59.82424     3293.006         8     0.914     0.356 -56.20   0
       397    157.1638    422.9339 307.8735734  +6.5012947     2192.119       3629.5     4014.284     84.94199     169.7491     339.4645      1.784     3.90     1034.365     59.82424     281.8427        20     1.329     0.951  73.12   0
       398    621.6249    419.1801 307.6807593  +6.5184368     513.9125     795.3405     377.6022     84.67191     169.5466     339.3295      1.562     4.46     1024.024     59.82424     79.45874         5     1.175     0.481  86.91   0
       399     90.4717    418.3540 307.9014312  +6.5009406     1420.365     2394.458     2398.393     85.07672     169.7491      339.397      1.749     4.72     1038.177     59.82424     185.9854        19     1.467     0.943  81.51   0
       400    940.5387    417.7941 307.5483193  +6.5296729     5439.312      7450.42     7416.613     84.40096     169.5466     339.1607      1.412     3.64       1007.8     59.82424     764.6099        21     1.316     0.772  80.90   0
       401    268.5040    413.9612 307.8276257  +6.5087436     13241.83     21103.64     22030.02     85.07671     169.6141      339.532      1.739     3.89      1027.48     59.82424      1568.03        44     1.600     1.126  89.76   0
       402    996.5087    415.4373 307.5251460  +6.5325140     639.0726     879.5387     819.2131     85.21123     169.6816     339.4307      1.351     4.17     1003.311     59.82424     111.1074         5     0.995     0.499 -88.18   0
       403    763.4977    407.4870 307.6222139  +6.5280129     740.2237     1135.376      1447.35     85.07672     170.2207     339.4307      1.721     3.65     1017.826     59.82424     110.7189         6     0.924     0.416 -70.30   0
       404    731.4736    406.9762 307.6355349  +6.5271525     923.7854      1081.72     1702.204     84.67191     169.5466     339.3295      1.475     4.24     1019.446     59.82424     148.1832         8     1.151     0.445  77.70   0
       405    103.8970    407.9889 307.8962045  +6.5056719     739.7001     1000.915     845.3988     84.80706     169.4114     339.1945      1.457     4.63     1036.996     59.82424      109.626         7     0.928     0.655  30.57   0
       406    991.6241    406.0651 307.5274890  +6.5362205      940.799     1365.231     1531.145     84.67191     169.7491     339.3295      1.380     3.62      1003.46     59.82424     190.7283         8     1.099     0.449  79.55   0
       407    168.8345    402.6149 307.8694111  +6.5100762     4897.691     7753.193     8388.576     84.67191      169.479      339.262      1.698     4.10     1032.981     59.82424     615.4906        28     1.478     1.004  87.05   0
       408    381.6255    403.4119 307.7809896  +6.5168991     1231.632     1912.575     1918.402     84.67191     169.5466     339.3295      1.681     4.77     1022.251     59.82424      180.578        13     1.173     0.805  51.47   0
       409    214.1071    403.3727 307.8505793  +6.5112862     859.3254     1426.406     1607.817     85.21123      169.479      339.262      1.933     5.60     1030.393     59.82424       109.24        10     1.113     0.795  85.97   0
       410    273.5000    401.1482 307.8259823  +6.5142015     1252.092     2187.954     1909.442     85.07672     169.7491     339.6331      1.959     6.35     1026.683     59.82424     160.5981        16     1.406     0.957  89.47   0
       411    190.9686    398.4481 307.8603572  +6.5125411     2229.939     3961.332     4434.906     84.80706     169.7491     339.2957      1.935     4.62     1031.501     59.82424     304.0527        25     1.523     1.050 -83.52   0
       412    854.4999    398.7117 307.5847025  +6.5346780      752.925     915.6983     1169.263     85.07672      170.288     339.3633      1.537     4.05     1014.069     59.82424     121.8984         7     0.970     0.484  81.32   0
       413    586.4050    397.6780 307.6961130  +6.5261346     1040.456     1410.571     864.8426     84.67191     169.2085     339.1607      1.551     5.08     1021.293     59.82424     124.7641         9     0.947     0.770 -83.20   0
       414      7.2532    394.3831 307.9368090  +6.5080337     2358.758     3850.698     3847.572     84.53654     169.8166     333.0271      1.695     3.97     1040.287     59.82424     295.5055        21     1.439     0.898  82.71  16
       415    414.1306    393.3966 307.7678238  +6.5221252     2037.937     3378.897     3215.428     84.40096     169.3438     339.1945      1.777     4.29     1020.196     59.82424     233.1246        20     1.298     1.050  88.91   0
       416    302.5139    394.1285 307.8141663  +6.5180747     604.3431     1063.857     678.1808     85.21123     170.0188     339.4307      1.426     3.87      1024.88     59.82424       114.41         6     1.265     0.340  47.54   0
       417     33.3357    393.9003 307.9259909  +6.5091119     831.7078     1123.914     1473.618     85.07671      169.884     339.3633      1.550     5.38     1039.243     59.82424     134.5909         8     1.075     0.761 -67.16   0
       418   1003.0151    392.0833 307.5232246  +6.5423734     1096.663     1716.827      2126.24     84.67191     169.4114      339.262      1.585     4.70     1002.268     59.82424     157.6545        11     1.080     0.802  83.59   0
       419     15.3187    391.4547 307.9335576  +6.5095145     943.9302     1528.619      2036.89     85.07672     169.7491     339.4307      2.018     5.31     1039.885     59.82424      141.943        11     1.278     0.916 -73.01   0
       420    348.7240    391.5046 307.7950584  +6.5207103     660.8428     1026.722      1596.97     84.67191      169.884     339.4645      1.740     5.73     1022.702     59.82424      98.6806         8     1.223     0.756  63.82   0
       421    468.0502    386.8604 307.7456443  +6.5266330     6750.011     10907.51     11216.01     85.07671     169.6816     339.4645      1.716     3.99     1019.542     59.82424     783.4626        36     1.637     1.067  88.90   0
       422     64.6403    387.5900 307.9132004  +6.5127717     3043.729     5186.108     5421.882     84.40096     169.5466     339.1269      1.840     4.14       1037.7     59.82424      382.202        28     1.534     1.061 -85.08   0
       423    808.6882    384.1724 307.6042220  +6.5391498     13344.19     19184.08     20887.26     85.21123      169.479     339.2957      1.550     3.43     1015.222     59.82424     1754.786        42     1.549     1.012 -89.53   0
       424    800.6745    385.7993 307.6074967  +6.5382102     2006.616     3128.548     3402.571     84.26515     169.0731     339.1945      1.666     3.86     1015.642     59.82424     259.8816        19     1.319     0.931  87.76   0
       425    372.0213    382.5835 307.7856808  +6.5251759     1047.539     1628.085     1318.637     84.80706      169.479     339.3295      1.725     4.61     1021.074     59.82424     146.7151        13     1.199     0.900  86.81   0
       426    217.4661    375.0256 307.8501401  +6.5231025     760.6925     1315.056     1155.876     84.67191     169.6816     339.2957      1.750     6.45     1028.401     59.82424     124.6207        11     1.480     0.814  46.62   0
       427     23.3630    372.9698 307.9308408  +6.5174171     1019.452     2798.387     4092.831     84.67191      169.479     339.2282      3.110     8.61     1039.026     59.82424       126.49        23     2.050     1.010 -55.80   0
       428    933.6206    373.8836 307.5526639  +6.5475716     653.7738     912.7866     526.1304     84.80706     169.4114     339.2957      1.381     3.39     1006.646     59.82424     113.7233         5     0.799     0.416  68.52   0
       429    488.4582    370.9820 307.7377005  +6.5338732     2239.492     3413.749     2842.143     84.67191     169.6141     339.1269      1.601     3.85     1018.096     59.82424     258.5214        22     1.377     0.959  86.60   0
       430    516.3094    370.4405 307.7261485  +6.5350307     3065.639     4906.333     4800.984     85.07672     169.7491     339.4307      1.731     3.72     1017.931     59.82424     367.5912        27     1.449     1.078 -89.73   0
       431    944.8596    370.3564 307.5481128  +6.5494031     874.9664     1126.241     1159.726     84.94199     169.7491      339.532      1.246     3.45     1005.728     59.82424     152.1808         9     1.062     0.654  80.62   0
       432    874.0521    367.0517 307.5776407  +6.5484029     34966.27     51314.34     53986.46     85.21123     169.6141      339.397      1.534     3.48     1010.493     59.82424      5342.64        55     1.617     0.996  87.16   0
       433    365.5621    362.8527 307.7890287  +6.5331051     683.7084     1195.896     1745.252     84.94199     169.8166      339.397      2.198     4.62     1019.816     59.82424     87.45691         7     1.066     0.568 -12.29   0
       434    645.8647    359.4126 307.6726969  +6.5439248     2647.408     4059.673     4590.117     84.53654     169.5466     339.2957      1.672     4.21     1016.821     59.82424     292.9746        20     1.359     0.892 -84.30   0
       435     54.1957    359.8268 307.9184770  +6.5238820     1183.101      1808.52     1694.432     84.53654     169.5466     339.2282      1.585     3.60     1037.057     59.82424      160.851        12     1.098     0.727  86.22   0
       436    177.8394    357.4302 307.8671952  +6.5290339     572.9502     828.5336     984.3083     84.53654      169.479      339.262      1.445     4.06     1030.993     59.82424     132.8308         6     1.044     0.450  61.63   0
       437    730.5091    353.0565 307.6377451  +6.5493822     81168.36     119149.8     124367.6     84.94199     169.6141     339.4982      1.564     3.36     1016.084     59.82424     10928.81        74     1.541     1.141  86.81   0
       438    888.7419    354.5550 307.5719565  +6.5540532     1288.446     1880.543     2164.819     84.94199     169.7491     339.4982      1.640     4.14     1008.671     59.82424     173.8767        15     1.255     0.843  81.95   0
       439    110.0642    352.5141 307.8955158  +6.5287825     1202.059      1972.44     2147.771     85.21123      169.884      339.397      1.819     5.80     1034.094     59.82424     161.6576        13     1.330     0.733  79.10   0
       440     96.4355    351.7965 307.9012015  +6.5286199     496.8962     640.0128     514.7956     84.12914     169.6141     339.1607      1.336     3.46     1034.515     59.82424     100.1104         5     0.733     0.472 -74.37   0
       441    971.9985    350.2089 307.5375123  +6.5586274     816.7709     1035.421     373.7866     84.40096     169.4114     339.1607      1.274     3.20     1003.145     59.82424     168.5576         7     1.076     0.421  58.39   0
       442    592.9642    349.7242 307.6949996  +6.5461530     2767.982     4136.551     4340.276     84.94199     169.8166     339.4307      1.553     3.61     1015.689     59.82424     327.9304        21     1.279     0.967 -88.35   0
       443    130.2640    348.6111 307.8872563  +6.5310739     5984.667     9551.377     9409.847     84.53654     169.5466     339.1945      1.713     3.98     1033.363     59.82424     722.9172        34     1.603     1.075  88.97   0
       444    576.2971    345.9866 307.7020495  +6.5471377     6889.583     10586.75     10823.59     84.94199      169.479     339.1607      1.633     3.75     1015.152     59.82424     850.7035        30     1.479     1.002  85.09   0
       445    305.2304    343.4569 307.8147455  +6.5390862         2527     3992.327     3626.341     84.94199     169.8166      339.262      1.711     3.94     1022.492     59.82424     337.3188        22     1.394     0.956  83.29   0
       446    439.1752    341.1872 307.7591769  +6.5445211     24650.04     39542.18      41317.9     84.80706     169.5466     339.3295      1.711     3.88     1015.402     59.82424     2839.039        54     1.607     1.179  86.79   0
       447    546.6711    339.7417 307.7145674  +6.5487231     1318.643     2067.672     2257.233     85.21123     169.7491     339.3633      1.694     4.30     1014.347     59.82424     154.4011        16     1.209     0.899 -88.80   0
       448    419.2443    338.9627 307.7675319  +6.5447706     1211.172     2115.349     3293.395     84.80706     169.7491      339.262      2.975     7.30     1015.488     59.82424     137.4088        18     1.440     1.089  82.99   0
       449    518.3401    336.2451 307.7264549  +6.5492169     1057.832     1674.395     1492.567     84.94199     169.6816     339.4982      1.786     5.38     1013.997     59.82424     137.6858        13     1.243     0.861  80.44   0
       450    617.6377    339.4906 307.6850930  +6.5512047     668.6957     1166.501     864.0292     85.21123     169.6816     339.4307      1.706     3.29     1014.251     59.82424     118.6696         5     1.063     0.296  68.22   0
       451    833.8799    333.4810 307.5954557  +6.5609211     944.7289     1653.161     2108.447     85.21123     170.0188     339.5657      1.956     4.99     1010.982     59.82424     170.3524        11     1.304     0.607  84.32   0
       452    528.2346    331.5439 307.7225024  +6.5514896     8345.244      13086.8     13593.46     84.94199     169.7491      339.397      1.724     3.76     1013.393     59.82424     998.7377        38     1.631     1.061  80.49   0
       453    797.3315    330.3084 307.6107466  +6.5610092     3277.516     4667.013     5275.477     85.07672      169.884      339.397      1.543     3.36     1013.089     59.82424     461.6017        21     1.301     0.872  81.67   0
       454    952.7790    330.2276 307.5461664  +6.5662357     879.5151     1332.417     1395.801     84.40096     169.5466     339.3633      1.688     5.07     1003.122     59.82424     122.0931        10     1.140     0.637  73.65   0
       455    744.9778    329.3852 307.6325284  +6.5596395     693.5114     1045.445      756.596     84.80706     169.5466     339.2957      1.572     3.99     1013.466     59.82424     122.6476         5     1.066     0.428 -66.50   0
       456    354.6724    328.4578 307.7947111  +6.5469397     960.9373     1548.197     1244.565     85.21123     169.7491     339.3633      1.854     6.34     1018.343     59.82424     127.6992        13     1.386     0.814 -83.90   0
       457    190.5743    321.8355 307.8631059  +6.5441578     1008.375     1456.758     1418.696     84.67191     169.5466     339.1607      1.691     5.44     1028.455     59.82424      137.697         9     1.116     0.748 -67.55   0
       458    637.1210    320.2491 307.6776451  +6.5598014     521.3557     806.8601     1023.842     85.07671     169.8166      339.397      1.932     5.38     1011.945     59.82424     93.04175         6     1.368     0.597  70.27   0
       459    418.0959    315.8020 307.7687887  +6.5542942     6878.776     11209.56     11439.86     84.53654     169.4114     339.0256      1.740     4.02     1013.855     59.82424     772.2291        35     1.569     1.120  88.91   0
       460    274.0882    316.4117 307.8285946  +6.5492054     2087.754     3300.604     3714.539     84.67191     169.4114     339.2282      1.711     4.33     1022.456     59.82424     258.2545        20     1.407     0.934  80.66   0
       461    771.3996    315.0497 307.6220322  +6.5664420     962.3818     1615.853     1852.432     84.26515     169.3438     338.9243      1.945     5.10     1011.853     59.82424     142.4441        12     1.393     0.679 -89.55   0
       462    786.0045    311.5985 307.6160801  +6.5683553     56289.68     81324.59        84868     84.40096     169.2762     339.1269      1.545     3.50      1011.48     59.82424     7781.815        63     1.525     1.075  84.33   0
       463    457.6402    311.0186 307.7525212  +6.5575961     2145.755     3397.209     3499.717     84.67191     169.5466     339.1269      1.722     4.43     1011.877     59.82424     245.4391        20     1.388     0.905  80.52   0
       464   1020.7719    308.6069 307.5186410  +6.5774313     1810.903     2335.093     2099.985     84.53654     168.8019     300.5631      1.303     3.33     997.6567     59.82424     288.6127        13     1.183     0.632  79.72  16
       465    604.1935    308.5428 307.6917184  +6.5635317     1306.507     2167.191      2828.42     84.53654     169.6141     339.0932      1.965     5.96     1010.186     59.82424     175.2579        16     1.469     0.898  57.28   0
       466    961.8435    307.8764 307.5431489  +6.5757666     2593.812     3630.264     3558.056     84.94199     169.7491     339.4307      1.456     3.84      1001.19     59.82424     415.4265        15     1.283     0.666  81.85   0
       467    495.2036    307.6520 307.7370287  +6.5602462     1022.318     1869.407     2386.031     84.40096     169.5466     338.9243      2.200     6.49     1010.439     59.82424     148.8215        13     1.464     0.807  53.21   0
       468    444.2993    306.7249 307.7582081  +6.5589212     1870.017     2924.465     2597.843     84.53654      169.884     339.2957      1.661     4.01     1012.057     59.82424     226.9181        21     1.282     1.073 -78.31   0
       469    865.2563    301.1071 307.5835052  +6.5753359     1242.663      1862.03     1579.055     84.94199     169.7491     339.5994      1.545     4.03      1006.86     59.82424     205.2016        15     1.302     0.850  58.55   0
       470    220.7693    298.0488 307.8513645  +6.5549940     2201.564     3810.366     4181.906     84.67191     169.8166     339.2957      1.905     4.37     1024.922     59.82424      301.844        24     1.552     0.947  82.14   0
       471    474.7913    298.2099 307.7458268  +6.5634598     1024.559     1479.698     1790.484     84.53654     169.5466     339.2957      1.482     5.15     1009.542     59.82424     143.1895        11     1.216     0.637  68.22   0
       472    784.5142    296.1722 307.6172168  +6.5746745      6413.26     9118.837     9358.222     85.21123     169.4114     339.2282      1.518     3.33     1009.961     59.82424     917.8235        28     1.383     0.944  86.37   0
       473    255.8582    295.8489 307.8368614  +6.5570821     753.9769      995.313     900.1523     85.07671     169.7491     339.4645      1.352     5.32     1022.428     59.82424     92.47766         9     1.150     0.694  76.42   0
       474    117.2276    295.3554 307.8944701  +6.5526218     1054.371       1910.2     1935.242     84.67191     169.8166     339.2957      1.923     5.81     1032.224     59.82424     140.7472        11     1.358     0.700 -86.08   0
       475    800.7778    294.1447 307.6105277  +6.5760554     2741.563     3831.165      3810.69     84.53654     169.7491     339.1945      1.490     3.69     1009.753     59.82424     383.3663        20     1.204     0.930  79.01   0
       476    375.2193    295.3131 307.7872916  +6.5613138     808.5839     1152.219     863.6719     84.80706      169.479      339.262      1.607     5.32     1015.293     59.82424     102.7418         8     0.994     0.804  -7.63   0
       477    390.5135    288.7631 307.7811582  +6.5645316     1594.535     3167.533     2894.936     85.07672     169.6816      339.397      2.018     5.90      1013.82     59.82424     156.3173        23     1.443     1.128 -36.03   0
       478    104.2479    289.1326 307.9000724  +6.5547539     1270.015     1750.406     1521.864     85.07671     169.6816     339.4307      1.472     3.98      1032.69     59.82424     205.4706        12     1.119     0.799  80.80   0
       479    517.1490    284.9715 307.7286743  +6.5703461     2001.412     3082.563     3315.375     84.67191      169.884     339.2957      1.598     4.23     1007.315     59.82424     233.8267        17     1.312     0.872 -78.02   0
       480    279.7639    280.5560 307.8274456  +6.5641995     5457.095     8858.444     9294.411     84.80706     169.6816      339.262      1.732     4.04     1020.338     59.82424     686.0776        31     1.541     1.058  87.00   0
       481     10.0705    273.2993 307.9397314  +6.5581179     64313.56     101148.3     105762.1     84.94199      169.884     339.4307      1.683     3.87     1035.951     59.82424     8086.053        71     1.654     1.180  86.42  16
       482    799.0083    273.9039 307.6119418  +6.5843531     808.7084     1103.579     928.5843     84.80706     169.3438     339.1945      1.372     2.80     1007.317     59.82424     147.3837         7     0.818     0.658 -65.32   0
       483    256.2080    273.5561 307.8374678  +6.5662976     477.2832     512.7429      444.149     84.53654     169.5466     339.1269      1.492     4.42     1021.942     59.82424     73.18915         5     1.161     0.478 -57.94   0
       484    413.9999    271.3609 307.7719867  +6.5725048     1569.425     2725.238     2392.036     83.99289      169.479     339.1269      1.811     4.87     1011.077     59.82424     185.8359        19     1.360     0.981 -89.79   0
       485   1000.6459    270.0113 307.5282949  +6.5926951     1089.748     1534.878     1876.266     84.53654     169.5466     339.0932      1.398     3.90     996.5315     59.82424     181.9769         9     1.120     0.528  74.61   0
       486    336.2408    267.2167 307.8044318  +6.5716046      1137.94     1732.254     1612.577     84.53654     169.5466     339.1945      1.738     6.23     1016.215     59.82424     145.6356        13     1.405     0.777  82.86   0
       487    183.5392    267.3486 307.8678672  +6.5664163     1587.221     2664.905     2403.056     85.07672     169.6816      339.397      1.882     6.95     1026.737     59.82424     174.3616        21     1.613     0.998  73.95   0
       488    593.3004    262.6190 307.6977875  +6.5821271     2214.531     3374.546     3011.056     85.07672     169.6141     339.1607      1.578     3.78     1004.638     59.82424      321.531        20     1.353     0.916 -86.38   0
       489    937.0282    262.0299 307.5549947  +6.5938671     1696.715     2392.184     2811.863     84.53654      169.479     339.1607      1.467     3.25     999.8831     59.82424     280.5611        13     1.180     0.640  75.59   0
       490    756.8251    260.2737 307.6299254  +6.5885699     5140.284     7409.578     7132.043     84.67191     169.6141     339.3295      1.537     3.92     1005.471     59.82424     650.3334        22     1.474     0.794  84.59   0
       491    697.5810    260.2935 307.6545395  +6.5865795     2231.825     3240.692     3109.195     84.94199      169.479      339.262      1.571     3.78     1005.147     59.82424     288.5201        18     1.240     0.925 -89.58   0
       492    994.7094    259.8635 307.5311012  +6.5966868     869.3763     1091.546     1018.861     85.07671     169.9514     339.4982      1.325     4.13     996.2708     59.82424     155.2823         7     1.216     0.401  65.86   0
       493    412.1982    254.4130 307.7733059  +6.5794415     806.3463      1218.01     651.8535     84.67191     169.4114     339.1607      1.740     6.58     1010.152     59.82424      99.1626        12     1.425     0.853  80.44   0
       494    952.7907    252.4194 307.5487674  +6.5983612      1360.19     1863.715      1670.81     84.67191      169.479     339.2282      1.442     3.89     998.3207     59.82424     242.8015        10     1.225     0.556  83.58   0
       495    256.4906    245.6211 307.8382925  +6.5778402     2265.075     3600.245     3847.818     84.94199     169.5466     339.2282      1.712     4.64     1021.686     59.82424       264.92        21     1.452     0.909  76.86   0
       496    899.0397    244.3859 307.5713697  +6.5998832     1803.696      2581.89     2716.009     84.53654     169.5466     339.1269      1.513     3.72     1000.386     59.82424     280.2558        13     1.138     0.721 -86.95   0
       497    789.5175    243.7576 307.6168964  +6.5964824      1723.02     2390.786     1946.778     85.07672     169.7491     339.3295      1.457     3.23     1003.362     59.82424     236.2334        14     1.147     0.781  80.37   0
       498    277.9935    239.8127 307.8295548  +6.5809612     561.4918     781.9464     461.3838     84.67191     169.5466     339.2957      1.523     5.46     1020.352     59.82424     84.66406         6     1.089     0.772  72.29   0
       499    490.3010    235.5313 307.7414920  +6.5898577     22275.69     34955.91     36138.89     85.07672      169.884      339.397      1.713     3.74      1002.37     59.82424     2578.774        48     1.580     1.158  82.23   0
       500    816.3513    234.6596 307.6060523  +6.6011358     13903.91     20578.02     21690.75     85.07672     169.7491     339.4645      1.597     3.48     1001.832     59.82424     2068.185        42     1.467     1.122 -86.18   0
       501    351.1302    236.8589 307.7992687  +6.5846382     472.0597     986.6617     530.2232     85.21123     169.7491      339.397      2.415     4.36     1013.047     59.82424      102.522         5     0.849     0.637 -33.88   0
       502    496.1085    230.0431 307.7392638  +6.5923184     1278.264     2191.614     2425.296     85.07671     169.7491     339.4982      1.945     5.43     1001.696     59.82424     163.6183        16     1.379     0.854  85.51   0
       503    754.8906    230.4156 307.6317312  +6.6008328     666.4863     1038.086      759.329     84.80706     169.5466     339.2282      1.577     4.65     1001.517     59.82424     109.2616         7     1.030     0.597  86.24   0
       504    178.5246    228.7054 307.8712547  +6.5822015     2230.506     3531.107     3760.249     84.80706     169.9514     339.4307      1.772     4.31     1024.941     59.82424     294.3263        22     1.403     1.002  82.57   0
       505    153.5703    227.8970 307.8816494  +6.5816955     1042.031     1843.211     2241.217     85.21123      169.479     339.4307      2.024     4.80     1026.028     59.82424     148.1755        11     1.280     0.691 -87.57   0
       506    952.6260    224.8192 307.5497602  +6.6097511     1611.692      2147.75     2342.485     84.53654     169.5466     339.2957      1.302     4.07     996.7005     59.82424     245.9424        15     1.416     0.712  66.71   0
       507     16.5508    222.2023 307.9387666  +6.5794315     4960.705     7311.871     7599.861     84.40096     169.3438      338.958      1.591     3.73     1034.775     59.82424     647.3184        23     1.384     0.928  82.85   0
       508    614.4766    221.2555 307.6903794  +6.5999142     4755.059     7291.332     6828.568     85.07672     169.7491     339.3295      1.662     3.56     1000.124     59.82424      580.821        26     1.393     1.008  85.80   0
       509    577.1317    221.2960 307.7058944  +6.5986462     2000.998     3241.092     2934.995     84.94199      169.884     339.4307      1.715     4.19     1000.362     59.82424     226.0708        22     1.318     1.061  83.78   0
       510    334.9933    222.3956 307.8064605  +6.5900674     984.7895     1450.499     1278.671     84.40096     169.4114      339.262      1.631     3.61     1014.122     59.82424     147.3336        12     1.049     0.790 -87.79   0
       511    418.9109    220.5886 307.7716559  +6.5936315     1346.421     2168.187     2071.564     84.80706     169.4114     339.2282      1.733     5.53     1007.407     59.82424     143.1238        15     1.357     0.787 -88.94   0
       512    975.3530    218.3006 307.5405354  +6.6132011     2956.069     4013.758     4057.188     85.07672     169.6141     339.6331      1.431     3.66     994.8933     59.82424     505.2715        18     1.372     0.735  71.64   0
       513    921.3961    217.7331 307.5629737  +6.6116341     12071.88     16606.29     16988.39     84.40096     169.4114     339.1607      1.451     3.41     997.6595     59.82424     1902.615        30     1.418     0.847  84.98   0
       514    719.5195    215.8044 307.6469181  +6.6056818     2894.681     4617.167     5985.763     84.67191     169.2762     339.1269      1.907     4.52     1000.224     59.82424     392.6433        25     1.542     0.915  81.59   0
       515    348.9837    218.1236 307.8007918  +6.5923011     809.3818      1465.04     1345.636     84.53654      169.479      339.262      2.006     4.54     1012.333     59.82424     138.7717        10     1.069     0.742 -77.64   0
       516    240.7164    218.0710 307.8457752  +6.5886840     777.2606     1248.253     1285.594     85.34552     170.0188     339.4307      1.798     6.26      1022.22     59.82424     126.4315         9     1.057     1.041  28.94   0
       517    596.3666    217.6189 307.6980261  +6.6008089     756.7565       1224.6     784.1675     84.53654     169.5466     339.1945      1.550     5.00      1000.06     59.82424     106.5164         8     1.072     0.661  55.06   0
       518     47.6778    214.4478 307.9260970  +6.5836820     25379.89     39573.55     41556.35     85.07672     169.8166     339.3295      1.718     3.74     1032.827     59.82424     3250.771        56     1.654     1.176  84.62   0
       519   1008.0496    215.5526 307.5270417  +6.6154268     11096.03     14918.45     15298.24     85.07671     169.6141     339.4307      1.427     3.20     992.9749     59.82424     1912.044        27     1.351     0.825  81.03   0
       520    293.7945    215.3761 307.8238139  +6.5915811     1035.478     1438.918     633.1962     84.53654      169.479     339.2282      1.570     4.88       1019.2     59.82424     156.4727        11     1.167     0.684 -85.45   0
       521    528.0768    210.5359 307.7266378  +6.6014443     1932.943     3212.089     3063.299     85.34552     169.7491     339.3633      1.766     4.71     1000.195     59.82424     223.0568        21     1.379     1.042  78.07   0
       522    859.8448    207.1965 307.5889017  +6.6139282      2146.15     2801.791     2487.342     84.40096     169.4114     339.0256      1.431     3.95     998.0208     59.82424      295.063        16     1.294     0.748  81.08   0
       523    912.1528    206.1982 307.5672009  +6.6160878      2120.55     3090.948     3362.271     84.40096     169.4114      338.958      1.438     3.41     996.6559     59.82424     384.8654        15     1.297     0.653  84.26   0
       524    540.0582    206.5735 307.7217930  +6.6034819     2301.676     3457.013     3370.197     84.67191     169.8166     339.1945      1.623     4.25     999.8549     59.82424      264.712        20     1.392     0.905  80.89   0
       525    771.5907    203.8030 307.6256854  +6.6123789     41208.25     60728.82     62672.08     84.40096     169.4114      339.262      1.570     3.45     999.2879     59.82424     5343.402        56     1.525     1.063  83.46   0
       526    374.6578    203.2086 307.7906274  +6.5993212     5702.711     11713.03     13301.22     84.40096     169.6816     339.0932      2.186     5.75      1009.52     59.82424     665.6786        48     2.114     1.164 -82.76   0
       527   1005.3689    202.4795 307.5285932  +6.6207349     3217.771     4290.053     4131.432     84.94199     169.7491     339.3633      1.343     3.24     992.5981     59.82424      561.374        19     1.248     0.744  78.90   0
       528    939.4417    200.8176 307.5560424  +6.6192206     8304.129      11562.4     11493.92     84.53654     169.5466     339.1607      1.419     3.42      995.308     59.82424     1274.323        29     1.362     0.868  81.88   0
       529    482.9729    199.9890 307.7457327  +6.6042860     4826.571      7863.67     8062.828     84.67191     169.5466      339.262      1.712     3.91     1000.135     59.82424     549.4471        31     1.504     1.078  78.05   0
       530    257.8932    197.1173 307.8393456  +6.5979124     632.2076     869.5704     844.7913     84.80706     170.0861      339.532      1.336     4.51     1021.284     59.82424     90.29431         8     0.837     0.690  37.09   0
       531    140.3603    191.2882 307.8883736  +6.5963648     4774.357     7622.088     7902.035     85.07672     169.6816     339.4307      1.712     3.71     1026.054     59.82424     649.0642        27     1.496     0.972  82.04   0
       532    310.6967    187.9985 307.8177144  +6.6034521     31199.12     51789.17     54119.87     84.53654      169.479     339.0256      1.766     4.00      1017.07     59.82424     3525.727        57     1.661     1.217  85.40   0
       533    286.0491    189.0844 307.8279184  +6.6021754     6365.594     10140.37     10573.25     85.07671     169.7491     339.4645      1.706     3.75     1020.244     59.82424     711.9915        35     1.509     1.127  81.98   0
       534    959.7084    190.3270 307.5479727  +6.6242285     979.6602     1231.384     1506.498     84.94199      169.884     339.4307      1.371     4.41      993.593     59.82424     167.5283         8     1.025     0.539  73.35   0
       535    636.7958    190.3572 307.6821442  +6.6134187     676.7258     982.8907     1330.263     84.40096     169.4114     339.0932      1.469     3.29     998.6935     59.82424     102.9795         6     0.710     0.655  72.67   0
       536    740.0708    187.1840 307.6393398  +6.6181860     1109.609     1749.571     2158.835     84.53654     169.6816      339.262      1.600     5.51     998.5287     59.82424     136.7629        11     1.022     0.839 -43.11   0
       537    434.7809    183.4998 307.7663110  +6.6094767     48524.76     77233.16     81062.82     85.07672     169.6141     339.1607      1.745     3.84     1002.417     59.82424     5613.376        67     1.652     1.232  83.75   0
       538    190.7735    184.8436 307.8676461  +6.6007221      3845.94     6242.244     6572.532     84.67191     169.8166     339.3295      1.743     4.07     1023.413     59.82424     513.3647        31     1.589     1.043  87.56   0
       539    452.0439    184.1305 307.7591171  +6.6097957     1254.985     2106.842     1451.673     85.07671     169.6816     339.4645      1.776     6.20     1001.375     59.82424      141.166        14     1.378     0.784  82.53   0
       540    338.7564    181.2163 307.8062847  +6.6071950     17271.96     28011.29     29012.65     84.53654     169.6141     339.1607      1.731     3.88     1013.055     59.82424     2014.134        47     1.624     1.145  85.93   0
       541    774.0340    179.6766 307.6254798  +6.6224216     34341.91     49975.68     51894.12     84.94199     169.7491     339.3633      1.543     3.55     997.4562     59.82424     4774.644        50     1.517     1.036  83.40   0
       542    346.2755    180.9843 307.8031685  +6.6075434     1979.576     3413.208     4301.226     84.53654      169.479      339.262      2.022     6.37     1012.051     59.82424     260.1405        24     1.784     1.018 -82.80   0
       543    822.2996    180.1326 307.6054096  +6.6238473     1227.811     1796.474     2484.252     85.07671      169.884     339.3633      1.711     4.19     996.3826     59.82424     180.7377        12     1.169     0.712  80.29   0
       544     90.9468    176.9636 307.9093871  +6.6006148     9025.632      14105.8     14251.56     84.94199     169.7491     339.4307      1.641     3.82     1029.459     59.82424     1143.103        39     1.579     1.069  83.47   0
       545     61.6172    180.1610 307.9214645  +6.5983068     657.2839     855.8055     587.8204     84.67191     169.6141     339.1607      1.318     3.40     1031.648     59.82424     100.4648         5     0.776     0.431 -69.67   0
       546    124.6978    174.9643 307.8954322  +6.6025768     1576.551     2486.318     2966.678     85.07671     169.6141     339.5657      1.697     4.16     1026.838     59.82424     189.7806        15     1.189     0.870  87.94   0
       547    722.1899    181.4774 307.6469610  +6.6199437      1158.24     1528.642     1293.394     84.67191     169.4114     339.2282      1.582     5.57     998.2969     59.82424      147.079        12     1.219     0.752  69.97   0
       548    607.5601    164.5771 307.6951581  +6.6230830     843.2149     1231.125     1719.966     84.67191     169.5466     339.1607      1.749     4.77     997.2259     59.82424     111.9785         7     0.899     0.719  73.93   0
       549     24.3350    162.7750 307.9375416  +6.6042282     889.6906     1387.765     1050.559     84.67191     169.7491      339.262      1.628     3.84     1034.495     59.82424     149.2806        10     1.033     0.785  64.33   0
       550    616.5305    157.9618 307.6916532  +6.6261148     1040.077       1707.4     2418.851     84.94199     169.7491     339.4982      1.788     4.75     996.9874     59.82424       154.33        11     1.342     0.600  86.68   0
       551    624.9413    156.1652 307.6882188  +6.6271383     1822.673     2856.678      3613.98     84.94199     169.7491     339.3633      1.652     4.68     996.9918     59.82424     231.9726        15     1.250     0.815  78.67   0
       552    368.9474    155.9074 307.7945935  +6.6186581     954.9672     1651.092     1234.469     84.94199     169.6141     339.6331      1.712     5.81     1008.253     59.82424     127.0101        12     1.342     0.707  71.87   0
       553    309.6153    154.2844 307.8193003  +6.6173348     29198.26     46906.76     49575.89     84.67191      169.479     339.2957      1.744     3.86     1017.197     59.82424     3492.971        53     1.644     1.166  83.75   0
       554     54.9871    152.6649 307.9251483  +6.6094351     4202.675     6720.209     7031.318     84.53654     169.5466     339.2957      1.727     4.23     1031.502     59.82424     536.8901        26     1.439     0.956  86.86   0
       555    741.2898    150.8772 307.6400520  +6.6332166     8328.594     12488.44     13326.73     84.94199     170.0188     339.4645      1.610     3.55     996.2638     59.82424      1158.01        31     1.480     0.962  83.30   0
       556    218.6578    152.2201 307.8571616  +6.6151289     771.7031     1262.847     932.8646     84.67191     169.6141     339.1945      1.732     6.39     1021.933     59.82424     96.08856        10     1.380     0.832 -57.62   0
       557    152.0840    147.9799 307.8849650  +6.6146393     4472.131     7160.121      7186.59     84.67191     169.4114     339.3633      1.711     4.29     1024.008     59.82424     503.8792        31     1.556     1.041  80.66   0
       558    295.7403    148.8284 307.8252492  +6.6191211      744.052     1017.527     951.8708     84.67191     169.8166     339.2957      1.494     4.18     1019.319     59.82424     126.2754         7     1.022     0.669 -56.10   0
       559    614.8489    146.3804 307.6927412  +6.6308400     760.5778         1452     2343.932     84.53654     169.8166     339.1945      2.587     6.49     996.4853     59.82424     231.9531         9     1.573     0.752  21.79   0
       560    422.6732    144.0884 307.7726687  +6.6253417     3667.613     6404.665     6489.257     85.07671     170.0188     339.4307      1.853     4.35     1000.768     59.82424     424.7155        32     1.643     1.103  78.37   0
       561    491.1792    145.1440 307.7441687  +6.6272047     1328.211     1875.813      1601.82     84.53654     169.7491     339.1945      1.472     3.89     997.7991     59.82424     184.1412        12     1.121     0.713  82.46   0
       562    680.0234    145.0105 307.6657062  +6.6335883     746.1432     1226.986     770.7523     84.67191     169.5466      339.262      1.511     4.55     996.8422     59.82424     106.2761         7     1.157     0.507  40.54   0
       563    387.1929    142.8984 307.7874509  +6.6246417     3089.678     4950.278     4443.617     84.80706     169.3438     339.1945      1.665     3.90       1005.5     59.82424     383.3362        26     1.503     0.976  86.74   0
       564    141.5461    142.7428 307.8895202  +6.6164467     1542.763     2433.929     1548.274     85.21123     169.7491      339.397      1.709     4.69     1024.482     59.82424     206.9301        17     1.304     0.962  67.15   0
       565    599.5599    142.3873 307.6992281  +6.6319764     681.8873     1067.426     1362.175     84.53654     169.5466     339.1269      1.937     5.74     996.3321     59.82424     91.74792         7     1.073     0.864  66.64   0
       566    873.4433    141.8692 307.5854414  +6.6413543     496.4063     566.2915     850.7733     85.07671     169.6816     339.4645      1.326     4.16     991.6552     59.82424     81.62604         5     1.159     0.427  76.38   0
       567    702.8856    140.8610 307.6563459  +6.6360668     852.1396     1166.941     1034.918     85.07671      169.884     339.4307      1.369     4.94     996.2684     59.82424     130.6721        10     1.101     0.647 -84.41   0
       568    759.6036    136.5984 307.6329215  +6.6397246      537.052     861.1987     923.1172     84.40096     169.2762     339.1269      1.446     3.92     994.8451     59.82424     96.52002         5     1.110     0.395  73.89   0
       569    239.0279    131.8669 307.8493848  +6.6242169      5024.49     8299.132     8700.958     84.67191     169.6816     339.3633      1.741     3.82     1021.248     59.82424     553.4858        34     1.575     1.099  83.24   0
       570    700.8061    130.6578 307.6575527  +6.6402098     6194.454     9287.021     9440.027     84.53654     169.6141     339.0932      1.599     3.86     995.7344     59.82424     783.8542        29     1.440     0.962  81.65   0
       571    121.7173    131.6699 307.8981327  +6.6203505     2114.822     3316.094     2940.491     85.34552     170.0188     339.4307      1.713     3.99     1025.149     59.82424     295.4194        20     1.384     0.895  79.58   0
       572    475.1247    131.9395 307.7512838  +6.6321177     6458.186     6408.387     6251.149     85.34552     169.7491     339.3633      0.434     1.92     997.9507     59.82424     5340.185         6     0.373     0.309  21.23   0
       573    848.6639    130.4729 307.5961201  +6.6452315     1030.674     1453.992     1299.782     85.07672     169.7491     339.4307      1.661     3.67     991.5191     59.82424     187.6202         9     1.113     0.585  83.43   0
       574    652.9966    127.8184 307.6775139  +6.6397813     9199.026     14308.53      15567.7     84.67191     169.2762     339.1945      1.659     3.87     995.9775     59.82424     1151.914        39     1.580     1.066  81.56   3
       575    656.5234    119.3876 307.6763317  +6.6433802     53429.73     80853.58     84967.23     84.67191     169.3438     339.1945      1.657     3.61     995.5716     59.82424     6832.208        64     1.592     1.138  83.87   2
       576     51.8222    127.1656 307.9273250  +6.6198557     857.5601     1707.658     2026.531     84.53654     169.5466     339.1269      2.238     6.02     1029.994     59.82424     112.7334        12     1.613     0.633 -80.66   0
       577    591.2518    126.9974 307.7031977  +6.6380519     773.4752     1175.517     1415.703     84.40096     169.4114      338.958      1.794     5.86      995.857     59.82424     135.4581         7     1.189     0.813 -69.08   0
       578    288.3162    127.9449 307.8290380  +6.6274934     751.5637     1197.096     1512.451     85.07671     169.7491      339.532      1.666     4.45     1020.286     59.82424     108.0099         6     0.853     0.661 -61.36   0
       579    380.1399    123.6872 307.7910286  +6.6323363     3626.113     6284.118     6546.751     85.07671      169.884     339.4982      1.841     3.98     1006.396     59.82424     422.1371        33     1.568     1.153 -83.20   0
       580    561.8466    122.8181 307.7155566  +6.6387918     1840.828     2853.909     2913.825     84.53654     169.6816     339.1269      1.592     3.98     996.0032     59.82424     231.2661        15     1.194     0.841 -88.00   0
       581    335.6225    113.1142 307.8098821  +6.6352061     3392.805     5195.734     5304.015     85.07671     169.5466      339.262      1.661     3.83     1013.021     59.82424     374.4181        25     1.366     1.040  84.71   0
       582    531.0302    110.8292 307.7287646  +6.6427084     492.6258     566.8213     712.1071     84.53654      169.479     339.1269      1.480     5.18     996.1245     59.82424     106.5251         5     1.401     0.542 -78.57   0
       583    735.2734    107.4187 307.6440109  +6.6509579     976.9092     1365.581      1536.76     84.53654     169.6816     339.2957      1.662     5.03     993.5837     59.82424     132.6981         9     1.228     0.583 -88.70   0
       584     33.1518     96.2558 307.9361271  +6.6319874     734404.4      1624419      1761753     85.07671     169.7491     339.4982      2.205     8.04     1029.625     59.82424     62063.73       435     2.215     1.791  88.04   4
       585    706.9604    106.4347 307.6558089  +6.6504166     1421.566     2008.767     1978.851     84.80706     169.6141     339.1945      1.599     4.21     994.1787     59.82424     205.7809        14     1.238     0.829  81.05   0
       586    720.9402    103.4427 307.6501003  +6.6521198      3436.65     4937.935     4834.199     85.07671     169.7491     339.4982      1.538     3.79     993.6664     59.82424     425.3132        22     1.311     0.927  87.55   0
       587    462.7359     94.3586 307.7576965  +6.6472176     3991.628     6545.782     6430.329     85.07672     169.6816     339.4982      1.751     4.22     997.7298     59.82424     493.5775        33     1.621     1.136  77.21   0
       588    917.1187     90.5874 307.5690116  +6.6639860      2360.91     3207.965     3524.429     84.67191     169.4114     339.2282      1.499     3.41     986.8415     59.82424     409.5659        18     1.302     0.853 -88.18   0
       589    935.1089     89.6940 307.5615658  +6.6649557     4170.634      5687.66     5323.379     85.07671      170.288      339.397      1.419     3.09     986.4531     59.82424     711.6179        20     1.348     0.752  84.30   0
       590    627.1957     88.5032 307.6895561  +6.6551490     1887.775      2843.69     2051.312     84.80706     169.4114     339.0594      1.673     5.18     994.2374     59.82424      226.386        18     1.437     0.860 -80.41   0
       591    615.1854     90.2282 307.6944888  +6.6540344     715.6848     872.9351     311.8823     84.67191     169.5466     339.2957      1.289     4.68     994.3027     59.82424     128.0245         7     0.995     0.625 -72.23   0
       592    426.1645     86.2594 307.7731654  +6.6493340     1845.455     3041.015     2789.849     85.07671     169.7491     339.3633      1.738     4.53     999.9105     59.82424     201.6228        20     1.361     1.031 -81.89   0
       593    273.3348     87.6776 307.8366208  +6.6436142     804.5058     1107.681     1982.942     85.21123     169.7491     339.3633      1.547     4.08     1020.094     59.82424      105.335         6     0.891     0.535  48.99   0
       594    173.9374     83.0639 307.8780768  +6.6421753     3093.378     4927.573     5254.966     85.07671     169.7491     339.4307      1.653     4.04     1021.136     59.82424     391.0016        24     1.459     0.944  84.70   0
       595     55.9164     80.9561 307.9271858  +6.6390710     12249.96     19395.34     20466.41     85.07671     169.7491      339.397      1.673     3.89     1026.838     59.82424     1534.206        41     1.574     1.101  84.81   0
       596    321.9467     81.6093 307.8166265  +6.6477535     1256.389     2026.274     2569.799     84.40096     169.6141     339.0932      1.962     6.05     1014.912     59.82424     149.3092        14     1.132     1.031 -64.55   0
       597    790.7748     79.6657 307.6218795  +6.6642728     761.2668      1209.46     2090.328     84.67191     169.7491      339.262      3.484     5.30     990.3792     59.82424     131.5956         8     1.288     0.615  85.36   0
       598    976.5128     79.4627 307.5447032  +6.6705621     686.4932     912.1194     668.5201     84.94199     169.9514     339.4307      1.443     3.63     984.7518     59.82424     123.5262         6     0.960     0.396  69.56   0
       599    595.7532     80.3784 307.7028946  +6.6574499     617.5491     1049.486     710.3392     84.67191     169.7491     339.2282      1.768     4.19     994.1985     59.82424     97.26251         5     0.887     0.563  52.74   0
       600    924.3258     76.7835 307.5664793  +6.6699259     662.5084     965.2944     1415.106     84.53654      169.479      339.262      1.714     4.62     986.2197     59.82424     103.3117         7     1.074     0.564  68.50   0
       601    857.5811     75.4700 307.5942591  +6.6682384     6744.848     9413.202     9580.071     84.67191     169.6141     339.2957      1.499     3.47     987.5271     59.82424     1010.382        27     1.347     0.905  78.92   0
       602    802.6935     75.8058 307.6170562  +6.6662650     3483.563     5180.482     6184.455     84.67191     169.4114     339.1607      1.653     3.78     989.7959     59.82424     476.6006        23     1.334     0.923  83.73   0
       603    447.8844     76.2973 307.7644758  +6.6541759     1012.292     1462.844     1151.491     85.07671     170.1534     339.4645      1.493     4.30     998.4843     59.82424     172.6253        11     1.054     0.765 -53.61   0
       604    948.3629     75.3681 307.5565381  +6.6713130     550.4826       743.05     1022.696     84.67191      169.479     339.1607      1.526     3.90     985.3745     59.82424     98.24774         5     1.095     0.399  74.73   0
       605     96.2487     72.9334 307.9106989  +6.6437419     3080.632     4825.191     4882.257     84.94199     169.6816      339.397      1.703     4.24     1023.294     59.82424     362.3451        26     1.608     0.921  80.06   0
       606    582.7564     80.5881 307.7082881  +6.6569278     775.0287     1134.568     1231.958     84.53654     169.6141     339.0932      1.622     5.32     994.4074     59.82424     125.5917        10     1.109     0.720  75.29   0
       607    565.0447     73.5005 307.7158863  +6.6592604     1202.489     1663.665     1675.903     85.07671     169.6816     339.6331      1.522     4.75      994.421     59.82424     147.0438        12     1.178     0.726  73.60   0
       608     80.7918     73.8409 307.9170906  +6.6428466     1123.927      1742.56     1776.427     84.40096     169.5466     339.0932      1.682     4.92     1024.514     59.82424     197.0673        13     1.445     0.853  66.27   0
       609    457.8121     72.2253 307.7604876  +6.6561903     904.1507     1427.455     1600.424     84.67191     169.5466     339.3295      1.714     4.97     997.8058     59.82424     133.7217         8     1.250     0.630 -85.96   0
       610    619.8061     69.3645 307.6932700  +6.6628031     1169.225     1618.842     1364.245     84.26515      169.479     339.1607      1.566     4.76     993.5878     59.82424     160.1492        11     1.105     0.697  54.80   0
       611     38.5967     68.4101 307.9348062  +6.6436669     2775.157     4244.775     5440.037     84.53654     169.4114      339.262      1.768     3.85     1027.507     59.82424     352.8563        21     1.342     0.931  83.30   0
       612    110.9521     64.4769 307.9048753  +6.6477284     956.7176     1640.543     1463.947     84.94199     169.8166     339.3633      1.821     6.18     1022.365     59.82424     109.7411        14     1.397     0.934 -74.98   0
       613    797.3768     63.5043 307.6196783  +6.6711661     2260.678     3057.703     3023.483     85.07672      169.479      339.262      1.522     3.86     989.2625     59.82424     305.1611        17     1.236     0.809  77.53   0
       614    437.8551     63.7554 307.7690655  +6.6590173      1230.58     1842.563     1447.089     85.07671     169.7491     339.4307      1.572     5.20     999.0608     59.82424     149.9343        14     1.289     0.812 -70.58   0
       615    135.3278     62.5615 307.8948117  +6.6493400      952.197     1236.802     1484.577     84.94199     169.7491     339.4645      1.646     5.32     1021.324     59.82424     133.6357         8     1.257     0.636 -78.95   0
       616    123.9126     57.1133 307.8997388  +6.6512048     9143.668     14771.65     15808.79     84.80706     170.0188     339.4982      1.731     4.16     1021.549     59.82424     1105.943        38     1.628     1.079  82.15   0
       617    453.1679     56.8379 307.7629355  +6.6623872     2478.867      3861.53     3711.753     84.67191      169.479     339.1607      1.718     4.45     997.9975     59.82424     286.6892        21     1.391     0.964  77.20   0
       618    274.2885     55.4574 307.8373112  +6.6569484     573.0714     1000.512     1524.585     85.07672     169.6816      339.532      1.765     3.45     1019.224     59.82424     93.67322         5     0.750     0.460  18.91   0
       619    666.6646     49.1009 307.6744793  +6.6727386     18362.73      27736.1     29150.74     85.07671     169.8166     339.4307      1.597     3.68     992.1271     59.82424     2361.533        41     1.510     1.035  82.62   0
       620    290.5677     51.0461 307.8306956  +6.6593169     1395.989     2427.115      3455.75     84.80706     169.7491     339.2957      2.131     5.19     1018.783     59.82424     193.8576        17     1.268     1.086 -81.62   0
       621    696.4052     50.4785 307.6620743  +6.6731656     625.7759     729.7725     681.7377     84.67191     169.2085     339.1607      1.248     3.69     991.2911     59.82424     124.4041         6     0.925     0.422  72.29   0
       622    566.5105     45.1239 307.7162315  +6.6710251     5190.365       7978.7     7518.866     85.07671     170.0188     339.4645      1.646     3.66     993.4337     59.82424     635.4166        29     1.468     0.998  82.32   0
       623    284.8575     45.5128 307.8332550  +6.6614093     1846.854     2897.312     4467.358     85.07671     169.7491      339.532      2.039     3.83     1018.955     59.82424      248.733        18     1.340     0.866  82.34   0
       624     34.1574     43.9616 307.9374772  +6.6536106     1058.292     1902.995      1669.84     84.80706     169.7491      339.262      1.879     4.28     1026.479     59.82424     160.1327        12     1.115     0.828 -79.51   0
       625    722.3727     43.3289 307.6515236  +6.6769866     512.9296     969.9725     1724.533     84.80706     169.6816     339.3295      2.255     3.88     989.9736     59.82424      87.1803         5     1.096     0.394  74.06   0
       626    653.0815     39.7159 307.6804390  +6.6761585     2986.781     5255.908     6234.124     84.80706     170.0188     339.4645      2.025     6.66     991.9575     59.82424     390.7664        30     2.013     0.901  74.61   0
       627    292.6425     41.1667 307.8301667  +6.6634654     9003.579     14336.42     15512.85     84.80706     169.7491     339.1945      1.732     3.81     1018.302     59.82424     1024.464        38     1.493     1.167  81.05   0
       628    472.0097     40.7545 307.7556475  +6.6696596     22121.27     34750.04     36162.61     84.53654     169.6141     339.0594      1.662     3.80     996.4807     59.82424     2658.431        45     1.553     1.117  84.89   0
       629    352.4656     41.4997 307.8052972  +6.6653383     968.9754      1533.11     1644.651     85.07672      169.884     339.3633      1.897     5.72     1010.502     59.82424     140.9783        10     1.170     0.788  82.54   0
       630     58.0960     40.8813 307.9276347  +6.6556891     2194.097     3576.795     3856.224     84.80706     170.0861     339.4982      1.686     4.33     1024.764     59.82424      310.597        20     1.529     0.813  85.19   0
       631    949.7840     40.7449 307.5571076  +6.6856552     2060.598     3076.783     3326.248     84.40096     169.6816     339.0932      1.575     3.61     983.1217     59.82424     322.7263        15     1.271     0.708  76.80   0
       632    280.4866     37.7325 307.8353336  +6.6644745     2839.047     4731.695     5594.184     85.21123     170.0188     339.4307      1.883     4.13     1018.775     59.82424     353.4389        26     1.522     1.006  84.12   0
       633    333.7378     36.0009 307.8132646  +6.6669792     788.2448     1209.689      1355.69     84.26515     169.5466     339.0594      1.509     2.56     1012.849     59.82424     130.0949         7     0.735     0.634  87.22   0
       634    970.6639     31.0198 307.5487564  +6.6903675     1252.963     1877.495     2256.038     84.67191     169.7491     339.2282      1.907     4.46     980.2687     59.82424     181.8511        12     1.279     0.656  81.23   0
       635    721.8792     30.4203 307.6521622  +6.6822996     1994.579     3105.081     2907.636     84.67191     169.4114      339.397      1.669     3.98     989.1788     59.82424     240.6141        16     1.231     0.849  73.94   0
       636    126.8790     30.6446 307.8994003  +6.6622322     647.8181     951.3438       1131.5     85.07671     169.7491      339.397      1.428     3.47     1020.363     59.82424      94.7594         5     0.792     0.438  16.99   0
       637    287.7437     25.1295 307.8327431  +6.6699216     596.3126     1162.963     1102.508     85.21123     169.6816     339.3633      2.273     4.48     1018.471     59.82424     96.81128         5     1.207     0.473  62.65   0
       638    233.1250     26.0686 307.8554071  +6.6676972     787.1779     1222.996     1466.041     85.21123      169.884      339.397      1.690     4.56     1018.401     59.82424     104.8293         8     0.902     0.655 -52.44   0
       639    987.9951   1019.3474 307.5084788  +6.2828868     7378.759     10618.58     10955.48     84.40096      169.479     317.9319      1.518     3.65     1026.853     59.82424     1094.441        30     1.473     0.896  85.01  16
       640     23.2110     23.6943 307.9427108  +6.6616088     976.8716     1368.522     634.9586     84.67191     169.4114     339.1607      1.539     5.25     1025.923     59.82424     113.1909        10     1.108     0.702 -77.22   0
       641    742.5300   1019.9001 307.6103857  +6.2744610     1328.898     2056.583     2879.961     85.07671      169.884     311.9316      1.643     4.76     1034.664     59.82424     176.0707        13     1.226     0.857 -69.12  18
       642    747.7943   1017.3052 307.6082868  +6.2757083     3226.299     4403.791     5485.271     84.80706     169.4114     335.9375      1.445     3.60     1034.364     59.82424     494.2993        16     1.280     0.707  83.90  18
       643    272.4724   1019.6083 307.8055709  +6.2588282     1482.666     2160.005     2150.053     84.53654     169.2762     315.3277      1.532     3.90     1046.662     59.82424     237.8252        13     1.295     0.691  80.73  16
       644    492.5365     19.9272 307.7478188  +6.6789470     1785.384     2666.726     2490.727     85.07671     169.7491     339.4307      1.546     3.94     994.9924     59.82424      234.115        16     1.268     0.815  81.65   0
       645    471.0162   1018.2184 307.7231807  +6.2660647     915.4953     1129.198     1661.438     84.80706     169.4114     329.3616      1.247     3.63     1039.638     59.82424     168.9209         9     1.085     0.580  76.32  16
       646    815.4500     16.1123 307.6137580  +6.6913369      582.049     821.5363     872.1656     85.07671     169.5466      339.532      1.375     3.98     985.8483     59.82424     108.6067         5     0.913     0.496  87.33   0
       647    763.5569   1016.9602 307.6017533  +6.2763778     1202.204     1630.322     1585.879     84.80706     169.7491      337.909      1.383     4.99     1033.681     59.82424     162.0394        10     1.288     0.570  66.55  16
       648    394.6732   1014.9421 307.7549894  +6.2648570     2124.716     3050.688     3069.676     85.21123     169.7491     339.3633      1.441     4.36     1043.332     59.82424     313.2456        16     1.345     0.882  63.20  16
       649    781.2822   1004.4367 307.5948128  +6.2821409     9259.157     12537.38     13116.79     85.07672     169.7491     339.3633      1.418     3.46     1032.584     59.82424     1514.603        27     1.407     0.805  86.77   0
       650    576.7863   1004.9913 307.6797072  +6.2750700     4614.949     6776.114     7166.806     84.80706      169.479     339.2957      1.501     3.79     1038.005     59.82424     694.3729        22     1.442     0.767  88.77   0
       651    546.9423   1006.0733 307.6920628  +6.2736236     1387.498     1868.113     2310.346     85.21123     169.7491     339.3633      1.492     3.55     1038.998     59.82424     233.6503        13     1.199     0.672  86.11   0
       652    326.8551   1003.8691 307.7835208  +6.2671526     16719.95     23351.14      24343.3     85.07671     169.6141     339.3633      1.457     3.41     1046.815     59.82424     2660.904        38     1.443     0.967  86.71   2
       653    331.2337   1000.0775 307.7818304  +6.2688650     1045.308     1750.109      2275.84     84.94199     169.7491     339.3633      1.524     6.03     1046.819     59.82424     171.4977        11     1.325     0.772  86.29   3
       654     23.4547   1005.1195 307.9094503  +6.2564354     998.8663      1425.99     1836.997     85.07671     169.7491     339.4307      1.545     4.02     1046.758     59.82424     145.1184         9     1.161     0.490  85.19   0
       655    842.4974   1003.7496 307.5694170  +6.2844701     1447.893     2144.861     2461.385     84.94199     169.6816     339.5657      1.566     3.76     1030.523     59.82424     205.7228        14     1.230     0.754 -81.87   0
       656    451.4821   1004.3597 307.7317574  +6.2711316     1192.069     1649.288     2068.597     85.07672     169.8166     339.3295      1.665     4.47     1040.503     59.82424     205.1917         9     1.196     0.495  86.60   0
       657    152.9867   1004.2677 307.8556983  +6.2611458     606.4562     819.8033     517.3607     84.53654     169.5466     339.2957      1.234     4.63     1046.296     59.82424      101.062         7     1.207     0.505  83.66   0
       658    298.3124   1001.2210 307.7954612  +6.2672875     1057.843     1500.221     1365.669     85.07672      169.479     339.2957      1.355     4.12     1046.811     59.82424     175.3027        10     1.222     0.568  86.82   0
       659    942.6158    997.8973 307.5280396  +6.2902291     10076.23      14167.8      14465.9     85.07671      169.479     339.1945      1.498     3.60      1028.06     59.82424     1406.578        30     1.449     0.865  83.60   0
       660    573.9438    997.2466 307.6811475  +6.2781723     9371.937      13070.9        13845     85.07671     169.7491     339.4982      1.462     3.33     1038.014     59.82424     1491.748        29     1.406     0.840  87.01   0
       661    916.2739    994.1223 307.5391043  +6.2909086     13718.31     19639.65     20729.65     85.34552     170.0188     339.4307      1.516     3.41     1028.719     59.82424     2256.139        42     1.448     1.092  85.52   0
