#   1 NUMBER                 Running object number                                     
#   2 X_IMAGE                Object position along x                                    [pixel]
#   3 Y_IMAGE                Object position along y                                    [pixel]
#   4 ALPHA_J2000            Right ascension of barycenter (J2000)                      [deg]
#   5 DELTA_J2000            Declination of barycenter (J2000)                          [deg]
#   6 FLUX_APER              Flux vector within fixed circular aperture(s)              [count]
#   9 FLUXERR_APER           RMS error vector for aperture flux(es)                     [count]
#  12 FLUX_RADIUS            Fraction-of-light radii                                    [pixel]
#  13 FWHM_IMAGE             FWHM assuming a gaussian core                              [pixel]
#  14 BACKGROUND             Background at centroid position                            [count]
#  15 THRESHOLD              Detection threshold above background                       [count]
#  16 FLUX_MAX               Peak flux above background                                 [count]
#  17 ISOAREA_IMAGE          Isophotal area above Analysis threshold                    [pixel**2]
#  18 A_IMAGE                Profile RMS along major axis                               [pixel]
#  19 B_IMAGE                Profile RMS along minor axis                               [pixel]
#  20 THETA_IMAGE            Position angle (CCW/x)                                     [deg]
#  21 FLAGS                  Extraction flags                                          
         1    225.1772     21.4178 307.8650846  +6.6681128     9129.639     16254.88     16695.99     84.22869     168.5244     337.0153      1.900     3.95     1011.574     59.41624     1020.154        45     1.630     1.296 -73.10   0
         2    970.6305     18.9973 307.5553623  +6.6940778     4259.921      6128.16     6169.164     83.96001     168.3903     336.8812      1.521     3.19     980.3787     59.41624     574.1199        24     1.275     0.989 -70.67   0
         3    569.2263     19.5939 307.7221665  +6.6804123     2647.794     4361.215     4542.561     83.96001     168.3903     336.8812      1.767     3.62     991.8256     59.41624     324.8885        24     1.262     1.141 -50.15   0
         4    771.5634     17.7437 307.6381381  +6.6879475     2045.025     3236.899     3346.511      84.3627     168.5914     337.1159      1.744     3.52     988.2196     59.41624     256.7313        19     1.204     0.981 -71.96   0
         5    754.8693     11.8652 307.6452739  +6.6898165     7072.569     10964.32     11179.73     84.49651     168.6584     337.0823      1.634     3.55     989.1129     59.41624     895.9522        33     1.412     1.123 -78.74   0
         6    675.1418     11.0907 307.6784349  +6.6874693     3471.253     5696.018     5713.366      84.3627     168.5914     337.2164      1.730     3.72     989.8041     59.41624     439.2729        30     1.518     1.123 -73.67   0
         7    377.2522     11.3690 307.8022257  +6.6773704     749.5579     1257.345     1375.651      84.3627     168.7254     337.0153      1.807     6.04     1001.492     59.41624     115.1993        11     1.591     0.645 -63.07   0
         8     76.3134      6.9912 307.9274352  +6.6690603     7508.381     12998.85     13699.23     84.09446     168.2561      328.769      1.848     3.88     1012.044     59.41624     892.6077        41     1.580     1.248 -69.45  16
         9    475.3545      7.2264 307.7615956  +6.6823721     5439.713     9446.233     9841.807     83.96001     168.6584     330.7217      1.827     3.92     995.9169     59.41624     621.3192        36     1.481     1.274 -75.73  16
        10     22.4849      7.3365 307.9497923  +6.6671047     1072.384     1701.534     1380.653      84.6301     168.7254     331.5064      1.719     3.92     1011.284     59.41624     162.2748        12     1.075     0.778 -35.71  16
        11    721.9006      6.0160 307.6591726  +6.6911289     747.8155     1052.818     1237.836     84.49651     168.3232      320.028      1.604     3.78     990.0702     59.41624      129.463         8     0.838     0.679 -54.62  16
        12    371.8170      2.7022 307.8047770  +6.6807662     11115.51     17070.92     17715.44     84.49651     153.5838     276.3054      1.676     4.17     1002.031     59.41624     1278.886        36     1.480     1.142 -41.70  24
        13    550.9975      4.5272 307.7302500  +6.6860222     758.3586     1273.558      1516.58     83.96001     168.1217     302.5355      1.673     3.27     992.1835     59.41624     106.0205         6     0.784     0.493  -7.62  16
        14    145.6226      2.7095 307.8987777  +6.6731609      2022.63     2944.749     3579.069     84.49651     153.5838     276.4688      1.658     3.81     1011.662     59.41624     266.1448        19     1.222     1.005 -56.96  24
        15    431.1332      8.9436 307.7799154  +6.6801799     682.2504     1100.621     1070.681      84.6301     168.5244     337.0488      1.531     2.59     997.0919     59.41624        129.7         6     0.738     0.555 -47.28   0
        16    136.4194      2.0169 307.9026257  +6.6731372     1225.737      1744.61     2058.381     81.50211     144.4096     265.2495      1.491     5.04     1011.792     59.41624     192.7906        14     1.342     0.765 -26.08  24
        17    840.1517      1.5571 307.6101765  +6.6969227     768.2706     844.5963     892.1166      76.3493     137.3531     257.4692      1.209     4.76     984.3152     59.41624     137.3143         8     1.104     0.583 -25.96  24
        18    437.8280      1.5668 307.7773821  +6.6834502     1348.728      1749.96     1764.291      76.0528     137.5175     257.5131      1.340     4.41     996.9727     59.41624     213.7432        11     1.193     0.650  -2.34  24
        19    957.6314    996.0956 307.5279941  +6.2902089      10144.7     13722.98     14612.52      84.6301     168.3903     337.1829      1.415     2.82     1020.232     59.41624     1498.644        30     1.294     0.935 -62.15   0
        20    795.7825   1023.1487 307.5942989  +6.2736376     1305.582     1531.781     1327.059     79.67982     142.2023     262.3804      1.219     2.74     1024.378     59.41624       252.36         7     0.846     0.501 -48.77  24
        21    675.4435    997.8304 307.6451225  +6.2800697     511.7443     725.9902     527.8908     84.09446     168.5914     336.9483      1.151     2.75     1027.109     59.41624     105.6567         5     0.721     0.455 -69.21   0
        22    588.9861    995.4048 307.6811071  +6.2781790     9506.004     13225.49     14028.49     84.09446     168.3232     336.9483      1.474     2.98     1028.492     59.41624     1523.229        30     1.352     0.935 -65.53   0
        23    931.2889    992.2264 307.5390635  +6.2909279     14340.28     19869.94     20304.71      84.6301     168.3232     336.9483      1.482     3.01     1022.049     59.41624     2379.166        43     1.339     1.190 -53.68   0
        24    644.1224    992.6916 307.6583020  +6.2811440     1477.189     2246.055     2160.947     84.22869     168.8593     337.1159      1.570     3.27     1027.612     59.41624     238.1016        13     1.152     0.717 -66.43   0
        25     40.9684    993.9307 307.9087215  +6.2603982     688.4762      938.116     1149.217      84.3627     168.5914     337.0823      1.260     2.48     1030.967     59.41624     134.1644         5     0.618     0.582 -87.15   0
        26      5.5466    992.4106 307.9234812  +6.2598338     2652.887     3623.614     3574.711     83.82536     168.5244     314.7603      1.434     3.01     1031.628     59.41624       431.21        20     1.266     0.835 -67.75  16
        27    575.3120    991.2184 307.6869264  +6.2794498     4711.266     6471.292     7039.714     84.22869     168.3232     336.9818      1.415     2.84     1028.474     59.41624     746.5099        21     1.186     0.871 -71.96   0
        28    684.8421    990.6556 307.6414606  +6.2833463     1589.942     2341.044     2241.203      84.3627     168.5244     337.0824      1.483     3.69     1026.509     59.41624     252.1398        12     1.181     0.658 -63.21   0
        29    110.1183    989.6975 307.8801512  +6.2644717     911.6954     1418.335     1454.479      84.3627      168.993     337.1829      1.505     4.27     1029.772     59.41624     144.3102         7     0.915     0.568 -83.05   0
        30    528.5331    987.6694 307.7064715  +6.2793490     2481.356     3181.896     3356.967     84.49651     168.6584     337.0824      1.399     3.19     1028.902     59.41624     364.7236        17     1.176     0.859 -68.04   0
        31    963.0127    979.7502 307.5263071  +6.2971372     51441.36     69761.77     72725.24     83.82536     168.5244     336.8141      1.408     2.82     1019.297     59.41624     8643.601        61     1.398     1.061 -65.55   0
        32     35.8788    979.7188 307.9113155  +6.2660946     3584.725     5086.815     5130.033     84.76348     168.8593     337.2834      1.506     3.06     1030.705     59.41624     583.3521        24     1.404     0.882 -77.21   0
        33    368.4069    981.2564 307.7731820  +6.2766305     670.5375     927.7943     744.8892     83.96001     168.4574     336.8141      1.158     3.78     1030.637     59.41624     128.2906         6     0.871     0.499 -46.49   0
        34    270.2233    978.0762 307.8140607  +6.2746489      1925.29     2642.302     3218.692     84.09446     168.4574     337.0153      1.462     2.95     1030.961     59.41624     330.9948        15     1.086     0.832 -83.59   0
        35      4.6625    978.9472 307.9243037  +6.2653626     614.5756     849.9739     825.3797     84.49651     168.5244     304.4339      1.401     3.71     1031.172     59.41624     105.3367         5     0.822     0.494  34.59  16
        36    668.9592    976.1678 307.6485433  +6.2887971     973.9362     1266.727     1154.146     84.09446     168.4574     336.9483      1.295     3.15     1026.522     59.41624     174.3807        10     0.948     0.716 -64.81   0
        37    158.2299    977.0224 307.8606015  +6.2713222     641.5067     838.4777     846.0357     83.82536     168.3232     336.8812      1.618     3.39     1029.739     59.41624     108.7213         6     0.878     0.491  52.84   0
        38    860.9905    973.6713 307.5688797  +6.2962436     2588.558     3647.736     4147.687     83.96001     168.1889     336.8812      1.498     2.96     1021.886     59.41624     448.4653        18     1.306     0.801 -65.28   0
        39    809.1431    971.5774 307.5904815  +6.2953771     7556.274     10214.02     11774.51     84.09446     168.5914     336.8812      1.507     3.21     1022.778     59.41624     1260.311        34     1.776     0.909 -67.56   0
        40     15.6907    973.9208 307.9198944  +6.2678090     779.6879     1001.221     876.0745     84.22869     168.7923     337.1494      1.363     3.76     1030.832     59.41624     132.3119         8     1.116     0.572 -55.52   0
        41    278.5037    970.6849 307.8108716  +6.2779786     1703.242     2495.598      2702.99     84.49651      168.993     337.1494      1.616     3.71     1031.103     59.41624     252.4451        15     1.287     0.715 -61.29   0
        42    596.0236    970.5972 307.6790190  +6.2886572     953.7367     1117.364     1026.857     84.09446     168.2561     336.8812      1.264     3.40     1027.854     59.41624     149.4226         8     0.830     0.670 -82.18   0
        43    242.9989    969.8913 307.8256419  +6.2771142     943.1593     1511.385     1024.772     83.69048     168.1889     336.8477      1.715     5.61     1030.655     59.41624     118.8091        12     1.171     0.874 -76.76   0
        44    103.5183    968.6400 307.8836034  +6.2729438     2944.066     4311.118     4385.494     84.49651     168.6584     337.0153      1.560     2.89     1029.659     59.41624      419.536        23     1.283     0.975 -89.14   0
        45    997.2669    966.5900 307.5125226  +6.3037130     8042.607      10765.2     11571.05     83.96001     168.3903     336.9818      1.389     2.83     1017.229     59.41624     1265.787        30     1.301     0.954 -56.99   0
        46     13.8313    965.9678 307.9209356  +6.2710300     861.5159     1217.132     836.2806     83.96001     168.3232     336.7806      1.534     4.69     1030.591     59.41624     116.3019         9     1.051     0.781  85.47   0
        47    253.5940    963.0644 307.8214726  +6.2802886      703.561      827.929     961.2196     83.82536     168.3232     336.8477      1.399     3.03     1030.835     59.41624     116.8992         5     0.935     0.641   3.24   0
        48    679.4830    960.9015 307.6446860  +6.2954523     829.2592     924.0666     780.0973     84.49651      168.993     337.1829      1.124     3.41     1025.697     59.41624     143.5594         6     0.783     0.497 -84.73   0
        49    971.1097    958.1615 307.5236679  +6.3063211     2329.988     2879.529     2854.659     84.49651     168.5244     337.1159      1.303     2.66     1018.234     59.41624     431.7541        13     1.066     0.694 -61.80   0
        50     28.9172    956.2862 307.9149988  +6.2755348     1264.066     1858.048     2466.684     84.22869     168.7923     337.1829      1.637     4.77     1030.133     59.41624     206.3104        14     1.456     0.651 -86.04   0
        51    303.9653    954.4164 307.8008472  +6.2855501     4838.496     6910.133     7080.854     84.09446     168.3232     336.9147      1.498     3.21     1031.119     59.41624     677.8773        26     1.327     1.012 -64.64   0
        52    830.6170    954.8290 307.5821257  +6.3030094     1463.091     1792.199     2141.029     84.09446     168.3232     337.0153      1.306     3.62     1021.661     59.41624      215.332        12     1.127     0.772 -53.66   0
        53    691.7634    954.2864 307.6398084  +6.2985942      5312.06     7069.167     7139.615     84.49651     168.5244     337.0824      1.427     3.15     1024.966     59.41624     824.8966        23     1.263     0.887 -66.53   0
        54    514.1937    952.5463 307.7136085  +6.2933705     1208.442     1698.509     1620.597     83.96001     168.3232     336.7806      1.619     4.09     1028.558     59.41624       181.01        12     1.071     0.771 -62.47   0
        55     72.8934    952.0087 307.8968825  +6.2787804     2456.054      3681.49     3576.281     84.09446     168.1889     336.8812      1.523     3.08     1029.719     59.41624     392.3138        20     1.178     1.063 -75.60   0
        56    923.8798    950.5344 307.5435381  +6.3078951       1111.5     1420.806     1126.144     84.76348     168.7254     337.0488      1.406     3.99     1019.458     59.41624     140.8519        10     1.025     0.656 -66.49   0
        57   1015.6046    948.7460 307.5055047  +6.3116919     796.2429     1186.072     872.7651     83.82536     168.3232      336.747      1.422     4.93     1016.677     59.41624     120.7048         8     1.200     0.572 -73.39   0
        58    995.3517    947.6644 307.5139520  +6.3114635     743.2835     804.0399     1046.099      84.3627     168.4574     337.0824      1.119     3.39     1017.292     59.41624     147.1716         5     0.752     0.443 -72.88   0
        59    340.0601    947.9898 307.7860750  +6.2894147     1025.044     1381.352     1179.215     83.82536     168.4574     336.7806      1.343     3.36     1030.793     59.41624     182.9968         8     0.846     0.635 -52.00   0
        60    616.4260    946.6520 307.6713516  +6.2992265     1696.445     2214.211     2231.249     84.09446     168.7254     336.9818      1.357     3.42     1026.904     59.41624     279.6455        13     1.090     0.790 -45.02   0
        61    105.5059    943.9812 307.8836115  +6.2831915     785.2645      880.334     1347.524      84.3627     168.3232     336.9147      1.286     5.25     1029.529     59.41624     157.4637         7     1.206     0.645 -59.12   0
        62    335.7589    940.8753 307.7881011  +6.2922078     1575.322      2249.26     2438.308      84.3627     168.5914     337.1159      1.549     3.62     1030.833     59.41624     214.2395        14     1.175     0.782 -68.29   0
        63    655.8277    942.9642 307.6551126  +6.3020672     1485.141     1956.221      1296.77     84.09446     168.3232     336.8812      1.411     3.23     1025.752     59.41624     231.2549        11     0.973     0.762 -56.86   0
        64    603.5386    939.2789 307.6769515  +6.3018396      657.207     992.1893     1142.934      84.6301     168.6584     337.0824      1.472     3.68     1026.936     59.41624     120.8988         5     0.923     0.492 -83.96   0
        65    802.6315    936.6205 307.5943591  +6.3095930     1122.366     1871.797       1901.6     83.96001     168.3903     336.9483      1.602     3.93      1021.95     59.41624     186.0365        12     1.282     0.639 -69.62   0
        66    940.0775    933.4389 307.5373843  +6.3154940     8315.887     10851.34     11323.85      84.3627     168.6584     337.0824      1.385     2.92     1017.986     59.41624     1347.879        27     1.244     0.938 -69.87   0
        67    476.0392    930.4510 307.7301973  +6.3012152     2203.924     3207.363     3190.007     84.22868     168.5914     337.0824      1.519     3.37     1028.788     59.41624     349.6216        17     1.275     0.847 -64.20   0
        68    149.9990    932.1633 307.8655348  +6.2895666     573.8827     849.3306     713.2402     83.55539     168.3903     336.8812      1.648     3.82      1029.58     59.41624     95.04846         5     0.832     0.504  65.88   0
        69    644.8685    930.8467 307.6600712  +6.3067038      759.114      1008.03     535.0653     84.49651     168.5244     337.0488      1.293     3.12     1025.665     59.41624     125.3977         8     0.828     0.655 -45.76   0
        70    377.5870    929.0126 307.7711309  +6.2985088     10446.85     14857.72     15137.64      84.3627     168.2561     337.0153      1.502     3.03     1030.357     59.41624      1520.78        33     1.375     1.000 -66.77   0
        71    297.7143    928.0300 307.8043332  +6.2962347     7416.069     10573.38     10689.56      84.6301     168.3232     336.9483      1.484     3.07     1031.207     59.41624     1057.875        28     1.368     0.931 -70.24   0
        72    625.8354    922.3689 307.6682606  +6.3095675     1247.439     1811.365     1837.703     84.09446     168.3232     336.8141      1.523     3.37     1025.903     59.41624     181.8929        12     1.044     0.747  88.24   0
        73    810.5619    921.7155 307.5915659  +6.3160120     877.0757     1286.294     1986.863     84.49651     168.5244     337.0153      1.684     4.73     1021.149     59.41624     151.4073        11     1.283     0.735 -35.06   0
        74    955.6213    918.5460 307.5314280  +6.3221616     1210.242     1778.464     2425.672     83.96001     168.5914     336.8812      1.693     2.66     1017.344     59.41624     225.8951         9     0.921     0.647 -55.00   0
        75    188.5858    917.9030 307.8499928  +6.2967510     578.8398     673.3519     1015.843      84.3627     168.3232     336.8477      1.471     5.00     1030.175     59.41624     78.51648         6     1.362     0.519 -51.30   0
        76    912.3541    917.3442 307.5494376  +6.3212147     914.2145     1413.873     1378.196     84.49651     168.5914     337.1494      1.660     4.88     1018.071     59.41624     137.4747         9     1.284     0.526 -62.91   0
        77    454.6566    916.4653 307.7395481  +6.3062731     707.6396     817.0306     430.7069      84.6301     168.5244     337.0824      1.271     3.94     1028.814     59.41624     100.9027         6     0.938     0.474 -88.31   0
        78   1023.0231    914.0429 307.5035861  +6.3262679     902.8239     1047.407      979.638      80.8061     143.8609     264.6098      1.170     3.73     1015.953     59.41624     158.5522         7     0.855     0.569 -45.97  24
        79    884.8996    912.4274 307.5610046  +6.3223287      621.387     578.8733     744.3036     84.49651     168.3232     336.9818      1.115     3.88       1018.5     59.41624     133.5046         6     1.019     0.451 -60.55   0
        80    792.1086    911.5436 307.5995710  +6.3195956      1886.36     2606.827     2749.863      84.3627     168.4574     337.2164      1.400     3.07      1021.27     59.41624     322.6393        12     1.116     0.682 -62.60   0
        81    615.2156    912.0585 307.6730177  +6.3134692     823.1325     1321.518     1689.843     83.82536     168.5244     336.8141      1.831     4.70     1025.935     59.41624     113.8684         8     1.184     0.589 -12.67   0
        82   1023.5073    907.2582 307.5036122  +6.3290854     1408.438     1673.643     2002.393     75.60587     136.5281     256.5461      1.241     4.60     1015.438     59.41624     227.4255        11     1.447     0.502 -77.15  25
        83    656.2462    908.5787 307.6560947  +6.3162786     794.1743     1029.679     408.0417     84.09446     168.5914     336.9147      1.543     3.92      1024.52     59.41624     144.6272         7     0.938     0.551 -60.99   0
        84     42.8322    908.5684 307.9108345  +6.2957042     1008.618     1517.041     1024.833     83.96001     168.3232     336.7806      1.554     4.86     1029.375     59.41624     140.1682         9     1.178     0.778 -85.17   0
        85    668.0660    907.4252 307.6512247  +6.3171502     678.8989     909.3331     909.2396     84.09446     168.5244     336.9818      1.415     4.54     1024.047     59.41624     111.7687         6     1.152     0.508 -66.07   0
        86    577.2357    907.4525 307.6889455  +6.3140999     1281.747     1738.035     1820.704      84.3627     168.5914     337.0824      1.549     3.55     1026.565     59.41624     181.8706        12     1.022     0.798 -67.59   0
        87    710.8433    904.9462 307.6335425  +6.3196041     2864.396     4092.471     4662.479     84.49651     168.5914     337.0823      1.481     3.00     1022.758     59.41624     419.0889        22     1.270     1.037 -45.59   0
        88   1000.9548    902.9002 307.5131247  +6.3301331     708.6417      825.507      50.3826     84.49651     168.5244     337.3169      1.169     3.52     1015.751     59.41624      129.393         7     0.840     0.681 -58.67   0
        89    107.4258    901.1343 307.8842625  +6.3009463     3052.523     4574.226     5081.063     84.09446     168.5244     336.9483      1.610     3.48     1029.453     59.41624     431.6434        23     1.372     0.996 -69.78   0
        90    871.4581    901.3539 307.5669585  +6.3264523     1021.141       1265.9     962.9188     84.49651     168.5914     337.1829      1.316     3.12     1018.531     59.41624     155.1657         9     0.943     0.663 -56.57   0
        91    988.5372    900.1652 307.5183736  +6.3308485     914.5705     1138.851     1164.386      84.3627     168.6584     337.0488      1.501     3.92     1015.918     59.41624     126.0543        11     1.058     0.870 -68.54   0
        92    250.7208    900.1309 307.8247898  +6.3061759     2232.586     3407.559     3632.247     84.76348     168.8593     337.0488      1.605     3.37     1031.161     59.41624     333.4482        16     1.133     0.910 -67.91   0
        93    124.7653    900.3981 307.8770868  +6.3018333     1921.883     2828.224     3498.499     83.55539     168.3903     336.8812      1.640     3.35     1029.502     59.41624     287.3041        16     1.215     0.798 -60.31   0
        94    284.5493    896.4750 307.8108649  +6.3088210     901.0633     1346.903     1130.477     84.49651     168.6584     337.0824      1.644     5.78     1031.322     59.41624     114.8788        11     1.247     0.755 -84.01   0
        95    389.6660    896.2366 307.7672195  +6.3124464     928.1927     1533.413     1320.976      84.3627     168.5244     337.1494      1.603     5.15     1029.751     59.41624     151.8184         9     1.276     0.587 -54.49   0
        96    842.5751    895.3397 307.5791557  +6.3279713     748.4106     1112.432     808.2335     84.09446     168.5914     336.9483      1.765     4.46     1019.167     59.41624     133.1174         8     1.217     0.465 -81.39   0
        97    705.3846    894.0054 307.6361772  +6.3239389     7584.776      10745.9     11477.96     84.09446     168.2561     336.9147      1.499     3.04     1022.617     59.41624     1185.438        32     1.341     0.993 -66.53   0
        98     65.4574    892.2756 307.9019900  +6.3031922     1357.754     1737.279     1918.404      84.6301     168.5244     337.0488      1.500     4.75     1029.396     59.41624     180.8334        12     1.177     0.762 -84.59   0
        99    943.1370    890.1978 307.5375632  +6.3334501     3131.636     4309.813     4444.941     83.82536     168.3232     336.8477      1.398     2.93     1017.019     59.41624     544.4324        18     1.162     0.848 -59.90   0
       100     78.3233    890.8036 307.8966970  +6.3042327     1114.874     1600.403      944.721     83.96001     168.0545     336.9147      1.515     4.05     1029.408     59.41624     151.0524        10     0.981     0.801 -68.71   0
       101    388.3321    887.2444 307.7680766  +6.3161143     17121.37     25071.61     26499.45     84.49651     168.5244     337.1159      1.568     3.07     1029.664     59.41624     2339.583        42     1.451     1.075 -68.44   0
       102    123.0475    888.3646 307.8782068  +6.3067438     1364.978     1742.677      2124.39     84.09446     168.5244     336.9483      1.400     2.71     1029.497     59.41624     237.3381        12     0.948     0.799  68.36   0
       103    259.3131    886.7415 307.8216735  +6.3119925     1245.956     1758.747     1083.863     84.49651     168.5914     337.1829      1.531     4.54      1031.25     59.41624      173.354        14     1.435     0.699 -73.06   0
       104    439.2641    886.3862 307.7469538  +6.3181763     850.4902     1179.527     1341.525     83.96001     168.3903     336.9483      1.436     3.43     1028.478     59.41624      120.182         8     0.961     0.570 -70.54   0
       105    151.6177    878.0834 307.8666897  +6.3119491     1735.511     2667.322     2852.596     84.09446     168.2561     337.0153      1.747     4.87     1029.575     59.41624     231.8035        18     1.445     0.951 -80.34   0
       106    718.9778    875.7659 307.6311446  +6.3319242     733.1083      1803.94      2105.02     83.96001     168.3903     336.8141      2.723     8.68     1021.932     59.41624     136.7231        19     2.579     0.815 -72.27   0
       107    466.1046    878.1598 307.7360841  +6.3224724     1036.704     1546.544     1696.865     84.49651     168.5244     337.2164      1.483     2.83     1027.473     59.41624     160.9244         8     0.826     0.631 -48.54   0
       108    546.4178    875.1274 307.7028320  +6.3264147     689.2321     758.5232     618.4215     83.96001     168.5244     337.0153      1.320     3.27     1026.448     59.41624     112.8951         6     0.755     0.630 -28.30   0
       109    135.2799    871.6604 307.8736915  +6.3140517     2641.126     3917.883     4350.429      84.6301     168.5914     337.0488      1.645     3.46     1029.529     59.41624     388.1215        19     1.319     0.910 -61.24   0
       110    933.3804    871.9661 307.5422265  +6.3406524      2214.53     2758.437     3077.087     83.96001     168.3903     336.8812      1.284     2.95     1017.152     59.41624     375.2637        17     1.188     0.769 -64.07   0
       111    903.9952    871.3542 307.5544514  +6.3399247     2206.899     2895.098     3379.153     83.82536     168.2561      336.747      1.433     3.43     1017.584     59.41624     339.9621        17     1.237     0.845 -56.67   0
       112    867.4355    870.9742 307.5696483  +6.3388616     3413.385     4515.591     4536.454     84.09446     168.3903     336.8477      1.343     2.89     1017.963     59.41624     542.0234        18     1.153     0.790 -67.25   0
       113    603.4046    862.4477 307.6795915  +6.3335576       357477     511342.9     535351.6     83.82536     168.3903      336.747      1.565     3.09     1024.815     59.41624     48686.86       161     1.641     1.271 -68.15   0
       114    497.8163    869.5385 307.7232045  +6.3270945     695.0167     1008.869     1210.379     83.96001     168.5244     336.8812      1.427     3.09     1026.651     59.41624     124.6047         5     0.734     0.454  20.89   0
       115    447.6805    865.0032 307.7441789  +6.3272871     7919.895     11865.88     12631.63     83.82536     168.1217     336.8141      1.581     3.14     1027.699     59.41624     1133.237        36     1.383     1.149 -66.78   0
       116    690.9821    865.4906 307.6431170  +6.3352308     1274.926     1919.988      1617.19     84.22868     168.3232     336.9818      1.476     4.84     1021.924     59.41624     195.1883        10     1.089     0.611 -62.90   0
       117    390.8815    863.4497 307.7678199  +6.3260242      13061.4     19176.44     20424.69     84.49651     168.6584     337.1159      1.581     3.10     1029.238     59.41624     1808.773        44     1.455     1.137 -64.51   0
       118    709.2014    859.6654 307.6357459  +6.3382451     3942.339     5700.757     6226.377     83.82536     168.2561     336.8477      1.508     2.87     1021.629     59.41624     599.6492        25     1.291     0.979 -67.57   0
       119    941.6835    858.5466 307.5392279  +6.3464702      6084.04     8148.394     8854.681     84.49651     168.5914     337.2164      1.407     2.91     1016.331     59.41624     935.6951        24     1.233     0.882 -60.04   0
       120    684.0991    853.8376 307.6463672  +6.3398120     3691.063     5296.122     5571.842     84.49651     168.4574     337.3169      1.516     3.01     1021.777     59.41624     601.7588        21     1.339     0.878 -68.01   0
       121    780.7825    856.2083 307.6061329  +6.3420647      734.842     1200.776     1208.097     84.09446     168.3232     336.9147      1.435     3.83     1019.687     59.41624     121.4743         6     0.783     0.536 -59.66   0
       122    872.5498    853.0114 307.5681268  +6.3464490     1959.266     2512.731     3109.559     83.82536     168.4574     336.7806      1.385     3.19     1017.491     59.41624     285.5882        13     1.090     0.750 -64.97   0
       123    676.2567    849.7500 307.6497617  +6.3412375      1890.85     4129.052     5213.007     84.49651     168.5914     337.1159      2.346     8.31     1021.824     59.41624     291.2766        30     2.378     0.973 -61.58   0
       124    999.3484    851.7617 307.5155052  +6.3511945     870.1497     1125.206     1309.675     84.22869     168.5914     337.0824      1.279     3.95     1013.306     59.41624     144.5258         8     1.075     0.547 -68.99   0
       125    960.6163    846.3187 307.5317744  +6.3521505     3443.318     4902.227     5197.658     84.09446     168.2561     336.9483      1.496     2.76     1014.848     59.41624     574.0287        22     1.259     0.875 -75.72   0
       126    370.8068    847.5177 307.7766940  +6.3319289     1002.086     1418.616     1468.309     84.09446     168.2561     336.9147      1.401     3.08     1029.313     59.41624     162.5751         8     0.856     0.661  53.73   0
       127    418.6533    842.6340 307.7569877  +6.3355499     2777.263     4107.763     4408.126      84.3627     168.5914     337.0153      1.632     3.53     1027.763     59.41624      342.731        22     1.251     1.017 -55.88   0
       128    554.8757    832.1276 307.7007665  +6.3444519     3165.508     4564.971     4706.514     84.76348     168.8593     337.0823      1.542     3.17     1024.596     59.41624     469.8956        22     1.230     0.956 -64.17   0
       129    899.6755    831.3690 307.5575866  +6.3562903     1259.122     1775.699     1841.688      84.3627     168.6584     337.0488      1.568     4.07     1016.279     59.41624     218.6755        14     1.272     0.733 -69.86   0
       130    620.3816    829.6046 307.6736453  +6.3476862     745.9265       979.28     918.2469     84.09446     168.1889     336.8812      1.465     4.24     1022.787     59.41624     102.4633         8     0.949     0.659  87.95   0
       131    601.9183    828.1668 307.6813619  +6.3476620     6244.766      9153.97     9996.715      84.3627     168.5244     337.0488      1.556     3.10     1023.122     59.41624      888.549        29     1.386     0.965 -60.69   0
       132    519.6665    827.4470 307.7155471  +6.3452053     1600.063     2318.978     2140.523     84.49651     168.5244     337.1159      1.545     3.87     1025.164     59.41624     220.0096        16     1.272     0.800 -77.73   0
       133    313.0723    828.3349 307.8013184  +6.3379119     802.9904     1150.525     2018.756     84.49651     168.5914     337.1159      1.711     4.48     1030.205     59.41624     115.6514         9     1.001     0.649  53.65   0
       134    608.4918    827.3566 307.6786591  +6.3482165     1331.231     2192.756     2463.562     84.49651     168.5244     337.2164      1.775     3.53     1022.905     59.41624     179.7623        13     1.128     0.783 -54.70   0
       135    937.4041    826.5117 307.5420793  +6.3595545      1501.26     1945.185     1753.683     83.96001     168.2561      336.747      1.308     2.82     1015.022     59.41624     266.1595        10     0.926     0.687 -57.27   0
       136    161.1854    826.5269 307.8644583  +6.3335569     1343.612     1813.669     1629.121     83.96001     168.3232     336.9818      1.533     4.45     1029.591     59.41624     176.8834        13     1.046     0.887 -81.06   0
       137      7.7924    825.7727 307.9281864  +6.3287085     576.1086     868.1569     602.4306     84.09446     168.3903     334.2891      1.509     3.45     1029.228     59.41624      82.1665         5     0.983     0.351 -45.32   0
       138    737.1407    825.3623 307.6252945  +6.3533424     788.4858     1150.901       975.05     84.49651     168.6584     337.0824      1.367     5.03     1019.796     59.41624     101.7068         8     1.121     0.639 -17.89   0
       139    572.5038    822.1628 307.6937805  +6.3491564     20322.24     29915.49     31174.76     84.49651     168.4574     337.2164      1.584     3.15     1023.647     59.41624     2701.066        47     1.477     1.123 -65.74   0
       140    413.6979    823.5281 307.7596896  +6.3432722     813.8796     1072.822     1039.506     84.22869     168.7254     337.0824      1.385     4.59     1027.123     59.41624     130.3014         8     1.078     0.554  22.68   0
       141    986.1047    820.3871 307.5220572  +6.3637074     4219.056     5803.989     5983.604     84.22869     168.3232     336.8812      1.435     2.97     1012.774     59.41624     688.1761        23     1.345     0.855 -60.85   0
       142    219.4128    821.6494 307.8404412  +6.3375273     735.0834     1131.799     1228.454     83.82536     168.5244     336.8141      1.648     4.76     1030.397     59.41624     113.6016         7     1.040     0.618 -67.11   0
       143     82.8964    813.0038 307.8974284  +6.3365077     1703.549     2648.814     3150.703     84.22869     168.2561      336.747      1.655     5.42     1029.203     59.41624     228.4905        16     1.507     0.812 -83.54   0
       144    365.2080    810.8232 307.7802565  +6.3468915     3255.475      4647.84     4892.869     84.09446     168.3903     336.9147      1.481     3.26     1028.644     59.41624     448.7163        19     1.187     0.918 -55.69   0
       145    830.6495    806.6350 307.5870857  +6.3641986     60665.46      83955.8     87605.54      84.3627     168.6584     336.9818      1.466     2.94     1017.301     59.41624      8644.52        64     1.426     1.108 -61.16   0
       146     65.1379    808.8731 307.9049431  +6.3376157     2370.389     3478.283     3963.632      84.6301     168.5914     337.1159      1.580     3.36     1029.185     59.41624     344.1189        18     1.226     0.856 -85.55   0
       147    769.5620    808.4449 307.6123971  +6.3614109     747.2169     1107.161     1251.132     84.22869     168.5244     336.9818      1.833     3.51     1018.447     59.41624     130.8195         8     1.069     0.672 -86.83   0
       148    287.9947    804.4927 307.8125378  +6.3469141      5169.85     8672.541     11444.72     84.09446     168.2561     336.8477      2.050     3.56     1030.183     59.41624     710.8243        37     1.592     1.183 -76.22   0
       149    473.8247    805.4440 307.7353272  +6.3527542     920.6677     1423.576     1367.942     83.96001     168.5914     336.9483      1.528     3.37     1025.656     59.41624     141.1086         9     0.837     0.794  15.24   0
       150    955.9484    801.8068 307.5352053  +6.3703736     9612.198     13112.81     13920.52     83.96001     168.3903     336.6799      1.422     2.96     1013.157     59.41624     1599.894        29     1.334     0.902 -66.63   0
       151    758.8955    801.2640 307.6170685  +6.3640194     22881.42     32796.09     34484.88      84.3627     168.7254     337.1159      1.510     3.14     1018.388     59.41624      3453.44        42     1.407     1.067 -63.96   3
       152    752.6012    797.7442 307.6198010  +6.3652624     93951.83     134275.2     139696.1     83.82536     168.2561      336.747      1.522     3.01     1018.307     59.41624     13297.04        78     1.500     1.143 -64.37   2
       153    397.5039    798.6626 307.7672534  +6.3529956     20655.54     31556.82     33327.66      84.3627     168.7254     337.1494      1.670     3.33     1026.848     59.41624     2576.005        53     1.517     1.209 -69.69   0
       154      9.2216    800.2300 307.9284572  +6.3393024     3812.294     5832.395     6004.375     83.96001     168.3903     336.9483      1.620     3.47     1029.118     59.41624     490.3077        27     1.485     0.966 -72.64  16
       155    459.3731    796.5159 307.7416300  +6.3559562     22455.05     33623.66     35402.46      84.6301     168.3232     336.9483      1.648     3.30      1025.55     59.41624     2806.538        50     1.521     1.159 -73.77   0
       156    446.7347    798.9077 307.7467985  +6.3545450     1435.533     2007.478     1946.088      84.3627     168.7923     337.0824      1.522     4.28     1025.732     59.41624     183.5961        15     1.272     0.829 -62.16   0
       157    996.3503    795.4193 307.5186384  +6.3743580      2283.38     3200.222     3032.146     83.96001     168.6584     336.9147      1.437     3.35     1011.646     59.41624     387.9316        13     1.104     0.703 -72.74   0
       158    287.4804    783.0753 307.8134742  +6.3557396     778768.4      1831650      2028551     84.76348     168.8593     337.1829      2.329     5.80     1029.973     59.41624     62822.46       521     2.367     2.015 -81.53   4
       159    952.8505    793.2104 307.5367802  +6.3738196     7692.383     10450.39     11063.62     83.82536     168.4574     336.7806      1.408     3.10      1012.99     59.41624     1252.758        27     1.295     0.906 -65.47   0
       160    925.7237    793.9420 307.5480228  +6.3726127     862.5051     1236.425     1443.141      84.6301     168.5914     337.0488      1.412     3.76     1013.904     59.41624     139.6395         6     1.010     0.402 -77.82   0
       161    693.3550    792.4233 307.6445872  +6.3654788     6638.667     9874.271     10271.55     83.96001     168.5914     336.9147      1.603     3.18       1019.9     59.41624       905.95        29     1.365     1.010 -61.35   0
       162    482.2667    790.2658 307.7323322  +6.3593039     1772.127     2696.868     2910.006     84.49651     168.5914     337.1159      1.662     3.64     1024.989     59.41624      243.377        17     1.224     0.907 -46.09   0
       163    207.2372    789.9274 307.8465691  +6.3502155     940.7579     1884.163     2465.245      84.3627     168.5914     337.1494      1.973     6.35     1029.848     59.41624     124.4777        12     1.292     0.877 -55.83   0
       164    921.0674    784.2329 307.5502824  +6.3764662     743.7819     1125.417      1384.36      84.3627     168.6584     337.0488      1.456     4.21     1013.717     59.41624     132.7134         8     0.979     0.821 -45.89   0
       165    646.2825    784.2373 307.6644135  +6.3672844       786.71     1096.462     1199.632     84.49651     168.5244     337.0488      1.400     4.03     1020.447     59.41624      127.306         8     1.058     0.612 -85.12   0
       166    728.5316    782.5226 307.6303096  +6.3707428     2600.015      3631.42     4180.771      84.6301     168.7254     337.0824      1.572     3.41      1017.94     59.41624     358.8857        22     1.341     0.949 -75.22   0
       167    197.9808    783.5322 307.8506294  +6.3525449     1052.273      1653.15     2369.866     84.09446     168.5244     336.9818      1.893     4.76      1029.72     59.41624     149.6443        12     1.053     0.887  65.77   0
       168    462.3306    779.2082 307.7409848  +6.3632013     52513.12      81412.7     85648.09     83.96001     168.2561     336.9818      1.673     3.31     1024.825     59.41624     6679.714        73     1.571     1.263 -68.22   0
       169    172.8536    782.7864 307.8610902  +6.3520083     1034.248     1599.545     1963.632     83.82536     168.5244     336.8141      1.578     3.60     1029.495     59.41624     175.9445        10     1.039     0.770 -83.71   0
       170    252.4231    781.2519 307.8280957  +6.3553152     698.4443       1546.6     3393.911     83.96001     168.5914     336.9483      4.620     6.84      1029.94     59.41624     90.60608         9     1.415     0.928  86.88   0
       171   1005.3813    780.8328 307.5153761  +6.3806818     762.8571     996.3381     801.1269     83.96001     168.3903     336.8812      1.459     4.44     1011.134     59.41624     139.0619         7     0.968     0.578 -40.40   0
       172    580.0415    778.1481 307.6921309  +6.3675818      7157.97     10722.22     10901.58     84.49651     168.6584     337.0823      1.568     3.28     1021.524     59.41624     1011.974        32     1.394     1.057 -77.28   0
       173    496.7629    776.8716 307.7267626  +6.3653198     4399.737     6834.713     7398.005      84.3627     168.5914     337.1494      1.624     3.57      1023.99     59.41624       602.05        28     1.418     1.053 -71.77   0
       174    825.2289    774.7617 307.5904070  +6.3771779     12451.11     17879.73     18289.15     83.96001     168.2561     336.9483      1.507     2.98       1015.9     59.41624     1946.146        37     1.361     1.052 -70.76   0
       175    213.0287    772.6486 307.8447473  +6.3575440      535.587     1455.581      2481.12     84.09446     168.6584     336.9818      3.006     7.91     1029.756     59.41624     77.39856        10     2.113     0.827  73.58   0
       176     54.5629    771.1959 307.9106092  +6.3528156     1210.583     1890.375     1281.522     83.55539     168.3232     336.8812      1.581     4.13     1028.461     59.41624     202.3212        14     1.176     0.942 -58.23   0
       177    493.4102    770.1975 307.7283798  +6.3679631     2404.905     3771.938     3996.528     83.96001     168.2561     336.9483      1.674     3.76     1023.791     59.41624     295.2147        21     1.247     1.059 -69.73   0
       178    846.8828    768.8576 307.5816112  +6.3803387     1408.905     2108.697     1959.668     84.49651     168.5914     337.1494      1.584     3.86     1015.096     59.41624     210.6139        15     1.266     0.778 -78.47   0
       179    191.2860    767.1422 307.8539635  +6.3590869     2958.852     4722.139     4873.762     84.49651     168.5914     337.2499      1.678     3.43       1029.5     59.41624      380.838        28     1.450     1.083 -55.37   2
       180    183.0834    766.8752 307.8573792  +6.3589215     11387.62     17773.54     19378.74      84.6301     168.9261     337.1494      1.663     3.26     1029.426     59.41624     1478.683        43     1.471     1.229 -67.23   2
       181   1015.4392    768.0075 307.5116282  +6.3863126     716.2935     867.1636     1293.825     83.82536     168.3232      336.747      1.558     3.34      1010.67     59.41624      160.657         7     1.062     0.567 -28.43   0
       182    175.3973    764.1025 307.8606650  +6.3598079     2822.177     4731.045     5451.461     84.22868     168.3232      336.747      1.867     4.13      1029.32     59.41624     320.3564        25     1.441     1.076 -73.54   3
       183    175.3443    757.7874 307.8609004  +6.3624135     1902.988     2937.219     3435.116     83.82536     168.5244      336.747      1.677     3.16      1029.26     59.41624     285.4595        16     1.120     0.873 -72.02   3
       184   1019.9383    763.3907 307.5099141  +6.3883688     1880.468      2499.66     2435.897     83.82536     168.4574     309.1107      1.430     3.47     1010.479     59.41624     303.3258        14     1.176     0.766 -89.27  16
       185    970.7735    763.3742 307.5303360  +6.3867365     7179.861     9558.188     9939.817     83.96001     168.3903     336.9483      1.374     2.81     1011.696     59.41624     1154.625        25     1.196     0.920 -60.39   0
       186    726.3071    761.0737 307.6319542  +6.3795244      1740.61     2409.192      2301.29      84.3627     168.7254     337.0488      1.499     3.21     1016.702     59.41624     295.6628        16     1.140     0.875 -61.76   0
       187    613.2161    760.2388 307.6789546  +6.3760867     2191.814     3379.145     3081.491     84.09446     168.3903     336.8477      1.636     3.56     1019.681     59.41624     320.5799        17     1.167     0.891 -72.60   0
       188    461.0479    759.8386 307.7421701  +6.3711557     1212.804     1974.537     1870.735      84.3627     168.6584     336.9147      1.751     6.29     1024.114     59.41624     161.8578        15     1.316     0.919 -74.20   0
       189    994.4089    754.8595 307.5208040  +6.3910403     3543.361      4819.87     4612.987     83.82536     168.4574     336.7806      1.368     2.98     1010.979     59.41624     565.9762        19     1.163     0.833 -70.43   0
       190    964.9659    755.1974 307.5330223  +6.3899190     3451.568     4790.495     5217.416     83.69048     168.3903     336.8477      1.434     3.14     1011.643     59.41624     545.6976        20     1.211     0.912 -61.58   0
       191    717.1115    754.6927 307.6359881  +6.3818517     1463.082     2033.056     2279.465     84.49651     169.0598     337.1829      1.432     3.40     1016.688     59.41624     255.0896        12     1.093     0.675 -73.04   0
       192    864.4103    752.9996 307.5748631  +6.3874715     1086.356      1376.65      1401.55     84.09446     168.2561     336.8812      1.297     3.35       1013.8     59.41624     190.8463         9     1.007     0.629  81.25   0
       193    939.8607    750.5189 307.5436070  +6.3910134      757.136     1127.667     1597.234      84.6301     168.5914     337.0488      1.558     3.29      1012.09     59.41624     161.7124         6     0.901     0.556  67.86   0
       194    290.0577    749.4897 307.8135372  +6.3696928     1734.894     2836.944     2859.999      84.3627     168.5244     337.2164      1.739     3.95     1029.632     59.41624     222.1763        21     1.359     0.993 -69.09   0
       195    726.8099    746.5386 307.6322338  +6.3855426     646.8574     992.1177     1451.606     83.82536     168.4574     336.8141      1.783     4.44       1015.8     59.41624     105.1659         6     0.971     0.579 -63.85   0
       196    310.5800    745.2228 307.8051576  +6.3721434     562.7244     1085.103      1765.25     84.22869     168.4574     337.0153      2.281     4.63      1028.38     59.41624     87.47095         5     1.342     0.454 -58.60   0
       197    982.7678    744.9015 307.5259731  +6.3947638     1329.152     1672.303     1806.871     84.49651     168.4574     337.2164      1.246     2.63     1011.021     59.41624       262.75        10     0.959     0.651 -51.51   0
       198    956.6686    743.7655 307.5368520  +6.3943625     1265.978     1693.782     2041.996      84.3627     168.6584     337.1829      1.685     3.85     1011.526     59.41624     177.8725        11     1.110     0.656 -75.81   0
       199    205.6078    744.7687 307.8487710  +6.3688056     710.7183     1314.055     1305.753     83.96001     168.3903     336.8477      1.784     2.78      1029.45     59.41624      114.976         5     0.697     0.478  78.72   0
       200   1009.3380    742.5081 307.5150168  +6.3966378     2856.156     3967.814     4384.303     84.49651     168.6584     337.1829      1.456     2.89     1010.459     59.41624     508.1157        19     1.175     0.854 -67.47   0
       201    728.7400    741.7693 307.6315924  +6.3875763     1019.767     1566.627      1568.39     84.22869     168.5914     337.0488      1.756     3.56     1015.412     59.41624     151.9632         8     0.886     0.662 -80.62   0
       202    449.4201    737.1050 307.7477656  +6.3801522     662.4882     956.4022     750.6172      84.3627     168.3903     336.8812      1.517     3.94     1023.615     59.41624     99.80383         5     0.901     0.492  87.07   0
       203    677.6505    735.7858 307.6530140  +6.3883387     656.8032     934.5189     1472.763     83.82536     168.5914     336.8141      1.892     5.07     1017.093     59.41624      106.119         7     1.007     0.831  70.52   0
       204    852.3237    734.7021 307.5804975  +6.3946229     1275.655     1774.911     1690.827     84.09446     168.8593     337.0824      1.421     3.70     1013.136     59.41624     182.4642        10     1.044     0.652 -50.75   0
       205    938.7380    732.0106 307.5446940  +6.3986180     1488.333     2043.511     2126.752     83.96001     168.3903     336.8477      1.381     4.19     1011.549     59.41624     214.1757        13     1.296     0.673 -66.27   0
       206    913.4554    727.0005 307.5553637  +6.3998431     1158.843     1688.316     1847.062     83.69048     168.3232     336.7135      1.578     3.72     1011.911     59.41624     205.4564        11     1.227     0.621 -45.21   0
       207    699.2385    726.4758 307.6443601  +6.3929046     679.1603      1061.54      1112.26      84.3627     168.6584     337.1159      1.884     6.33     1015.929     59.41624     98.29553         7     1.215     0.926 -54.26   0
       208    895.4653    723.1312 307.5629661  +6.4008405      1501.18     2368.393     2730.137     84.49651     168.6584     337.1159      1.781     3.58     1012.103     59.41624      243.713        13     1.099     0.858 -59.85   0
       209     94.8715    722.3369 307.8955207  +6.3743441     2400.584     3784.841     4155.301     84.49651     168.5914     337.1494      1.687     3.73     1027.927     59.41624     285.0133        24     1.342     1.035 -74.11   0
       210    158.6578    720.8916 307.8690774  +6.3770858     882.5417     1598.977     2133.205      84.3627     168.5244     337.1829      2.356     7.22     1028.446     59.41624     107.8772        14     1.543     0.945  70.97   0
       211    612.1605    717.3276 307.6808367  +6.3937688     567.2199     928.0005     920.0392      84.3627     168.5914     337.1494      2.002     3.58     1018.023     59.41624     96.51025         5     1.019     0.363 -86.67   0
       212    750.3760    714.2802 307.6235292  +6.3996495     589.8712     624.2493     666.2195     84.09446     168.3232     337.0488      1.282     4.15     1014.186     59.41624     95.70874         6     0.733     0.672 -35.10   0
       213    707.4051    710.6290 307.6415006  +6.3997206     6236.414     9045.016     9169.027     83.96001     168.3903     336.8812      1.569     3.16     1015.191     59.41624     843.0264        29     1.342     1.027 -63.96   0
       214    575.8087    711.6201 307.6961278  +6.3949085     565.0762     930.4528     612.5917     84.09446     168.3232     336.8477      1.612     4.29      1018.86     59.41624     83.54468         5     0.937     0.559 -48.96   0
       215    654.1444    709.8255 307.6636504  +6.3982711     1430.658     2406.997     2884.985     84.09446     168.5914     336.8812      1.806     3.55     1016.656     59.41624     218.0176        14     1.091     0.874 -66.71   0
       216    565.2914    710.4796 307.7005347  +6.3950273     738.7305     807.2936     832.3043     84.22869     168.8593     337.1494      1.413     4.29     1019.064     59.41624     118.6873         7     0.961     0.545 -53.73   0
       217      3.5534    708.9537 307.9339001  +6.3767964     3311.343     4949.902     5633.001     84.49651     162.6573     289.2882      1.611     3.30     1026.538     59.41624     449.4019        23     1.182     1.085 -68.32  24
       218    170.4805    706.7420 307.8646451  +6.3833252     3525.143     5401.938     5380.504     84.49651     168.5914     337.0488      1.687     3.72     1028.082     59.41624     442.7914        27     1.425     1.055 -64.19   0
       219    681.1985    706.3327 307.6525305  +6.4006181     2111.716     3135.963     3606.355     83.96001     168.1217     336.8812      1.636     3.83     1015.746     59.41624     310.2264        19     1.256     0.970 -49.60   0
       220    824.2549    702.8021 307.5932273  +6.4068569     21070.93     30400.45     31537.66     83.82536     168.3232      336.747      1.529     2.99      1012.67     59.41624     3284.888        43     1.410     1.061 -64.06   0
       221    523.5138    703.3207 307.7181285  +6.3965840     1448.176     2440.502     3004.983      84.3627     168.9261     337.2164      1.803     4.25     1019.743     59.41624     201.5641        17     1.314     0.921  88.14   0
       222    954.2686    702.5261 307.5392316  +6.4113100     4222.491     5613.832     5659.564      84.6301     168.7254     337.0488      1.399     2.98      1010.29     59.41624     642.9897        21     1.234     0.860 -64.78   0
       223    551.7811    702.4499 307.7064166  +6.3978903      884.518     1452.403     1356.193     83.96001     168.6584     336.8812      1.661     5.24     1018.958     59.41624     128.0428         9     1.129     0.687  86.15   0
       224    297.8266    696.4943 307.8120989  +6.3918342     5951.042     9354.104     9784.843      84.6301     168.3232     336.9147      1.722     3.47     1026.808     59.41624     707.9891        35     1.460     1.167 -75.09   0
       225    704.7977    695.6559 307.6430869  +6.4058156     7077.171     10675.46     11268.59     83.82536     168.3232      336.747      1.585     3.20     1014.782     59.41624     899.0336        31     1.378     1.048 -70.64   0
       226    687.2176    696.7651 307.6503520  +6.4047698     889.7125     1075.317     1805.986     83.96001     168.3903     336.8477      1.221     3.91     1015.237     59.41624      175.707         9     0.970     0.667 -74.13   0
       227    399.8380    695.8641 307.7697495  +6.3955174     704.0447     1177.284     1273.814     84.49651     168.5244     337.1829      1.554     2.90     1023.228     59.41624     151.6769         5     1.033     0.302  -9.44   0
       228    964.5190    688.2175 307.5354534  +6.4175598     1387.058      1708.62     1175.384     84.09446     168.2561     336.9818      1.298     2.66     1009.302     59.41624     242.6299        10     0.872     0.723 -33.35   0
       229    776.4961    684.0073 307.6136965  +6.4130217     3768.567     5802.076     6020.646     84.22868     168.1889     336.8477      1.624     3.62     1012.789     59.41624     479.8515        27     1.375     1.065 -83.03   0
       230    731.8008    684.7323 307.6322377  +6.4112286     1036.512     1576.812     1411.528     83.82536     168.1217     336.8477      1.620     2.26     1013.935     59.41624     205.9711         7     0.802     0.566 -29.04   0
       231     41.8864    682.9278 307.9188600  +6.3888321     592.5281     908.4343      718.319      84.6301     168.8593     337.0823      1.616     4.74      1026.48     59.41624       86.453         7     0.882     0.722 -30.48   0
       232    981.1819    681.1162 307.5287699  +6.4210475     2653.272     3592.619     3732.289     84.09446     168.2561     337.0153      1.409     3.32     1008.241     59.41624      425.188        17     1.159     0.812 -60.19   0
       233     61.8955    680.4383 307.9106337  +6.3905333     1852.551     3344.128      4078.06     84.49651     168.4574     337.2164      2.105     4.25     1026.468     59.41624     257.6299        23     1.338     1.213 -61.52   0
       234    120.2419    675.5588 307.8865652  +6.3945107     24227.56     38681.13     40342.99     84.22869     168.5914     336.9483      1.730     3.49     1026.706     59.41624     2863.188        59     1.578     1.280 -70.17   0
       235    581.3582    676.3588 307.6950095  +6.4096532     1841.801     2901.248     2805.891     84.22869     168.5914     336.9483      1.643     3.54     1017.126     59.41624      254.224        19     1.230     0.964  89.35   0
       236    550.4006    673.3298 307.7079704  +6.4098673     1319.898      2002.65      2239.25     83.96001     168.1217     336.8812      1.722     4.36     1017.324     59.41624     174.7847        15     1.205     0.935 -82.45   0
       237    971.1100    672.6958 307.5332360  +6.4241884     1269.083     1595.354     1750.735     84.49651      168.993     337.0824      1.323     2.80     1008.402     59.41624     209.3647        10     0.930     0.711 -42.59   0
       238    590.3887    670.1265 307.6914682  +6.4125287     863.2122     1339.784     1124.258     83.96001     168.1889     336.9483      1.632     4.95     1016.791     59.41624     133.0772         8     1.139     0.609 -73.96   0
       239    766.1255    667.7041 307.6185519  +6.4194066      3590.54     5308.137     5011.861     84.22869     168.7923     337.0824      1.554     3.31     1012.598     59.41624      524.702        23     1.275     0.959 -71.12   0
       240    788.1992    666.0035 307.6094399  +6.4208463      4265.38     6263.401     6241.781     83.82536     168.1217     336.8141      1.537     3.04     1011.911     59.41624     626.9954        26     1.241     1.109 -84.33   0
       241    619.7737    663.8279 307.6794742  +6.4161129     3132.301     5001.675     4933.294     83.96001     168.3903     336.9147      1.667     3.69     1015.977     59.41624      419.009        23     1.404     0.975 -58.24   0
       242    455.7141    664.6340 307.7475933  +6.4102852     1188.555      1920.69     2031.309     84.49651     168.4574     337.0824      1.759     4.57     1020.068     59.41624     151.8768        12     1.083     0.829 -86.86   0
       243    363.6996    663.4562 307.7858528  +6.4076857     1367.499     2526.266     2330.783     84.22869     168.5914     337.3169      1.841     6.55     1023.444     59.41624     423.7115        15     1.731     0.695 -77.23   0
       244    280.1659    663.4557 307.8205495  +6.4048820     1348.316     2312.816     2804.241      84.3627     168.5914     337.0824      1.952     4.54     1025.285     59.41624     176.2058        17     1.263     0.966 -78.98   0
       245    746.5933    659.5499 307.6269393  +6.4221206     1015.525     1437.464     1347.091     83.96001     168.3232     336.7135      1.571     5.19     1012.915     59.41624     147.5681        11     1.156     0.774 -66.91   0
       246    185.0112    654.4816 307.8603757  +6.4053905     21928.27     35844.27     37897.55     84.09446     168.3232     336.9147      1.762     3.58     1026.322     59.41624     2593.785        59     1.626     1.288 -77.23   0
       247    137.7537    657.7196 307.8798948  +6.4024649     803.7171     1205.028     1234.779     84.49651     168.5914     337.0824      1.580     4.47     1026.495     59.41624     140.5286         6     0.980     0.579  44.06   0
       248    471.8882    655.4172 307.7411856  +6.4146328     2642.676     4230.283     4638.713     84.22869     168.3232     336.9483      1.765     3.83     1019.397     59.41624      333.438        25     1.322     1.114 -79.30   0
       249    853.0857    655.2170 307.5828488  +6.4274671      1236.97     1651.554     1618.494     84.09446     168.3232     337.0153      1.386     2.76     1010.933     59.41624      246.636         8     0.941     0.577 -73.12   0
       250    404.5337    648.9594 307.7693805  +6.4150409     761.1865     1494.946     1842.487     84.49651     168.5244     337.1829      2.223     5.49     1021.262     59.41624     91.59845        10     1.232     0.690  67.29   0
       251   1021.2602    643.9036 307.5133687  +6.4377486     7623.241     11395.71     11985.82     84.22869     164.5219     292.0863      1.566     3.01     1005.632     59.41624     1102.751        33     1.302     1.153  82.10  24
       252     66.3792    643.2643 307.9100289  +6.4060321     1151.089     1886.526     1794.423     84.09446     168.5914     336.9483      1.468     4.38     1026.095     59.41624     211.1906        13     1.342     0.703  76.32   0
       253    614.9409    639.2271 307.6823094  +6.4261085     45900.56     72170.88     75641.23     84.09446     168.6584     336.9147      1.672     3.43     1015.169     59.41624     5652.585        72     1.595     1.271 -63.18   0
       254    979.4858    640.9778 307.5308200  +6.4375639     692.9907     836.5025     828.5243     84.49651     168.3903     336.9483      1.356     3.04     1007.139     59.41624       109.89         6     0.781     0.499 -88.03   0
       255     22.5691    638.8294 307.9283754  +6.4063886     824.3358     1084.582     1359.336     83.96001     168.3232     336.8141      1.510     5.37     1026.375     59.41624     113.8192         8     1.124     0.723 -56.90   0
       256    222.5323    636.1442 307.8454104  +6.4142224     2601.451     4344.828     4416.934      84.6301     168.4574     337.0153      1.780     3.93     1025.418     59.41624     311.3097        25     1.351     1.121 -67.97   0
       257    544.7493    635.8271 307.7115804  +6.4251623     522.3749     1040.565     1264.624     84.09446     168.7254     337.0153      1.688     3.86     1016.445     59.41624     87.93872         5     1.223     0.349 -77.33   0
       258    115.2096    630.2625 307.8901868  +6.4130430     1285.541     1985.393     2039.454     83.96001     168.3903     336.8812      1.627     3.86     1025.769     59.41624     158.5875        12     0.968     0.873  67.47   0
       259    512.2237    623.0378 307.7255218  +6.4293532     57722.36     94128.53     99764.86     84.09446     168.3232     336.8477      1.738     3.52     1017.443     59.41624     7140.523        80     1.634     1.337 -67.77   0
       260     55.9411    624.7650 307.9149902  +6.4133186     1560.868      2706.83     3385.024      84.3627     168.5914     337.0488      1.855     4.03     1026.071     59.41624     211.9563        20     1.331     0.975 -74.91   0
       261    697.7561    620.2402 307.6485471  +6.4367185     758.7318     1113.698     987.1265     84.22869     168.5914     336.9818      1.632     6.11     1012.518     59.41624     94.11572         9     1.189     0.884 -41.10   0
       262    186.7292    618.0035 307.8608946  +6.4205091      1579.72       2571.4     2945.941     83.96001     168.1889     336.9147      1.764     4.52     1025.286     59.41624     201.2679        19     1.239     1.100 -35.18   0
       263    981.3388    616.0784 307.5308850  +6.4479065     693.3486     684.1484     383.3988      84.6301     168.6584     337.0488      1.321     3.75     1006.445     59.41624     129.4266         7     0.882     0.599 -58.28   0
       264    466.0560    615.5569 307.7449512  +6.4308949     809.2836     1567.195     1717.081      84.3627     168.5914     337.1159      2.301     5.45     1018.873     59.41624     112.1508        10     1.050     0.799 -42.67   0
       265    657.9327    615.0151 307.6652654  +6.4375438     786.0168     1390.562     1860.198     83.96001     168.4574     336.9818      2.035     4.27     1013.176     59.41624     133.6673         8     1.033     0.679 -29.62   0
       266    541.1745    613.8346 307.7138059  +6.4341229     560.9364      1096.37     1503.743     83.82536     168.3903     336.8477      1.831     3.72     1016.057     59.41624     92.24426         5     0.924     0.431 -44.74   0
       267    357.5423    612.3625 307.7901338  +6.4285746     1761.481     3193.035     3738.264     84.49651     168.6584     337.0824      1.900     4.75     1021.239     59.41624     213.6138        22     1.444     1.076 -70.68   0
       268     65.3440    612.6321 307.9114951  +6.4186443     624.2903     868.2449     1479.375      84.3627     168.5914     337.0488      1.840     5.54     1025.899     59.41624     109.6249         8     1.138     0.760 -45.15   0
       269    784.2036    606.5638 307.6130962  +6.4452549     5125.742     7875.084     8155.379     83.55539     168.4574     336.8812      1.629     3.41     1010.887     59.41624       683.16        27     1.346     1.027 -58.80   0
       270    837.7798    601.7698 307.5910012  +6.4490239     14112.23     21067.58     22020.55     83.96001     168.3903     336.9483      1.588     3.13     1009.632     59.41624     1887.482        47     1.478     1.169 -72.71   0
       271      1.4852    603.6143 307.9383246  +6.4202178      823.921      1186.46     1664.911     75.15627     136.3625     256.0613      1.702     4.57     1026.724     59.41624     142.6187         9     1.216     0.488 -84.35  25
       272    579.9556    602.0837 307.6980920  +6.4402733     1137.168     1841.166     2279.092     84.49651     168.5914     337.0823      1.642     6.33      1014.68     59.41624     153.9169        14     1.514     0.746 -29.26   0
       273    661.5706    599.9130 307.6642621  +6.4439010     2715.732     4307.176     4759.022      84.6301     168.3232     336.9483      1.760     3.88     1012.631     59.41624     336.4718        20     1.317     0.950 -60.88   0
       274    509.8206    610.4816 307.7269429  +6.4344570     853.7806     1224.893     2098.285     84.22869     168.2561     337.0153      1.681     3.50     1017.275     59.41624     155.7833        10     0.953     0.844 -43.83   0
       275      2.9411    595.1542 307.9380063  +6.4237597     3391.002     5388.238       5699.6      84.3627     156.4984     280.2432      1.677     3.56     1026.673     59.41624     413.6144        25     1.309     1.093 -67.97  24
       276    978.8030    595.9021 307.5326149  +6.4561527     1104.379     1651.808     2355.063     84.22868     168.3232      336.747      1.616     3.07     1005.792     59.41624     180.0548         8     0.855     0.588 -53.68   0
       277    273.9251    593.5219 307.8255026  +6.4335465     1130.886      1755.92     1977.233     84.76348     168.8593     337.1494      1.814     5.99     1022.211     59.41624     139.2355        14     1.318     0.951  86.54   0
       278    420.2913    592.7225 307.7647310  +6.4387884      978.624     1688.183     2347.031     84.22869     168.8593     337.1159      2.121     5.94     1019.233     59.41624     128.5835         9     1.279     0.777 -81.96   0
       279    913.8232    585.0296 307.5599734  +6.4584743     3091.199     4533.869     4709.829     83.96001     168.4574     336.9147      1.483     3.12     1006.881     59.41624     426.0127        21     1.229     0.893 -59.69   0
       280    209.0117    585.3131 307.8527435  +6.4347549     667.6426     1194.605     1259.856     84.09446     168.3232     336.9483      1.757     4.32     1023.849     59.41624     99.53381         5     1.140     0.465  66.95   0
       281    872.6055    582.4189 307.5771836  +6.4581765     2594.101      3725.44       3962.2     84.09446     168.1889     336.8812      1.601     3.20     1008.065     59.41624     390.0248        18     1.229     0.828 -68.53   0
       282    843.4067    578.4904 307.5894452  +6.4588237     2736.341      4156.95     5679.077     84.09446     168.2561     336.8477      1.955     3.74     1008.766     59.41624     354.9968        22     1.388     0.926 -66.97   0
       283    300.5881    577.6401 307.8149633  +6.4409990     6891.258     11775.55     12575.97     83.82536     168.3903     336.8141      1.829     3.98     1021.266     59.41624     760.1945        38     1.553     1.204 -65.49   0
       284    785.5400    579.4370 307.6134523  +6.4565000     681.1061     1331.039     1282.064     84.49651     168.6584     337.0488      1.983     3.12     1010.181     59.41624     108.1976         5     0.733     0.464 -15.38   2
       285    853.1655    573.6622 307.5855533  +6.4611431     159520.1     236841.5     248457.9      84.3627     168.6584     337.0488      1.599     3.23     1008.376     59.41624     22693.64       111     1.591     1.265 -68.16   0
       286    234.8866    572.0135 307.8424448  +6.4411154     50924.75     87160.17     93228.14     84.09446     168.3903     336.9818      1.841     3.67     1022.626     59.41624     5981.972        86     1.706     1.418 -77.91   0
       287    782.7193    574.0725 307.6148043  +6.4586207     682.8904     1086.298     1860.926     84.76348     168.8593     337.1159      1.639     5.62     1010.119     59.41624     95.73047         8     1.375     0.647 -47.26   0
       288     13.0492    570.5862 307.9346394  +6.4342434     3900.208     6472.405     7094.952     83.82536     168.5244     336.7806      1.779     3.47     1026.446     59.41624     537.2087        30     1.426     1.144 -64.36   0
       289    158.8276    568.3636 307.8741618  +6.4400660     5423.793     9262.744     9673.157     83.96001     168.2561     336.8812      1.823     3.64     1024.662     59.41624     648.0613        36     1.503     1.225 -67.57   0
       290   1023.6224    565.6403 307.5150101  +6.4701418     1062.398     1237.128     1003.952     73.79105     134.5276      254.246      1.142     3.90     1003.543     59.41624     223.4713         7     0.980     0.459 -79.62  24
       291    889.7219    560.9236 307.5707945  +6.4676231     4473.048     6605.789      6901.88     84.76348     168.8593     337.1829      1.516     3.21     1006.843     59.41624     624.6477        26     1.288     1.002 -70.54   0
       292    274.2217    563.3543 307.8263979  +6.4460119     634.9374     948.9614     566.3165     84.09446     168.5914     336.9147      1.513     3.46     1021.578     59.41624     100.1313         5     0.763     0.454  14.16   0
       293    408.1999    559.1683 307.7708851  +6.4522368     14465.86     24882.81     26185.01     83.69048     168.3232     336.8141      1.826     3.84     1018.864     59.41624     1638.644        46     1.584     1.257 -70.90   0
       294    209.9042    558.2158 307.8532883  +6.4459727     1672.989     2967.937     3887.981     84.22868     168.3903     336.9147      2.224     4.53     1022.698     59.41624     212.0317        21     1.463     1.003 -56.05   0
       295    498.7169    558.9820 307.7332902  +6.4553482       686.01      1192.63     1265.822     84.09446     168.2561     337.0488      1.974     4.70     1015.496     59.41624     115.0154         7     1.023     0.660  24.54   0
       296    843.6851    554.3621 307.5901397  +6.4687954     5821.153     8593.903     9180.172     84.49651     168.5914     337.0824      1.601     3.32     1007.995     59.41624     758.0711        30     1.422     1.042 -71.16   0
       297    574.5411    554.1481 307.7019548  +6.4598839     5827.053     9515.479     9397.613     84.49651     168.5914     337.0824      1.748     3.59     1013.466     59.41624     712.3704        36     1.517     1.194 -61.01   0
       298    147.5074    555.9545 307.8792835  +6.4448087     660.9907     1211.446     959.3649     84.49651     168.5244     337.2164      1.707     4.69     1024.556     59.41624     100.4108         7     1.255     0.497 -49.11   0
       299    285.2486    555.1336 307.8220949  +6.4497763     708.7834     1069.882     1234.583      84.3627     168.5244     337.0823      1.399     3.87     1021.284     59.41624     117.8683         5     0.944     0.455  42.02   0
       300    432.8446    550.8043 307.7609296  +6.4565166     1257.013     2110.551      1837.28     83.82536     168.1889      336.747      1.721     4.37     1017.813     59.41624     169.7402        15     1.177     0.944 -52.62   0
       301    221.6076    547.2353 307.8487977  +6.4508995     5834.249     9997.231      11221.3     83.96001     168.3903     336.8477      1.880     3.90     1021.725     59.41624     705.2367        36     1.512     1.230 -69.33   0
       302    619.2742    547.1780 307.6836066  +6.4642593     2130.021     3909.093     4347.313     84.09446     168.4574     337.0153      2.057     4.53     1012.009     59.41624     248.6401        25     1.551     1.002 -39.79   0
       303    316.8336    543.6717 307.8093615  +6.4555692     73808.99       129512     137914.3      84.3627     168.5914     337.0824      1.879     3.93      1020.21     59.41624     8238.894        95     1.751     1.426 -72.28   0
       304     18.6403    548.0287 307.9330805  +6.4437448     1048.253      1671.19     1771.358     84.09446     168.3232     336.9483      1.643     5.48     1026.256     59.41624     134.3595        14     1.167     1.043  75.27   0
       305    860.3638    546.6660 307.5834692  +6.4725299     1464.015     2379.613     2610.254      84.3627     168.5914     337.1494      1.670     4.62     1007.321     59.41624     236.8363        18     1.318     1.145 -55.82   0
       306     93.2595    545.9928 307.9021540  +6.4470969     4482.744     7752.906     7689.913     83.82536     168.4574     336.8141      1.818     3.83     1024.857     59.41624     587.5934        30     1.436     1.161 -78.59   0
       307    902.5379    546.7217 307.5659469  +6.4739147     825.5116     1045.033     1170.015     84.76348     168.6584     337.1159      1.555     5.43     1005.969     59.41624     107.5399         9     1.227     0.677 -62.40   0
       308    606.5312    541.2880 307.6890985  +6.4662646     821.6748     1163.365     1707.716      84.6301     168.8593     337.0824      1.750     4.03     1012.101     59.41624     134.8351         7     0.991     0.665 -38.59   0
       309    300.4982    538.5557 307.8163199  +6.4571330     1354.881     2142.079     2506.676     84.49651     168.5244     337.3169      1.756     4.29     1020.228     59.41624      176.168        14     1.111     0.964 -44.43   0
       310   1016.1906    537.4173 307.5190435  +6.4815472     1612.347     1944.837     1809.662     84.22869     168.3232     336.9483      1.346     3.45      1002.07     59.41624     231.4777        12     1.124     0.690 -67.40   0
       311    839.9012    535.9962 307.5923282  +6.4762521     16181.16     24428.71     25007.32     84.22869     168.2561      336.747      1.554     3.25     1007.405     59.41624     2233.307        46     1.483     1.128 -63.83   0
       312    543.5578    534.4945 307.7154875  +6.4669610     36253.46      64819.5      69862.5     84.49651     168.5244     337.2164      1.940     3.83     1013.504     59.41624      3792.57        81     1.731     1.530 -54.19   0
       313    693.9073    532.9532 307.6530807  +6.4726295     949.2439     1502.602     1880.697      84.3627     168.5244     337.2164      1.654     5.27     1010.279     59.41624     117.3721        10     1.163     0.673 -23.69   0
       314    256.3358    530.9815 307.8349207  +6.4587770     1645.296     3011.258     3262.552     84.09446     168.5914     336.9147      2.080     5.10     1020.348     59.41624     207.3491        22     1.509     1.006 -44.18   0
       315     91.6565    531.1526 307.9033219  +6.4531700     1071.364     1609.036     1389.632     84.49651     168.5914     337.1829      1.626     6.09     1024.321     59.41624     121.7357        13     1.264     0.824 -59.52   0
       316    703.5157    529.4544 307.6492068  +6.4743954     2844.018     4631.915     5129.052     84.49651     168.5914     337.2499      1.769     3.74     1010.009     59.41624     422.3866        25     1.482     1.009 -46.56   0
       317    713.7877    529.3588 307.6449427  +6.4747784     1290.669     2186.715     2266.673     83.82536     168.3903     336.7806      1.783     3.74       1009.9     59.41624     165.2665        15     1.102     0.924 -65.92   0
       318    765.5850    528.5737 307.6234509  +6.4768341     1438.969     2281.385     2557.898     84.22869     168.4574     337.0153      1.877     3.44     1008.943     59.41624     185.3524        15     1.054     0.917 -43.87   0
       319    441.3949    525.0468 307.7582459  +6.4674380     1369.575     2125.699     1946.266     83.82536     168.3903      336.747      1.690     5.00     1015.966     59.41624     163.0275        15     1.270     0.912 -32.47   0
       320    372.6870    523.5599 307.7868383  +6.4657474     3150.211     5532.155     5513.336     84.49651     168.5244     337.1159      1.877     4.10     1017.339     59.41624     331.0863        30     1.455     1.201 -68.82   0
       321    187.9457    522.0654 307.8636312  +6.4601601     22064.07     38139.48     40486.46     84.49651     168.5244     337.0488      1.854     3.83     1021.987     59.41624     2537.747        59     1.693     1.318 -72.20   0
       322    552.6981    522.7968 307.7120843  +6.4720969     1898.942     3143.928      3291.31     84.22869     168.2561      336.747      1.784     4.60     1012.665     59.41624     222.8694        21     1.389     1.039 -75.88   0
       323    915.6439    521.7153 307.5613413  +6.4846770     1574.921     2303.763     2554.379     84.49651     168.5244     337.0488      1.616     3.92     1004.671     59.41624      284.793        14     1.112     0.974 -55.03   0
       324    153.2376    520.2932 307.8781087  +6.4597249      2307.51     3869.973     4029.356      84.6301     168.4574     337.1494      1.793     4.20     1023.041     59.41624     285.9151        22     1.375     1.022 -59.79   0
       325     33.3072    520.1394 307.9279321  +6.4557532     1693.127     2990.755     3099.947      84.3627     168.5914     337.1829      1.783     4.24     1025.902     59.41624     201.2118        22     1.399     1.039 -71.87   0
       326    389.8007    518.8511 307.7798878  +6.4682657     997.4109      1792.97     1590.633     83.82536     168.1889     336.6128      1.847     4.49     1016.818     59.41624     173.7126        15     1.202     1.017 -43.59   0
       327   1013.3976    516.4932 307.5209052  +6.4900936     5533.904     7400.968     7803.176     84.09446     168.2561      336.747      1.447     2.82     1000.287     59.41624     861.9729        26     1.302     0.928 -69.85   0
       328    586.7438    508.7982 307.6984122  +6.4790167     1202.281     2093.691     2532.533     83.82536     168.2561     336.7806      1.985     5.06     1011.419     59.41624     150.0824        14     1.269     0.934 -76.73   0
       329     52.2129    506.3839 307.9205444  +6.4620688     22484.94     37887.88     40402.21     84.22869     168.2561     337.0153      1.820     3.72     1025.051     59.41624     2650.353        54     1.622     1.287 -77.93   0
       330    484.8716    503.1638 307.7409224  +6.4779305     36176.62     62823.54     66491.81      84.3627     168.5914     337.1494      1.855     3.90     1012.958     59.41624     3958.569        67     1.684     1.361 -68.90   0
       331     34.7855    500.6341 307.9279782  +6.4638560     172933.2     288821.3     306613.8     84.09446     168.3232     336.9483      1.803     3.63     1025.752     59.41624     21353.96       118     1.733     1.401 -75.69   0
       332    692.9245    502.7917 307.6545033  +6.4850499     11026.72     17937.39     18667.65     84.09446     168.0545     336.8812      1.729     3.58     1009.086     59.41624     1382.074        43     1.552     1.183 -68.63   0
       333    333.4146    503.4984 307.8038294  +6.4727124     711.4052     1216.227      1136.35      84.3627     168.3232     336.8477      1.908     4.70     1016.148     59.41624     109.8724         6     1.313     0.478  49.63   0
       334    250.1117    500.7225 307.8385282  +6.4710611     15925.19     29314.24     31565.95     84.49651     168.8593     337.1829      1.979     4.05      1018.54     59.41624     1712.949        63     1.684     1.495 -89.11   0
       335    614.6772    499.6292 307.6871163  +6.4837376     2389.167     3955.365     4494.659      84.3627     168.6584     337.1159      1.730     3.99     1010.733     59.41624     312.1765        26     1.424     1.112 -64.96   0
       336    955.4401    500.6786 307.5455138  +6.4946907     752.5145     1173.448     1036.725      84.3627     168.5914     337.0824      1.619     4.91     1002.156     59.41624     113.9126         8     0.931     0.735 -38.21   0
       337    866.8831    500.6858 307.5823044  +6.4917324     1055.342     1458.563     1630.012     84.22869     168.7923     337.1829      1.399     2.99     1005.164     59.41624     151.7621         9     0.868     0.687 -65.73   0
       338    988.5461    496.6843 307.5318938  +6.4974440     4987.701     6991.979     7169.217     84.49651     168.5914     337.2499      1.494     3.13     999.9803     59.41624     707.6761        25     1.331     0.937 -79.78   0
       339    661.6963    495.1266 307.6677344  +6.4871701     5900.481     9605.628      10256.8     84.22869     168.7254     337.0824      1.769     3.64     1009.589     59.41624     684.0626        33     1.512     1.109 -65.96   0
       340    149.2571    495.3671 307.8806049  +6.4698823     973.6968     1772.537     1778.998      84.3627     168.6584     337.0488      1.893     5.22     1021.784     59.41624     127.6333        11     1.124     0.914   5.05   0
       341    215.5788    501.4328 307.8528495  +6.4696075     1316.975     2473.765       2660.5     83.96001     168.3903     336.8812      1.927     6.50     1019.962     59.41624     185.5031        19     1.484     1.042  78.47   0
       342    913.7548    491.5846 307.5631370  +6.4970547      413.119     549.6844      851.181     83.96001     168.3903     336.8141      1.404     3.83     1003.652     59.41624     84.61383         5     1.011     0.416 -83.07   0
       343   1011.1345    488.9393 307.5227690  +6.5013950     3607.167     4970.015     5919.557     84.49651     168.5244     337.0823      1.425     2.97     997.9998     59.41624     601.6716        22     1.272     0.872 -66.56   0
       344    573.9257    486.4998 307.7044879  +6.4877942      6368.28     10907.46     11525.24     83.96001     168.7254     336.9818      1.798     3.88     1010.542     59.41624     699.5645        39     1.542     1.228 -72.41   0
       345    419.9876    486.6636 307.7684331  +6.4825678     2114.141     3523.962     3429.661     83.96001     168.3903     336.8812      1.736     4.28     1014.228     59.41624     235.9926        22     1.295     1.098 -61.89   0
       346    789.3788    486.8624 307.6149675  +6.4948513      477.976     831.2203     501.1357     84.09446     168.5914     336.9483      2.027     3.50     1006.046     59.41624     87.42084         5     0.810     0.436 -71.84   0
       347    930.2020    482.3187 307.5566149  +6.5014293     3059.367     4516.845     4856.409     83.82536     168.1889     336.7806      1.567     3.18     1002.888     59.41624     442.9853        21     1.305     0.879 -63.84   0
       348    937.7985    476.5412 307.5536527  +6.5040683     2096.186     3170.917     3497.104     83.82536     168.2561     336.7806      1.595     3.52     1002.101     59.41624     333.2597        20     1.307     0.963 -63.74   0
       349    977.1305    475.5308 307.5373458  +6.5057974     1264.612     1915.368     1573.668     84.49651     168.7254     337.0488      1.594     4.05     999.4869     59.41624      226.143        13     1.399     0.639 -56.77   0
       350    157.3468    476.4194 307.8778849  +6.4779773     560.4789     1108.332     953.9241     83.96001     168.5914     336.8812      1.627     3.40       1020.7     59.41624     93.16583         5     1.016     0.329 -69.04   0
       351    761.6819    472.6938 307.6269502  +6.4997758     2741.962     4334.954      4460.53     84.22869     168.8593     337.1829      1.665     3.56     1005.982     59.41624     327.3339        22     1.314     0.976 -80.68   0
       352    472.1179    471.9391 307.7472729  +6.4903952     801.4849     1673.433     2220.333      84.6301     168.5914     337.0823      2.548     8.31     1011.647     59.41624     99.15063        14     2.148     0.898 -36.76   0
       353    432.7635    470.8255 307.7636596  +6.4895355      3232.61     5674.406     5751.208     84.09446     168.3903     336.8477      1.879     3.82     1012.626     59.41624     363.8687        31     1.401     1.277 -68.07   0
       354    123.7181    471.8815 307.8920081  +6.4787198     1680.054     2940.466     2730.545     84.49651     168.8593     337.1829      1.819     3.89     1021.252     59.41624     214.5687        18     1.209     0.999 -73.45   0
       355    660.3831    467.3620 307.6692139  +6.4985898      8951.25     14716.53     15457.03     84.09446     168.4574     336.8141      1.788     3.75     1008.513     59.41624      1058.56        41     1.573     1.196 -70.93   0
       356    823.0746    463.9845 307.6017370  +6.5054231     15477.12     23823.23     24660.85     83.96001     168.3232     336.9483      1.599     3.31     1004.582     59.41624     2163.674        43     1.501     1.135 -65.98   2
       357    826.7967    459.4167 307.6003440  +6.5074334     1484.861     2200.077     3136.543     84.09446     168.1889     336.9147      1.672     4.59     1004.338     59.41624     199.9083        12     1.147     0.746 -50.51   3
       358    342.7415    464.4398 307.8012729  +6.4891518      2130.31     3801.892     3556.354     84.49651     168.6584     337.1494      1.880     4.54     1012.993     59.41624     214.2162        24     1.390     1.135 -65.67   0
       359    851.9667    460.9680 307.5898349  +6.5076335     1218.979     1855.109     1785.425     83.96001     168.3232     336.8141      1.525     4.80     1003.863     59.41624     165.7557        13     1.271     0.670 -76.39   0
       360    425.6248    460.6579 307.7669681  +6.4934941     1464.876     2485.824     2992.759     84.09446     168.5914     336.9483      1.875     5.42     1012.006     59.41624     180.6732        18     1.269     1.068 -82.02   0
       361    953.1789    461.2515 307.5477757  +6.5108944     466.6918     715.9155     1007.853     83.96001     168.6584     336.8812      2.299     3.45     1000.432     59.41624     83.66119         5     0.982     0.350 -45.17   0
       362   1008.2039    458.9076 307.5249933  +6.5136972     2206.477      3173.57     3656.212     84.09446     168.2561     336.8477      1.543     3.82     997.2736     59.41624     345.4944        16     1.291     0.779 -73.43   0
       363    160.6274    455.9172 307.8772153  +6.4865523     3813.221     6574.449     7071.801      84.3627     168.3903     337.0153      1.851     4.22     1019.825     59.41624     419.3881        30     1.509     1.166 -75.75   0
       364    798.6196    455.1085 307.6121952  +6.5082709     2209.856     3506.948     3738.226      84.3627     168.3232     336.9147      1.711     3.57     1004.837     59.41624     328.3343        21     1.284     0.977 -72.91   0
       365    414.2317    457.1337 307.7718200  +6.4945670     713.1583     1139.968     1607.751      84.3627     168.6584     337.0153      1.658     4.18     1011.896     59.41624     88.43219         6     1.182     0.423 -28.62   0
       366    318.5174    453.0831 307.8117196  +6.4930275     1126.616     2160.592     2237.763     84.22868     168.8593     337.1829      1.885     7.32     1012.927     59.41624     130.3824        19     1.574     0.954 -77.33   0
       367    396.6031    450.6935 307.7793608  +6.4966347     2634.774     4730.646     5100.936     84.22869     168.2561     336.8141      1.914     4.18     1011.535     59.41624     295.3186        27     1.403     1.180 -79.02   0
       368    752.4355    448.3103 307.6316112  +6.5095344     1585.807     2559.305     2303.353      84.6301     168.5244     337.0824      1.728     4.28     1005.644     59.41624     213.4391        17     1.286     0.871 -64.17   0
       369    284.6511    445.7133 307.8260375  +6.4949331     653.8259     1076.165     1417.541     84.49651     168.4574     337.1494      1.627     3.79     1013.631     59.41624     103.6553         5     0.910     0.454  43.96   0
       370    594.0714    440.8986 307.6976537  +6.5072967       945.64     1313.674     1645.907     84.22869     168.7923     337.0823      1.474     5.18     1008.719     59.41624     130.9154         8     1.039     0.731  62.87   0
       371    878.4923    438.2546 307.5795770  +6.5178972     1404.986     2338.898     2697.052      84.3627     168.4574     337.2499      1.800     4.48     1002.253     59.41624     173.6444        16     1.380     0.869 -72.38   0
       372    761.5528    435.6873 307.6282475  +6.5150510     14189.29     22274.16     23700.57     84.49651     168.4574     337.1159      1.716     3.54     1005.167     59.41624     1787.773        44     1.535     1.174 -71.85   0
       373    516.1746    439.2411 307.7300717  +6.5053721      1097.35     1929.726     2131.152     84.09446     168.4574     336.8477      1.822     3.72     1009.013     59.41624      166.447        10     1.086     0.624 -41.98   0
       374    864.2556    437.5252 307.5855164  +6.5177231     2001.321     2959.297     3100.383      84.3627     168.5244     337.0153      1.642     3.43     1002.722     59.41624     291.1743        14     1.150     0.768 -65.22   0
       375    682.7086    431.6173 307.6611411  +6.5140951     2455.316     4198.198     4790.782     84.22869     168.3232     336.9818      1.854     4.67     1006.217     59.41624     272.2178        26     1.482     1.139 -71.00   0
       376    655.0592    426.8412 307.6727890  +6.5151421     10963.02     25409.65     30895.72     84.49651     168.5914     337.1494      2.489     6.08     1006.641     59.41624     1492.182        73     2.344     1.542  35.18   0
       377    986.8128    425.3875 307.5350046  +6.5268241     3991.356     5821.659     5543.443      84.3627     168.2561     337.0153      1.539     3.21      997.683     59.41624     599.3636        25     1.301     0.981 -67.55   0
       378    425.9521    421.5650 307.7681503  +6.5096457     23493.68     42372.25      44972.8     84.09446     168.5914     337.0153      1.914     4.03     1008.857     59.41624     2567.959        61     1.693     1.375 -72.25   0
       379    172.1540    421.2743 307.8735980  +6.5012429     2012.346     3468.379     3172.715      84.3627     168.6584     337.0824      1.820     4.67     1017.867     59.41624     237.1377        24     1.444     1.139 -62.12   0
       380    942.4411    420.9647 307.5535883  +6.5271702     1409.506     2203.601     3198.077     84.22868     168.5914     336.9147      1.798     3.96     999.1193     59.41624     187.0116        13     1.154     0.779 -72.71   0
       381    105.5402    416.8931 307.9014194  +6.5008112     1215.199     2212.109     1743.706      84.3627     168.5244     337.1829      1.927     6.26     1019.987     59.41624     160.2642        14     1.257     0.876 -59.55   0
       382    283.4915    412.1531 307.8276525  +6.5087503     11532.95     20499.24     21362.24     84.49651     168.5244     337.2164      1.915     3.99     1012.282     59.41624     1248.182        51     1.649     1.388 -80.38   0
       383    778.6008    405.9280 307.6221647  +6.5279080     607.0763     756.8679     131.7504     83.82536     168.1217     336.8812      1.288     4.22     1003.875     59.41624      111.034         6     0.775     0.654 -49.49   0
       384    746.2469    404.8290 307.6356438  +6.5272804     618.6045     988.7353     1024.331     84.09446     168.7254     336.9818      2.319     4.33     1004.642     59.41624     111.1484         7     1.248     0.428 -87.34   0
       385    955.5878    415.9684 307.5482938  +6.5296717      5076.36      7255.43      7285.31     83.96001     168.3903     336.9818      1.519     3.05     998.4457     59.41624     717.9156        26     1.273     0.990 -60.98   0
       386   1006.7131    404.1502 307.5274485  +6.5362564     1212.428     1570.698     1511.359     84.49651     168.4574     337.1829      1.287     2.87     996.2551     59.41624     185.8337         9     0.930     0.600 -62.13   0
       387    396.3578    401.6538 307.7811168  +6.5168738     1010.582     2083.188     2215.781     84.49651     168.5914     337.0824      2.117     6.78     1008.127     59.41624     120.1362        16     1.471     0.924 -74.08   0
       388    183.8013    400.8379 307.8694501  +6.5100721     4150.769     7402.217     7576.599     83.55538     168.3903     336.8477      1.847     4.12      1016.53     59.41624     472.6132        33     1.505     1.239 -74.90   0
       389    229.7104    401.3514 307.8503602  +6.5114032     767.4143      1535.02     1615.119     84.49651     168.4574     337.2499      2.065     5.83     1014.002     59.41624     115.9985         7     1.000     0.958  36.69   0
       390    288.6279    399.7333 307.8259380  +6.5140506     1033.349     2009.765     2196.989     84.09446     168.5244     337.0488      2.026     5.85     1011.541     59.41624     156.3064        14     1.358     0.881 -55.02   0
       391    206.0347    396.8643 307.8603477  +6.5124601     2031.941     3627.986     3930.041      84.3627     168.5914     337.0823      1.931     4.85     1015.135     59.41624     247.1039        24     1.529     1.056 -71.74   0
       392    869.4375    397.3290 307.5847130  +6.5344927     860.7865     1039.437     1362.262      84.3627     168.5914     337.1494      1.266     4.03     1001.205     59.41624     131.4628         7     0.977     0.475 -80.36   0
       393    601.5659    395.7828 307.6960588  +6.5261752     958.2139     1555.569     1272.384     84.09446     168.3903     336.9147      1.750     4.05     1006.427     59.41624     139.7988        12     1.083     0.952  72.39   0
       394     22.1759    392.8363 307.9368654  +6.5079373     2008.001     3391.195      3359.91     84.09446     168.3903     336.8477      1.762     4.49     1021.695     59.41624     245.6898        23     1.459     1.063 -61.43   0
       395    429.2894    391.3727 307.7677819  +6.5222233     1668.006     2982.418     3253.281      84.6301     168.3232     336.9483      1.961     5.00     1007.032     59.41624     184.4445        22     1.343     1.152 -20.37   0
       396   1017.6342    390.8135 307.5233581  +6.5421271     894.2627     1464.355     1597.676     83.96001     168.3232     331.6768      1.788     5.04     995.2336     59.41624     157.5553         9     1.322     0.561 -64.60  16
       397     30.6402    389.7536 307.9334534  +6.5094951     808.8448      1359.43     1698.161      84.3627     168.5914     336.9147      1.810     4.74     1021.372     59.41624      100.713         7     1.051     0.606  60.78   0
       398     79.6219    385.9173 307.9132347  +6.5127279     2816.233      5221.75     5592.308     84.22868     168.2561     336.9483      2.016     4.92     1019.995     59.41624     334.1104        35     1.731     1.266 -56.64   0
       399    483.1641    384.9402 307.7456159  +6.5266855     6093.795     10984.94      11684.3     84.49651     168.5914     337.0488      1.920     4.30     1006.104     59.41624     620.7729        40     1.594     1.286 -67.70   0
       400    823.7532    382.2367 307.6042008  +6.5391985     12162.15     18976.31     20481.39     84.22869     168.5914     336.9818      1.676     3.39     1001.911     59.41624     1529.201        41     1.554     1.111 -65.51   0
       401    815.8221    383.6559 307.6074484  +6.5383476     1870.974     2621.358     3215.125     84.09446     168.5914     336.8812      1.591     3.30     1002.161     59.41624     259.9551        16     1.136     0.878 -60.86   0
       402    387.0081    381.0170 307.7856973  +6.5250806     845.9769     1668.356      1408.75     84.09446     168.3232     336.9147      1.848     6.03     1007.286     59.41624     111.7498        11     1.533     0.668 -48.76   0
       403    998.5304    373.6775 307.5318701  +6.5485655     613.7278     496.7745     405.8716     84.76348     168.8593     337.0488      1.293     4.19     995.1561     59.41624     94.97028         5     1.097     0.567  58.75   0
       404     37.9297    371.6747 307.9310371  +6.5172046     1014.396     2335.011     3877.865     84.76348     168.7254     337.0824      3.673     7.28     1020.684     59.41624     124.7751        15     1.438     1.032 -39.73   0
       405    948.7892    372.6113 307.5525730  +6.5473467     458.7455      760.611     752.3474     84.22869     168.3903     337.0824      1.598     3.36     997.1355     59.41624     91.36676         5     0.767     0.427  21.68   0
       406    503.4500    369.1025 307.7377215  +6.5339045     1917.412     3306.468     3129.198      84.3627     168.5244     337.2499      1.827     4.91     1005.083     59.41624     226.2849        23     1.462     1.098 -72.99   0
       407    531.2274    368.6028 307.7261976  +6.5350416     2613.661     4681.895     4535.394     83.96001     168.3232     336.8812      1.866     4.36      1005.05     59.41624     307.3972        27     1.445     1.160 -62.55   0
       408    889.0901    365.1658 307.5776273  +6.5484286     31834.58     50109.99     52782.26      84.6301     168.4574     337.0823      1.670     3.49      999.476     59.41624     4315.278        59     1.629     1.170 -75.01   0
       409    960.0326    367.9192 307.5480588  +6.5496591     696.8442     959.0168     1004.029      84.3627     168.5244     337.0823      1.696     4.35     996.5005     59.41624     104.1188         6     1.215     0.443 -54.96   0
       410    381.3371    361.1844 307.7887225  +6.5330787      780.621     1343.187     1368.983     83.96001     168.5244     336.9147      2.030     5.86     1006.467     59.41624     104.7545         8     1.231     0.786  89.48   0
       411    660.9639    357.6475 307.6726638  +6.5439087     2366.101     4037.592     3919.931     84.09446     168.5914     337.0153      1.814     4.42     1003.904     59.41624     293.7991        26     1.478     1.131 -83.32   0
       412     69.1206    357.7529 307.9185504  +6.5240025     985.8159     1770.903     1143.702     84.49651     168.5914     337.0488      1.803     5.85     1019.569     59.41624     145.5445        12     1.176     0.912  47.35   0
       413    745.5201    351.1522 307.6377502  +6.5494185     73070.95     117456.8     123756.7     84.49651     168.6584     337.0488      1.758     3.59     1002.291     59.41624     9025.816        81     1.626     1.319 -68.35   0
       414    903.7413    352.5375 307.5719638  +6.5541318     1104.766     1437.925      1961.47      84.6301     168.5244     337.1159      1.453     3.53     998.4552     59.41624     148.6613         9     0.885     0.748 -25.70   0
       415    124.9600    350.5968 307.8955941  +6.5288361     1108.328     1840.485     1854.026     83.69048     168.3232     336.8141      1.713     6.31     1017.708     59.41624     146.4485        15     1.402     0.888 -86.33   0
       416    607.9867    347.6952 307.6950099  +6.5462447     2217.433     3574.842     3685.779     84.22868     168.3232     336.9147      1.734     4.05     1003.248     59.41624     254.1689        21     1.295     1.014 -56.89   0
       417    145.3901    346.7307 307.8872372  +6.5311195     5206.045     9316.468     9672.361     83.96001     168.3903     336.9147      1.872     3.96     1016.785     59.41624     667.5111        37     1.555     1.273 -61.82   0
       418    987.2791    347.8854 307.5374100  +6.5588396     858.3574     1282.675     1527.021      84.3627     168.9261     337.1829      1.453     3.35     994.5473     59.41624     154.5927         7     0.842     0.628  68.94   0
       419    591.3113    344.0140 307.7020621  +6.5472063     6155.372     10672.43     11159.95     84.22868     168.3903     336.9818      1.847     3.99     1003.017     59.41624     673.3057        37     1.600     1.167 -66.84   0
       420    320.3671    341.9281 307.8147034  +6.5389826     2158.272     3700.231     3713.825      84.3627     168.5914     337.0824      1.830     4.65     1007.856     59.41624     273.2449        23     1.492     1.031 -81.08   0
       421    454.1944    339.2769 307.7591912  +6.5445677     20838.19     38190.44     40662.64     84.09446     168.0545     336.9147      1.954     4.14      1003.77     59.41624     2242.019        60     1.708     1.380 -71.79   0
       422    562.0114    337.8014 307.7144450  +6.5487901      1115.66     1996.618     1523.231     84.09446     168.2561     336.8812      1.912     6.26     1002.661     59.41624     140.0016        17     1.427     1.038 -68.60   0
       423    434.0317    337.4518 307.7676299  +6.5446451       950.92     1881.588     2642.574      84.3627     168.6584     337.0153      2.588     6.23     1004.069     59.41624     150.7413        16     1.426     1.094 -80.52   0
       424    533.4975    334.3737 307.7264076  +6.5492502     994.8835     1967.178     2325.638      84.6301     168.3232     337.0153      2.230     7.23     1002.489     59.41624     121.5589        14     1.399     1.047 -85.33   0
       425    431.1001    331.6873 307.7690423  +6.5469268     754.8297     1480.114     2041.887     84.49651     169.1266     337.1159      2.259     6.72     1003.875     59.41624     90.13513        11     1.171     1.081 -51.00   0
       426    848.8204    331.7849 307.5954801  +6.5608666     892.1332     1346.086      1558.18     84.22868     168.3903     336.9818      1.537     2.77     999.3843     59.41624     136.9979         6     0.722     0.564  31.43   0
       427    543.2794    329.6846 307.7225013  +6.5515139     7171.433     12599.63     12851.48      84.3627     168.9261     337.1829      1.865     4.05     1002.049     59.41624     831.5835        38     1.505     1.297 -62.21   0
       428    812.5143    328.6038 307.6106722  +6.5609674     2954.635     4942.083     5507.729     83.96001     168.1889     336.7806      1.838     3.95     999.7571     59.41624      374.963        28     1.520     1.150  72.19   0
       429    967.7699    328.2226 307.5461756  +6.5663076     926.3152     1300.287     1368.229     83.82536     168.3232     336.8812      1.544     4.29     994.6249     59.41624     130.6693         9     0.986     0.719 -74.36   0
       430    369.9394    326.5041 307.7946281  +6.5470149     952.4974     1407.055     1667.076     84.22868     168.5914     337.1829      1.565     4.87     1005.554     59.41624     128.7966         9     0.966     0.697  67.84   0
       431    205.2771    320.7593 307.8632346  +6.5438560     897.5164     1635.772     1795.975      84.3627     168.5914     337.1494      2.115     7.11     1012.349     59.41624      112.256        15     1.455     0.972 -69.37   0
       432    433.2264    313.9034 307.7687586  +6.5543407     6235.242     11037.66     11481.55      84.6301     168.3232     336.9818      1.892     4.18     1002.904     59.41624     712.0758        38     1.554     1.259 -69.90   0
       433    786.8280    313.8039 307.6218422  +6.5662198     938.8085     1443.672     948.0089     83.96001     168.3903     336.9147      1.631     5.19     999.3831     59.41624     125.9812        11     1.105     0.890 -39.99   0
       434    288.9971    314.2789 307.8286703  +6.5493448     1608.534     2868.981     2957.528     83.82536     168.0545     336.8477      1.875     4.91     1007.887     59.41624     172.1118        21     1.318     1.090 -55.95   0
       435    801.0249    309.7088 307.6160810  +6.5683850     50746.87      79867.5     83922.13      84.6301     168.3903     336.9147      1.690     3.45     998.8242     59.41624       6449.3        68     1.557     1.278 -69.16   0
       436    472.7364    309.1087 307.7525044  +6.5576451     2053.362     3554.802     3285.626     84.49651     168.7923     337.1494      1.855     4.59     1001.556     59.41624     227.4112        24     1.419     1.088 -60.93   0
       437    976.6050    305.8217 307.5432560  +6.5758513     2377.113     3293.209     3384.816     84.09446     168.3232     336.8812      1.484     3.29     993.4221     59.41624     353.8494        18     1.163     0.897 -78.09   0
       438    618.7078    306.6815 307.6919360  +6.5635374     995.8435     1895.948     2081.234     84.22869     168.8593     337.1494      2.123     5.40     999.8277     59.41624     141.3995        12     1.055     0.954 -46.23   0
       439    459.0186    305.0293 307.7583415  +6.5588695     1503.204      2904.23     2698.306     84.09446     168.3903     337.0153      2.015     5.37     1001.707     59.41624     176.7994        20     1.388     1.092 -51.44   0
       440    509.5317    305.0592 307.7373528  +6.5605504     1086.973     2096.102     2904.972      84.6301     168.5244     337.0824      2.609     6.45      1000.49     59.41624     122.1643        15     1.322     0.998  86.86   0
       441    880.4155    299.2697 307.5834440  +6.5753468     1214.265     1790.389     1673.051     83.96001     168.5244     336.9818      1.543     4.31     996.8749     59.41624     156.5241        12     1.070     0.791 -58.20   0
       442    235.8103    296.3744 307.8513730  +6.5549501      1907.17     3729.119     4096.364     84.09446     168.3903     336.9483      2.025     5.11     1009.855     59.41624     216.8109        27     1.569     1.171 -52.62   0
       443    799.4536    294.2464 307.6172534  +6.5747167      5818.61     9027.177       9293.2     84.49651     168.5914     337.1159      1.681     3.48     997.9393     59.41624     714.1537        34     1.464     1.109 -77.54   0
       444    489.7403    296.5779 307.7458618  +6.5633888     964.2103      1513.48     1350.739     84.09446     168.5244     336.9483      1.693     5.06     1000.367     59.41624     138.2757        13     1.212     0.852  83.92   0
       445    815.8360    292.1238 307.6105177  +6.5761405     2490.608     3751.531     3908.255      84.3627     168.6584     337.1159      1.602     3.65     997.6047     59.41624     322.7808        21     1.350     0.931 -66.05   0
       446    132.5993    293.4826 307.8943522  +6.5526736     966.4758     1574.254     2199.112     83.69048     168.0545      336.747      1.805     4.86      1014.89     59.41624     132.6455         9     1.177     0.568 -73.52   0
       447    405.8357    286.9312 307.7810489  +6.5645580      1485.17     3430.862     3726.912      84.3627     168.6584     337.1829      2.236     6.87      1002.59     59.41624     172.2772        30     1.757     1.221  -1.77   0
       448    119.1627    287.4462 307.9001389  +6.5547138     1013.225     1721.979      1427.06     84.22869     168.5244     336.9483      1.786     6.40     1015.486     59.41624     129.2511        12     1.266     0.910 -32.82   0
       449    532.1269    283.0633 307.7287057  +6.5703892     1729.537     3169.554     3389.783     84.49651     168.5914     337.1159      1.886     4.85     998.4559     59.41624     207.9236        22     1.395     1.148 -72.92   0
       450    294.7160    278.7420 307.8274944  +6.5642090     4666.261     8449.656     8823.115     84.49651     168.5914     337.1494      1.936     4.28     1006.537     59.41624     480.5388        38     1.556     1.320 -71.77   0
       451    860.2269    276.6339 307.5925928  +6.5840187     517.9299     781.1503     1009.107     83.96001     168.3232     336.8477      1.415     4.20     996.5558     59.41624     96.28662         6     0.738     0.680 -88.82   0
       452     25.1019    271.4732 307.9397589  +6.5581421     57543.78     100480.6     107737.4     84.09446     168.7254     337.0488      1.874     3.86     1019.971     59.41624     6579.069        81     1.721     1.396 -70.49   0
       453    813.7502    272.5730 307.6120412  +6.5841430     780.3116     1256.619     1915.054     84.09446     168.6584     337.0153      1.872     4.64     997.1387     59.41624     119.9263         8     1.021     0.599 -79.15   0
       454    429.0438    269.3635 307.7719986  +6.5725898     1272.908     2495.641     2622.584     84.22868     168.5244     336.9147      2.120     5.92     1001.007     59.41624     165.4175        18     1.332     1.054 -82.98   0
       455    271.7995    271.4365 307.8372626  +6.5664555     587.2159     1117.745     704.5078     83.55539     168.3903     336.8812      1.818     4.26     1007.585     59.41624     73.13135         5     0.914     0.567  48.91   0
       456   1015.9466    267.7536 307.5281853  +6.5928812     1046.866         1486     1790.957     84.49651     168.5914     337.1159      1.583     4.63     990.9359     59.41624     179.7772         7     1.087     0.648 -41.76   0
       457    198.7015    265.1642 307.8678458  +6.5665885     1578.658     2820.688     3144.813     84.49651     168.4574     337.2834      1.879     4.49     1011.366     59.41624     181.5205        17     1.300     0.895 -46.22   0
       458    351.3292    265.3700 307.8044236  +6.5716309     912.8667     1590.132     1081.618      84.3627     168.5914     337.0488      1.843     4.86      1004.59     59.41624     110.0317         9     1.294     0.516 -18.56   0
       459    608.2059    260.9551 307.6978390  +6.5820654     1916.294     3149.733     3529.503     83.82536     168.3232     336.7135      1.824     3.71     997.4232     59.41624     243.4086        19     1.266     0.956 -59.64   0
       460    952.1073    260.0172 307.5549720  +6.5939463     1712.249     2479.564     2573.677     84.22869     168.3903     336.9147      1.546     3.21     992.8141     59.41624     268.3303        16     1.133     0.891 -66.85   0
       461    771.9307    258.4409 307.6298931  +6.5885805     4591.588     7483.749     7658.961      84.3627     168.5914     337.1494      1.720     3.74     997.5781     59.41624      545.887        29     1.430     1.081 -62.82   0
       462    712.7654    258.2809 307.6544829  +6.5866684      2004.62     3203.169     3135.858      84.3627     168.6584     337.1159      1.733     3.78     997.9744     59.41624     246.1443        19     1.220     1.001 -37.59   0
       463   1009.8773    257.1346 307.5310634  +6.5970633     704.0966     1001.551     975.0098      84.6301     168.5914     337.0488      1.528     4.90     990.9497     59.41624     113.9366         7     0.853     0.797 -78.85   0
       464    967.8325    250.6165 307.5487531  +6.5983524     971.2817     1593.013     1219.521     84.09446     168.3232     336.9483      1.551     4.20     992.0572     59.41624     172.4905        10     1.224     0.635 -58.02   0
       465    271.5291    243.7964 307.8383087  +6.5778581     1901.026     3855.288      4202.14     83.96001     168.1889     336.9147      2.103     5.06     1007.418     59.41624     228.2596        31     1.528     1.402   3.21   0
       466    914.2082    242.6056 307.5713046  +6.5998707     1598.039     2515.069     2657.892     83.82536     168.3903     336.9147      1.631     3.33     993.4364     59.41624     268.0883        15     1.182     0.814 -58.66   0
       467    804.7369    242.0328 307.6168127  +6.5964515     1552.343     2294.559     2511.042     84.22869     168.6584     337.0488      1.513     3.99     996.7477     59.41624     202.4682        15     1.274     0.820 -79.83   0
       468    366.1579    235.9127 307.7992565  +6.5842908     655.2159     1142.595     1006.003     84.49651     168.4574     337.1159      1.511     6.29     1003.061     59.41624     90.18115         9     1.639     0.677 -79.27   0
       469    505.3475    233.5752 307.7415005  +6.5899243     19037.01     34210.64     36773.92     83.96001     168.5914     336.9818      1.930     4.07     996.7759     59.41624     2095.525        60     1.717     1.382 -63.50   2
       470    511.3287    228.4862 307.7391867  +6.5922259     1247.235     2342.495     2706.735      84.6301     168.8593     337.1159      2.095     4.96     996.4687     59.41624     152.2571        17     1.304     0.962 -62.72   3
       471    831.3129    232.7095 307.6060828  +6.6011888     12604.64     20016.28     21293.72     84.22869     169.0598     337.2164      1.733     3.45     995.8812     59.41624     1785.023        53     1.587     1.307 -58.44   0
       472    193.4596    226.9788 307.8713146  +6.5821777     2000.695     3670.414     4494.047     84.09446     168.5244     336.9818      2.075     5.49     1011.558     59.41624     224.9869        27     1.688     1.174  79.78   0
       473    168.6454    225.6045 307.8816713  +6.5819106     862.5381     1478.171     1137.341     83.82536     168.2561      336.747      1.715     6.59     1012.571     59.41624      121.553        13     1.467     0.831 -50.30   0
       474    967.7202    222.9836 307.5497268  +6.6097579     1483.704     2038.312     1930.157     84.09446     168.3232     336.9147      1.380     3.78     991.2263     59.41624     212.8909        10     1.078     0.613 -71.40   0
       475     31.5616    220.3620 307.9388058  +6.5794614     4603.935     7925.092     8631.933     84.22869     168.4574     336.9483      1.864     3.92     1018.356     59.41624     568.6993        36     1.534     1.261 -63.83   0
       476    629.4156    219.4216 307.6904242  +6.5999238     4101.359     6810.899     7412.025     84.22869     168.3232     337.0153      1.846     3.91     996.3645     59.41624     482.5005        31     1.362     1.236 -68.31   0
       477    592.1639    219.3028 307.7059073  +6.5987256     1774.466     3171.533     3235.596     84.49651     168.4574     337.2499      1.863     4.65     996.1586     59.41624     204.7964        22     1.322     1.178  87.67   0
       478    350.2094    219.8671 307.8064248  +6.5903802     948.4905      1627.28     1269.636     83.96001     168.3903     337.0153      1.787     6.61     1003.573     59.41624     119.9678        12     1.393     0.879  88.63   0
       479    433.7429    218.5104 307.7717613  +6.5937434     1234.561     2339.276     2488.637      84.3627     168.5244     337.2164      1.952     6.78     998.8331     59.41624     137.2418        17     1.331     1.121 -30.07   0
       480    936.3802    215.8894 307.5629880  +6.6116414     11430.55     16662.94     16952.34      84.3627     168.3232     336.9147      1.547     3.10     991.5741     59.41624     1625.346        34     1.398     1.037 -67.39   0
       481    990.3230    216.5165 307.5405513  +6.6131820     2857.399     3959.448     4082.984      84.6301     168.9261     337.1829      1.542     3.13     990.5014     59.41624     403.9437        16     1.065     0.876 -68.54   0
       482    363.8981    216.9808 307.8008344  +6.5920314     641.4734     1114.972     1345.748      84.3627     168.4574     336.8141      1.799     4.47     1002.775     59.41624     99.12622         5     1.175     0.484 -21.60   0
       483   1022.8391    213.7074 307.5271336  +6.6154261     10126.61     13163.84     13493.03     82.74019     146.6607     267.7083      1.391     3.01     989.7008     59.41624     1550.198        27     1.296     0.901 -79.64  24
       484    734.5463    213.9162 307.6469243  +6.6057141     2686.119     4636.926     5306.778     84.49651     168.5914     337.2499      1.912     4.14     996.6743     59.41624     340.1282        24     1.386     1.116 -83.80   0
       485    611.7603    215.3628 307.6978971  +6.6010085     673.9618     1134.938     1892.723     84.22869     168.5244     336.9483      1.806     3.82     996.1156     59.41624     98.48859         5     1.006     0.416  84.02   0
       486     62.6979    212.6014 307.9261317  +6.5837139     21786.13     38387.14     41221.86     83.96001     168.3232      336.747      1.892     3.97     1017.389     59.41624     2670.257        63     1.715     1.362 -74.60   0
       487    308.7816    213.3212 307.8238595  +6.5916918     844.6454     1360.814     1673.242     84.09446     168.2561     337.0153      1.821     6.31     1005.746     59.41624     118.0882        12     1.387     0.923  54.30   0
       488    543.0684    208.7180 307.7266643  +6.6014514     1614.974     2760.299     2472.207     84.76348     168.8593     337.1159      1.793     4.70     995.9881     59.41624      197.598        18     1.288     1.011 -61.12   0
       489    874.8567    205.3322 307.5889082  +6.6139467     1935.949     3024.141      3342.05      84.6301     168.5244     337.0488      1.705     3.64     993.4318     59.41624     285.6899        16     1.188     0.904 -85.99   0
       490    555.1639    204.6186 307.7217764  +6.6035491     2230.544     3801.186     3472.292     83.96001     168.3903     336.8477      1.799     4.41     995.9072     59.41624     264.7469        21     1.249     1.123 -80.75   0
       491    927.3011    204.3502 307.5671481  +6.6161028     2060.712      2991.89     3510.754     84.49651     168.5914     337.2834      1.665     3.38     991.2134     59.41624     305.4254        15     1.175     0.816 -57.98   0
       492    786.5736    201.8437 307.6257109  +6.6124379     37775.77     60005.95     62616.83     84.09446     168.6584     337.0153      1.723     3.47     995.8124     59.41624     4809.454        63     1.562     1.271 -72.48   0
       493    389.6908    201.2679 307.7906474  +6.5993844     5240.994     11351.37     12764.31      84.6301     168.7254     337.0824      2.303     6.10     1000.693     59.41624     522.7324        48     2.170     1.253 -76.16   0
       494   1020.2820    200.4858 307.5286395  +6.6207998     2948.546     4082.016     4200.148     84.22869     168.8593     305.1382      1.472     2.99     989.2181     59.41624     433.3834        19     1.167     0.883 -66.83  16
       495    954.4755    198.9773 307.5560361  +6.6192280     7663.127     11250.87     11512.89     84.09446     168.4574     336.9818      1.542     3.13     990.4159     59.41624     1064.096        33     1.375     1.054 -75.74   0
       496    498.0027    198.1222 307.7457474  +6.6043158     4203.808     7639.905     8117.185     83.82536     168.0545     336.8812      1.941     4.09     996.0777     59.41624     448.1389        36     1.616     1.235 -68.76   0
       497    325.7523    186.1123 307.8177267  +6.6034954     27307.92     50323.18     54586.25     84.49651     168.4574     337.1494      1.965     4.25     1005.372     59.41624     2862.372        68     1.743     1.425 -72.14   0
       498    155.3656    189.3127 307.8884164  +6.5964476     4119.375     7294.582     7621.612     84.49651     168.4574     337.0824      1.891     4.16     1012.935     59.41624     534.3392        34     1.497     1.267 -80.13   0
       499    301.1385    187.3019 307.8279140  +6.6021776     5348.768     9866.565     10416.57     84.22869     168.6584     337.1829      1.948     4.12     1007.133     59.41624     598.9875        42     1.595     1.342 -77.77   0
       500    974.4763    188.3979 307.5480797  +6.6242633     854.7821     1056.656      1256.01     83.82536     168.0545     336.9483      1.143     3.35      989.557     59.41624     153.0357         7     0.914     0.624 -45.15   0
       501    652.1792    187.1953 307.6820499  +6.6139913      535.038     885.7062     1451.256     84.09446     168.3232     336.8812      1.815     4.97     995.7964     59.41624     73.14948         6     1.095     0.638 -15.77   0
       502      5.4884    186.3061 307.9507923  +6.5926434     669.8747     1254.339       927.84     84.49651     169.0598     314.3653      1.973     4.60     1019.312     59.41624     104.9897         7     1.367     0.440  79.46  16
       503    754.9582    185.5754 307.6393954  +6.6180980     827.9197     1296.861     1868.856     84.09446     168.5244     336.8477      1.719     4.01     995.6364     59.41624     116.6921         8     0.836     0.679  83.12   0
       504    449.7992    181.5786 307.7663351  +6.6095301     41119.53     74907.62     80013.26     84.09446     168.2561     336.7806      1.941     4.16     996.8078     59.41624     4462.517        72     1.720     1.426 -70.65   0
       505    205.7660    182.8577 307.8676929  +6.6008075     3463.633     6176.243     6948.409      84.3627     168.5914     337.0488      1.948     4.38     1010.745     59.41624     412.3862        30     1.503     1.196 -59.21   0
       506    467.0360    182.0739 307.7591560  +6.6099036     1223.795     2068.663     1832.301      84.3627     168.6584     337.0488      1.841     5.26     996.3997     59.41624     138.1818        15     1.245     0.878 -60.36   0
       507    353.8306    179.3074 307.8062893  +6.6072477     15143.94     27152.44     29012.73      84.6301     168.3903     337.0488      1.935     4.12     1003.337     59.41624     1604.104        52     1.660     1.357 -70.49   2
       508    361.0169    178.7999 307.8033203  +6.6076984     1617.797     3700.712     4277.013     83.96001     168.1217      336.747      2.492     7.65      1002.68     59.41624     207.8824        33     2.000     1.326 -76.26   3
       509    789.0273    177.7486 307.6255011  +6.6224684     30824.57      49026.7     50977.09     84.09446     168.7254     337.0153      1.697     3.41     994.8929     59.41624     4131.569        64     1.550     1.287 -70.88   0
       510    737.2108    179.5494 307.6469729  +6.6199927     869.8752     1170.461     1377.325     83.82536     168.4574     336.7806      1.404     3.31     995.6994     59.41624     144.9117         8     0.879     0.764 -10.12   0
       511    837.3178    178.2003 307.6054188  +6.6238954     1087.302     1803.516     2100.133     83.69048     168.0545     336.7135      1.968     4.73      993.606     59.41624     147.2092        13     1.207     0.825 -70.80   0
       512    105.8994    175.1263 307.9094499  +6.6006402     7884.706     13840.03     14482.98     84.09446     168.7254     337.0488      1.858     3.84     1015.479     59.41624     907.8833        41     1.525     1.285 -76.75   0
       513    139.8737    173.0990 307.8954019  +6.6026204     1205.602     2186.563     2253.534     84.09446     168.7254     337.0488      1.906     5.80     1013.615     59.41624     147.0497        17     1.503     0.819  84.19   0
       514     39.6539    160.0124 307.9374870  +6.6046498     760.7469     1321.039     1161.617     83.82536     168.5244     336.7806      1.910     5.38     1018.027     59.41624     117.6887         8     1.078     0.818  62.41   0
       515    631.3137    156.5044 307.6917536  +6.6259645     992.6885      1665.43     2125.261     84.49651      168.993     337.1494      1.907     3.96     995.0308     59.41624     127.8902        10     0.898     0.827  56.90   0
       516    639.8994    154.1192 307.6882661  +6.6272367      1752.34     3016.662     3694.813     84.49651     169.0598     337.1829      1.900     4.42     994.9484     59.41624     207.2892        23     1.461     1.063 -78.88   0
       517    383.9915    154.7347 307.7945860  +6.6184054     765.7161     1492.827     1441.378     83.96001     168.3232     336.9483      2.162     6.18     1000.038     59.41624     108.0945        10     1.490     0.720 -48.16   0
       518    324.6738    152.3560 307.8193147  +6.6173961     25808.89     46119.36     49303.59      84.3627     168.6584     337.1159      1.917     4.08     1006.001     59.41624     2932.573        65     1.705     1.410 -67.33   0
       519     69.9569    151.0779 307.9251983  +6.6093589     3866.598     6745.686     7025.222      84.3627     168.5914     337.1159      1.865     4.79     1016.527     59.41624     442.8536        35     1.636     1.161 -69.02   0
       520    756.2708    148.8638 307.6400843  +6.6332995     7486.103     12021.97     12693.62     84.49651     168.5914     337.1159      1.729     3.46     994.0936     59.41624     983.5254        40     1.502     1.215 -68.40   0
       521    234.0205    150.1022 307.8570598  +6.6152810     712.4975      1350.63     1312.236      84.3627     168.3903     336.8141      2.077     6.32     1009.922     59.41624     83.93774        10     1.359     0.826 -66.82   0
       522    167.0690    146.0723 307.8850160  +6.6146936     4122.122     7460.104     8043.673      84.6301     168.7254     337.0823      1.974     4.41     1011.969     59.41624     469.4135        32     1.592     1.159 -75.12   0
       523    309.9972    146.8022 307.8256009  +6.6191962     600.3217     1081.131     730.5963     83.82536     168.1217     336.8141      1.761     4.32     1007.368     59.41624     84.83545         5     1.079     0.492  37.46   0
       524    629.0036    144.2465 307.6931263  +6.6309482     604.8784     1293.664     1686.694     83.82536     168.3232     336.7135      2.654     6.55     994.7136     59.41624     94.01526         8     1.187     1.014  84.13   0
       525    437.6437    141.9545 307.7727226  +6.6254821     3185.925     6309.313     7069.786     84.49651     168.5914     337.0153      2.159     5.03     996.1739     59.41624     331.0833        39     1.727     1.359 -84.96   0
       526    695.1983    142.7544 307.6656690  +6.6337795     755.8173     1163.629     1252.302     83.82536     168.2561     336.6799      1.834     4.96       994.36     59.41624      114.162         8     1.144     0.609 -11.33   0
       527    402.1539    141.1880 307.7874960  +6.6246079      2583.36     4698.374     4751.089     83.96001     168.3903     336.7806      1.899     4.67     998.0475     59.41624     284.0961        26     1.544     1.055 -64.22   0
       528    156.6061    140.8862 307.8895390  +6.6164828     1484.356     2492.128     2332.398     83.96001     168.2561     336.7806      1.838     4.89     1012.269     59.41624     184.2866        19     1.498     0.900 -71.87   0
       529    506.1478    143.3860 307.7442079  +6.6271881      1246.59     2067.204     2356.609     83.82536     168.5244     336.8141      1.854     5.08     995.4767     59.41624     168.5969        14     1.229     0.885 -28.32   0
       530    718.1458    139.4625 307.6562437  +6.6359062     743.1265     1001.128     1077.436      84.6301     168.5244     337.0488      1.563     5.37     993.9401     59.41624     118.7023         7     0.954     0.854 -70.58   0
       531    254.0646    130.0142 307.8494098  +6.6242483     4565.205     8524.534     9316.688     83.96001     168.4574     336.9818      2.004     4.37     1009.883     59.41624     480.6628        37     1.613     1.260 -80.13   0
       532    715.7877    128.7226 307.6575849  +6.6402616      5637.65     9174.812     9579.987     84.09446     168.1889     336.9483      1.744     3.73     993.4188     59.41624     658.7188        30     1.432     1.121 -69.55   0
       533    136.9111    129.9713 307.8980919  +6.6203266     1806.615      3066.45      3621.42      84.6301     168.3232     336.9818      1.859     4.05     1012.879     59.41624     217.1831        20     1.219     1.068 -43.39   0
       534    863.9307    128.6494 307.5960241  +6.6452430     1079.763      1677.61     1747.382     84.49651     168.5244     337.1159      1.655     5.58      990.025     59.41624     138.8539        12     1.313     0.668 -57.90   0
       535    667.9230    125.9860 307.6775677  +6.6397902     8223.044     14227.72     15306.51     84.09446     168.2561     336.8812      1.828     3.86      994.013     59.41624     996.3912        44     1.593     1.272 -76.54   3
       536    671.5227    117.4899 307.6763578  +6.6434185      48518.6     79661.61     83847.77     84.22869     168.8593     337.1159      1.809     3.71      993.686     59.41624      5766.39        71     1.635     1.329 -71.84   3
       537    302.6834    126.2670 307.8293336  +6.6274289     866.9708     1564.916     2052.628     84.76348     168.8593     337.1494      2.243     6.35     1008.101     59.41624     119.4337        10     1.267     0.895  27.46   0
       538     67.1699    125.1044 307.9272357  +6.6199885     831.3289     1569.346     2001.447      84.6301     168.3232     337.1159      2.304     5.54     1015.742     59.41624     113.1754         8     1.254     0.689 -70.78   0
       539    606.3364    125.1256 307.7031896  +6.6380839     674.5864      1294.08     1276.808     84.76348     168.5914     337.0488      2.102     4.60     994.4062     59.41624     90.58331         6     1.015     0.593  28.22   0
       540    395.1102    121.8122 307.7910767  +6.6323713      3165.52     5613.863     5982.138     84.22868     168.3232     336.9147      1.898     4.46     998.8658     59.41624     332.7994        31     1.588     1.161 -53.18   0
       541    577.0224    121.2026 307.7155034  +6.6387218     1569.701     2567.095     2828.603     84.09446     168.2561     336.8477      1.632     5.35     994.5341     59.41624     212.9067        17     1.326     1.114  -0.50   0
       542    350.5968    111.3761 307.8099264  +6.6351859     2841.358     5175.056     6002.886     84.09446     168.2561     336.9147      2.008     4.49      1003.99     59.41624     316.7078        29     1.456     1.224 -45.03   0
       543     48.1346     94.3587 307.9361864  +6.6320411     744379.6      1792789      1971745     84.49651     168.5244     337.1829      2.324     5.07     1015.748     59.41624     62382.34       434     2.242     1.869 -73.95   4
       544    749.9637    106.0527 307.6441449  +6.6507645     818.3942     1257.098     1177.021      84.3627     168.5914     337.1159      1.717     4.83     991.5148     59.41624     132.7202         8     1.065     0.635 -82.13   0
       545    721.8816    104.7140 307.6558601  +6.6503781     1215.906     2329.889     2279.301     84.22869     168.8593     337.1829      1.953     5.28     991.9555     59.41624      173.212        17     1.434     1.043  60.41   0
       546    735.7000    101.4184 307.6502284  +6.6522009     3054.074     4799.448     4437.992     84.49651     168.4574     336.8477      1.666     3.52     991.3232     59.41624     431.6046        26     1.334     1.140 -63.82   0
       547     13.1757     94.8187 307.9506972  +6.6306736     1628.453     3313.121     4865.934     84.22868     168.4574     337.0153      2.738     5.90     1017.815     59.41624     177.3409        30     1.570     1.400  88.44   0
       548    477.6953     92.4534 307.7577486  +6.6472629     3528.169     6211.809     6621.413      84.3627     168.5914     337.3503      1.904     4.28     995.6126     59.41624     386.6465        31     1.540     1.180 -64.38   0
       549    950.1962     87.8009 307.5615456  +6.6649883      3959.79     5861.484     5779.813     83.82536     168.1217     336.8141      1.578     3.14     985.3082     59.41624     646.2352        23     1.295     0.959 -76.47   0
       550    932.1665     88.6970 307.5690084  +6.6640166     2144.603     2712.536     3015.018     84.49651     168.4574     337.2164      1.441     3.29     985.4905     59.41624     318.6733        15     1.120     0.812 -79.79   0
       551    629.6718     88.7222 307.6947181  +6.6538953     691.1973     1258.589     1412.783     84.76348     168.8593     337.0824      1.904     4.75     993.2011     59.41624     119.8464         5     1.134     0.565 -25.88   0
       552    642.4404     86.5145 307.6894861  +6.6552342     1666.484     2897.024     3279.799     84.49651     168.5244     337.0488      1.891     4.05      992.979     59.41624     220.1331        19     1.200     1.066 -85.61   0
       553    441.1602     84.2872 307.7732066  +6.6494092     1570.548     2658.367       2359.5     84.49651     168.5244     337.1159      1.869     5.37     996.1279     59.41624      192.074        19     1.324     1.010 -56.27   0
       554    289.1162     84.9309 307.8363677  +6.6440394     640.2018     1070.651     1590.254     84.76348     168.8593     337.1159      2.167     5.30     1009.839     59.41624     94.55139         7     1.562     0.508 -41.43   0
       555    188.9489     81.3610 307.8781127  +6.6421464     2653.328     4747.453     5049.364     84.22868     168.5914     337.0824      1.873     4.50     1011.271     59.41624     304.3623        30     1.561     1.207 -79.73   0
       556     70.8897     79.2232 307.9272434  +6.6390562      11006.2      19209.1     21075.18     84.49651     168.3903     336.9483      1.874     3.95     1014.014     59.41624     1270.863        43     1.582     1.266 -70.45   0
       557    337.4153     80.1227 307.8164592  +6.6476468     1015.882     1727.104     2239.639     84.09446     168.2561     336.9147      2.048     4.89     1005.441     59.41624     125.5132        12     1.159     0.872   7.82   0
       558    463.1260     75.0065 307.7643915  +6.6539777     1046.135     1901.331     1554.337     84.09446     168.1217     336.9147      1.847     6.66     995.8818     59.41624     114.4015        13     1.238     1.003  48.39   0
       559    939.1927     75.2771 307.5665389  +6.6697920     757.3773     1192.896     1438.523     84.09446     168.0545     336.8812      1.670     4.07     984.8868     59.41624     106.1898         6     0.751     0.630 -84.57   0
       560    872.4846     73.6429 307.5943170  +6.6682398      6198.59     9214.863     9415.474     84.49651     168.4574     337.0488      1.613     3.21     986.6578     59.41624     818.4787        28     1.271     1.098 -63.60   0
       561    817.6848     73.9053 307.6170823  +6.6663010     3196.943     5002.862     5196.897     84.49651      168.993     337.1829      1.636     3.45     988.7434     59.41624     410.5219        24     1.321     1.012 -55.52   0
       562    579.9089     72.0824 307.7159586  +6.6590990      1006.59     1466.814      1309.42     84.22869     168.8593     337.1494      1.545     4.98     993.2498     59.41624     121.2324        12     1.128     0.803 -27.17   0
       563    111.2526     71.1363 307.9107447  +6.6437537     2865.045     4690.497     5070.411     84.49651     168.5244     337.0488      1.812     3.82     1012.505     59.41624     334.2926        24     1.310     1.094 -74.70   0
       564     96.0459     72.1953 307.9170279  +6.6428046     810.9423     1277.953     902.6799     83.82536     168.2561      336.747      1.568     5.08     1012.842     59.41624     96.49677        10     0.951     0.768  85.53   0
       565    472.7119     71.1400 307.7605383  +6.6558955     801.2867     1220.088      1460.77      84.3627     168.7254     337.1829      1.587     5.68     995.7462     59.41624     135.4419        10     1.162     0.782 -51.73   0
       566    635.0291     67.4247 307.6932088  +6.6628678     1296.366     2181.813     2474.873     83.96001     168.4574     336.9147      1.949     4.81     992.1951     59.41624     150.0019        15     1.113     1.008 -74.10   0
       567     53.5727     66.5465 307.9348685  +6.6437067     2526.582     4345.054     4780.585     84.22869     168.7254     336.9818      1.914     4.35     1014.267     59.41624     318.3138        23     1.414     1.043 -81.85   0
       568    812.1349     61.5001 307.6198057  +6.6712374     1990.273      2997.61     3183.676     84.49651     168.7254     337.0488      1.675     4.28     988.3643     59.41624     249.9293        22     1.473     1.016 -80.04   0
       569    126.4908     62.6150 307.9047010  +6.6477846      659.315     1416.875     879.8986     84.22869     168.3903     336.9147      2.110     6.49     1012.161     59.41624     96.12769         9     1.463     0.808 -88.68   0
       570    452.7624     61.9197 307.7691397  +6.6590333      1129.84     1925.624     1367.199      84.3627     168.6584     337.0488      1.771     5.04     996.1241     59.41624     153.6454        14     1.176     0.971  -6.86   0
       571    150.0275     60.2558 307.8950002  +6.6495507     858.6174     1334.127     1366.758     84.09446     168.6584     336.9147      1.754     5.42     1011.679     59.41624     99.46704         9     1.033     0.803  80.90   0
       572    138.9969     55.2769 307.8997524  +6.6512351     8019.871     14270.31     15237.03     83.96001     168.0545     336.9147      1.881     4.09     1011.883     59.41624      905.014        42     1.627     1.255 -68.49   0
       573    468.0418     55.0645 307.7630212  +6.6623760      2126.42     3895.201     3907.999     84.49651     168.5244     337.1494      1.912     4.17     995.8953     59.41624     272.6915        25     1.401     1.166 -49.66   0
       574    681.6453     47.2443 307.6745152  +6.6727600     17066.64     27630.55     29129.31     84.49651     168.5914     337.0488      1.753     3.58     991.0583     59.41624     1940.405        49     1.544     1.253 -70.45   0
       575    305.9406     49.2017 307.8305832  +6.6593560     1095.054     1927.847     2913.243     83.82536     168.2561     336.7806      2.503     5.91     1009.094     59.41624     140.9254        17     1.346     0.986 -62.58   0
       576    711.3425     48.3383 307.6621366  +6.6733019     615.3907     808.8298     1009.893      84.6301     168.5244     337.1159      1.631     4.87      990.829     59.41624     84.09033         6     0.904     0.743 -15.90   0
       577    299.6335     43.7329 307.8333890  +6.6614020     1846.022     3181.145      4447.38      84.3627     168.6584     337.1494      1.902     4.54     1009.883     59.41624     221.5074        23     1.387     1.125 -45.50   1
       578    581.4790     43.3391 307.7162744  +6.6710190     4810.579     7870.026         8314      84.6301     168.6584     337.0824      1.796     3.92     992.1739     59.41624     546.2674        33     1.451     1.205 -66.81   0
       579    487.0231     38.9433 307.7556767  +6.6696684     19465.61     34161.47     35899.02     84.09446     168.5914     336.8812      1.867     3.95      995.457     59.41624     2195.289        57     1.622     1.340 -71.12   0
       580    307.6368     39.2999 307.8302128  +6.6635010     7786.728     13706.41     14842.35     84.49651     168.4574     337.3169      1.910     4.10     1009.093     59.41624     872.6482        45     1.657     1.327 -80.21   0
       581    668.1579     37.7681 307.6804394  +6.6762212      2579.66     5186.915     6093.581     83.96001     168.4574     336.9147      2.234     5.72     990.8184     59.41624     334.6725        34     1.884     1.215  82.40   0
       582    368.1627     39.4675 307.8050545  +6.6654643     991.3776     1744.006     2022.665      84.3627     168.5914     337.1829      1.819     6.17     1002.314     59.41624     117.0851        13     1.207     0.888 -78.69   0
       583     72.9858     39.0053 307.9277340  +6.6557310     2015.711     3432.691     3445.651     84.09446     168.2561     336.9147      1.779     4.48     1012.856     59.41624     239.0916        24     1.379     1.173  81.96   0
       584    964.7776     38.9754 307.5571243  +6.6856340     1904.693     2766.067     3641.967     83.96001     168.3903     337.0488      1.550     2.88     982.0777     59.41624     325.9069        15     1.118     0.790 -64.58   0
       585     48.9038     41.8813 307.9376439  +6.6537326     931.4771      1953.99     2121.965     84.22869     168.9261     337.1494      1.985     7.06     1013.284     59.41624     129.5671        15     1.641     0.852 -70.71   0
       586    295.6755     36.0801 307.8352923  +6.6644285     2621.266     4714.549     4784.385     84.76348     168.8593     337.1829      1.916     4.58     1010.556     59.41624     309.0935        28     1.550     1.115 -75.90   0
       587    348.9593     34.7782 307.8131932  +6.6667557     648.9513     1217.429     1109.306     84.09446     168.3903     336.8812      1.590     3.88      1004.39     59.41624     92.08984         5     0.828     0.521 -53.47   0
       588    736.9052     28.4985 307.6521804  +6.6823483     1815.311     2905.721     2443.782     84.49651     169.1934     336.9147      1.702     4.28     990.4125     59.41624     238.8368        21     1.382     1.086 -78.86   0
       589    985.5690     28.7848 307.5488253  +6.6905351     936.7547     1322.154      1094.41     84.09446     168.3232     337.0153      1.471     3.24     980.1281     59.41624     165.6408         8     0.922     0.631 -89.47   0
       590    302.5797     23.6859 307.8328419  +6.6697776     494.7263     652.0955     746.4877     84.22869     168.3232     337.0153      1.537     3.90     1010.034     59.41624     90.10541         5     1.004     0.435  75.04   0
       591   1003.0825   1017.4675 307.5084031  +6.2828998     7860.299     10969.21     12202.53      84.6301     168.8593     332.9007      1.480     2.91     1016.623     59.41624     1236.109        28     1.392     0.900 -65.63  16
       592     38.1863     21.5897 307.9427848  +6.6617491     971.0891      1517.99     1573.155     84.09446     168.2561     337.0153      1.806     5.90     1012.338     59.41624     124.2961        11     1.069     0.917  82.11   0
       593    757.1996   1018.3324 307.6104829  +6.2743373     1010.952     1189.831     1599.083     83.69048     168.0545     325.9391      1.172     3.33      1025.16     59.41624     200.4902        10     1.026     0.621 -59.70  16
       594    762.8619   1015.6182 307.6082226  +6.2756472     3237.814     4460.779     4861.929     84.09446     168.5244     336.9483      1.453     2.97     1024.954     59.41624     509.6193        21     1.241     0.884 -70.52  16
       595    287.5781   1017.2338 307.8055330  +6.2590643     1438.419     2046.315      2510.14     83.96001     168.3903     334.0525      1.525     3.22     1031.139     59.41624     221.9019        12     1.083     0.722 -76.74  16
       596    507.8626     17.8057 307.7477288  +6.6790942     1587.239     2758.128     2727.726     83.82536     168.3232     336.8477      1.816     4.49     994.4761     59.41624     182.8143        19     1.238     1.113 -44.57   0
       597    830.8588     14.6269 307.6135995  +6.6912160     542.3018     735.7446     679.0204     84.09446     168.6584     336.9147      1.361     4.30       985.27     59.41624     80.92798         6     0.779     0.677 -55.62   0
       598    485.9423   1016.4270 307.7231898  +6.2660490      1162.46     1525.216      1499.91     84.09446     168.6584     336.9147      1.382     2.82     1030.275     59.41624     188.1804        10     0.967     0.637 -67.17   0
       599    778.5593   1014.6470 307.6017366  +6.2765726     1101.639      1545.73       1678.9      84.3627     168.5914     336.8812      1.329     4.66     1024.554     59.41624     186.8112        11     1.254     0.636 -44.28   0
       600    409.5257   1013.1201 307.7550334  +6.2648534     1969.871     2693.172     2630.641     84.76348     168.8593     337.1494      1.381     2.98     1030.899     59.41624     334.6921        14     1.055     0.763 -63.03   0
       601   1019.4759   1011.1299 307.5018075  +6.2860629     738.6295     1226.192     1675.671     84.76348     168.7254     314.6167      1.967     4.57     1015.182     59.41624     109.9949         7     1.228     0.484 -65.06  16
       602    591.8242   1003.2534 307.6796646  +6.2750334     4435.554     5979.537     5999.935     83.96001     168.5914     336.8812      1.446     3.22     1028.673     59.41624      696.249        21     1.253     0.844 -68.21   0
       603    562.2624   1004.4016 307.6919019  +6.2735699     1192.854     1330.069     356.0998     83.82536     168.3903     336.7806      1.312     3.48     1028.802     59.41624     185.6571        11     1.027     0.757 -63.68   0
       604    342.1031   1001.9210 307.7834081  +6.2672162     16142.54     23215.76     25486.17     84.22869     168.8593     337.1829      1.538     3.22      1030.76     59.41624     2577.187        54     1.859     1.096 -45.70   0
       605    796.3443   1002.5622 307.5947566  +6.2821563     9221.067     12326.37     13169.46     84.49651     168.6584     337.1159      1.408     2.86     1023.842     59.41624     1431.023        30     1.340     0.926 -58.40   0
       606     38.5072   1002.6969 307.9094471  +6.2566961     776.9411     1251.534     1116.963     84.49651     169.1266     337.0153      2.070     5.48     1031.235     59.41624     145.4475         9     1.366     0.619 -79.34   0
       607    857.5659   1002.0917 307.5693485  +6.2843947      1404.04     1828.528     1837.454      84.6301     168.4574     337.1494      1.381     2.93     1023.452     59.41624     208.4478        14     1.043     0.809 -70.16   0
       608    466.4021   1002.5182 307.7317723  +6.2711370     952.3223     1148.049     1823.618     83.82536     168.1889     336.7806      1.547     4.09     1030.282     59.41624     163.2614         7     1.048     0.456 -63.16   0
       609     16.0776   1001.1850 307.9188116  +6.2565656     2466.876     2349.236     1891.457     84.09446     168.2561     336.9147      0.520     0.87     1031.721     59.41624     1580.427         5     0.431     0.378  25.35   0
       610    313.3657    999.3849 307.7954269  +6.2672991     1062.036     1497.985     800.2684     84.09446     168.3232     336.9483      1.478     4.22     1030.994     59.41624     142.8242        11     1.049     0.827 -11.10   0
