#   1 NUMBER                 Running object number                                     
#   2 X_IMAGE                Object position along x                                    [pixel]
#   3 Y_IMAGE                Object position along y                                    [pixel]
#   4 ALPHA_J2000            Right ascension of barycenter (J2000)                      [deg]
#   5 DELTA_J2000            Declination of barycenter (J2000)                          [deg]
#   6 FLUX_APER              Flux vector within fixed circular aperture(s)              [count]
#   9 FLUXERR_APER           RMS error vector for aperture flux(es)                     [count]
#  12 FLUX_RADIUS            Fraction-of-light radii                                    [pixel]
#  13 FWHM_IMAGE             FWHM assuming a gaussian core                              [pixel]
#  14 BACKGROUND             Background at centroid position                            [count]
#  15 THRESHOLD              Detection threshold above background                       [count]
#  16 FLUX_MAX               Peak flux above background                                 [count]
#  17 ISOAREA_IMAGE          Isophotal area above Analysis threshold                    [pixel**2]
#  18 A_IMAGE                Profile RMS along major axis                               [pixel]
#  19 B_IMAGE                Profile RMS along minor axis                               [pixel]
#  20 THETA_IMAGE            Position angle (CCW/x)                                     [deg]
#  21 FLAGS                  Extraction flags                                          
         1    731.5839     20.6188 307.6452960  +6.6898468      7092.33     11095.11        11539     82.47517     164.8189     329.9663      1.702     3.85      941.592     58.17928     929.7468        32     1.452     1.066 -83.24   0
         2    651.8418     19.9094 307.6784557  +6.6874694      3497.75     5687.083     5590.164      82.7374     165.0816     330.1304      1.721     3.89     943.1424     58.17928     423.2461        28     1.428     1.069 -76.72   0
         3    451.9746     16.0258 307.7616376  +6.6823701     5653.439     9885.519     10702.75     82.21208     164.8846     329.9663      1.856     4.29     947.5401     58.17928     649.9188        35     1.590     1.168 -84.74   0
         4     52.9236     15.5227 307.9274654  +6.6691542     8048.997     13123.68     13743.35     82.99882     165.3438     330.1304      1.788     3.89     968.4605     58.17928     949.3666        41     1.631     1.155 -89.59   0
         5    698.9491     15.0447 307.6590443  +6.6910554     860.8749     1302.579     1368.502     82.86822      165.016     330.0976      1.636     4.79     941.7806     58.17928     121.6718        11     1.091     0.750  78.87   0
         6    527.7966     13.4655 307.7302176  +6.6859714      853.797     1396.983     1450.964     81.94817     164.8189      329.835      1.527     5.30     945.3539     58.17928      126.152        11     1.070     0.915 -31.28   0
         7    348.5510     10.9225 307.8047847  +6.6810031     11619.82     19590.12     21206.68      82.7374     165.1472      330.032      1.831     4.13     960.0686     58.17928     1294.913        43     1.631     1.175 -85.83   0
         8    122.0797     11.3450 307.8988722  +6.6732091     2442.859      3896.02     3658.949     82.86822     165.0816     330.0976      1.706     4.18     967.0817     58.17928     305.3413        23     1.445     0.963 -73.84   0
         9    443.5522     11.5380 307.7652885  +6.6839400     756.7103     1339.464     2253.684     82.60639      165.016     330.1304      2.151     5.17     947.9214     58.17928     85.49603         8     1.131     0.667 -86.63   0
        10    817.2167      9.9662 307.6100694  +6.6971095     854.9497     1186.705     1319.812     82.34373     164.8189     329.9006      1.583     5.48      937.044     58.17928     105.3982        10     1.186     0.715 -56.36   0
        11    414.7303      8.8876 307.7773541  +6.6840664     2068.667      3505.25     3561.589     82.86822     165.3438     330.0648      1.788     4.57     949.5375     58.17928     238.1177        23     1.490     0.952 -86.94  16
        12    113.3661     10.1856 307.9025319  +6.6733941     1478.391     2527.031     2815.484     82.34373     164.8189     329.9335      1.816     6.67     967.4016     58.17928     157.9613        17     1.360     0.918 -77.73   0
        13    675.4868      4.4613 307.6691496  +6.6946388     10469.63     16527.93     17521.54     82.86822     165.2783     295.6515      1.742     3.97     941.5698     58.17928     1183.394        40     1.542     1.123 -83.44  24
        14   1009.6514      5.9868 307.5302358  +6.7051813     728.3642     915.0468       1062.3     82.08023      165.016      312.812      1.347     4.40     927.2538     58.17928     112.8301         7     0.891     0.618  65.24  16
        15    553.2486      4.1776 307.7199540  +6.6906593     1311.924       2314.5     2406.347     82.34373     163.9624     291.7423      1.894     5.24     944.9832     58.17928     171.6671        15     1.403     0.795 -74.25  16
        16    840.0969      3.6309 307.6007741  +6.7004900     1723.962     2907.966     3249.899     82.86822     160.0174     284.6769      1.894     4.33     935.0331     58.17928     220.0748        23     1.427     1.032  85.71  24
        17     93.9380      5.2045 307.9107728  +6.6747959     725.5361     1079.067     908.6562     82.08023     164.8189     304.4239      1.580     4.19     967.8918     58.17928     118.8502         6     0.802     0.626  69.72  16
        18    910.4825      2.1493 307.5715748  +6.7034540     1487.312     2046.054     2542.986     80.88386      143.532      262.011      1.466     3.85     933.6371     58.17928     207.0438        12     1.028     0.825  82.15  24
        19    275.7790      2.0906 307.8353208  +6.6822025     5302.545     7122.115     7080.012     80.21149     142.5476     260.9754      1.476     3.65       965.48     58.17928     651.3372        23     1.363     0.987 -10.50  24
        20    666.9907      1.4656 307.6727808  +6.6955909     4206.491     5059.818      5592.42     73.44429     133.1988     250.4279      1.090     2.99     941.7921     58.17928     990.8588        14     1.103     0.615  -8.57  24
        21    436.8539      1.5218 307.7684094  +6.6878500     3935.541      4832.65     4901.159     74.46948     134.1711     251.5929      1.158     3.21     948.2551     58.17928     838.6628        15     1.194     0.627  -7.85  24
        22    978.8850      1.3431 307.5431767  +6.7060714     440.7764     411.1795     634.1063     72.40458       131.48     248.5611      0.974     3.37     929.4672     58.17928     98.92456         5     0.779     0.422 -19.34  24
        23    696.7310      1.2364 307.6604301  +6.6966815     2098.619     2626.903     2900.619      70.5866     129.9054     246.8557      1.033     2.09     941.3698     58.17928     646.1405         9     0.996     0.419  -4.38  24
        24    645.9739    985.0097 307.6484698  +6.2888456     1000.035     1495.266     1861.917     82.34373     164.8846     329.9335      1.655     4.11     982.7701     58.17928     159.3623        11     1.085     0.714 -78.68   0
        25    979.7370   1023.7599 307.5085870  +6.2840029     1320.707     1474.835     1756.141     70.73988     129.9054     246.8557      0.984     2.36     973.8823     58.17928     359.1631         7     0.908     0.419  -6.07  24
        26    754.7244   1022.8470 307.6020458  +6.2768635     1046.261      1372.65     1464.817     80.74983      143.532     262.0523      1.398     3.03     979.5464     58.17928     189.2711         9     1.036     0.580  78.32  24
        27    739.5907   1023.2953 307.6083144  +6.2761723      1764.62     2070.349     2600.634     76.19488     136.5715      254.461      1.183     2.61     979.3616     58.17928     286.9919        10     0.850     0.729   5.51  24
        28    386.1523   1022.0916 307.7551019  +6.2648280     1863.023     2893.562      3177.32      82.7374     152.8865     273.9348      1.676     4.36     988.6425     58.17928     255.9457        16     1.298     0.777  87.87  24
        29    134.9915    985.8458 307.8606019  +6.2713517     588.4682     750.8278     559.0463     82.21208     164.9503     329.7036      1.335     3.59     989.2515     58.17928     94.92859         5     0.809     0.496  56.95   0
        30    785.8284    980.3754 307.5905549  +6.2954376     6834.969     10366.77      11259.8     82.21208     164.8846     329.9007      1.648     4.07     978.6312     58.17928      888.812        37     1.636     1.009 -80.24   0
        31    837.5841    982.3821 307.5689974  +6.2963389     2495.198     3735.255     3642.813     82.47517     164.7532     329.9991      1.625     4.22     977.1302     58.17928     360.8281        22     1.416     0.903  89.76   0
        32    572.5261    979.8157 307.6791409  +6.2885302     984.7953     1359.266     946.6961     82.21209     164.8189     329.9335      1.501     5.24     984.8292     58.17928     140.9964        11     1.184     0.731 -79.02   0
        33    255.1710    979.5737 307.8109162  +6.2779819     1412.438     1906.237     1562.502     82.21208     164.8846     329.9335      1.612     5.10     989.3059     58.17928      173.494        15     1.320     0.798 -74.28   0
        34    219.5245    978.8337 307.8257413  +6.2770893     997.3276     1661.917     1965.697     82.60639     165.0816      330.032      1.912     6.17     989.7271     58.17928     121.5038        12     1.310     1.046 -60.19   0
        35     80.3314    977.3442 307.8835828  +6.2730219     2762.156     4179.612     4140.224     82.86822     164.9503     329.9991      1.620     4.05     990.0452     58.17928      354.214        20     1.427     0.817 -85.87   0
        36    974.0109    975.5237 307.5125786  +6.3037259     7066.355     10757.58     11427.34     82.34373     164.6875     329.9007      1.629     3.67     972.5131     58.17928     955.6531        31     1.415     1.048 -83.18   0
        37    229.9908    971.2559 307.8216512  +6.2805694      554.534     764.9384     273.7807     82.08023      165.016     329.7693      1.504     4.19     989.4463     58.17928     112.9722         5     0.844     0.593 -88.90   0
        38    656.1268    969.5766 307.6447722  +6.2955569     788.1317     838.4998     390.2806     82.34373     164.8846     329.9991      1.376     5.67     981.5825     58.17928     107.1678        10     1.013     0.894  72.33   0
        39    947.7374    967.2347 307.5237657  +6.3062711     2011.173     2953.223     3073.644     82.60639     165.1472      330.032      1.589     4.24     973.6456     58.17928      281.768        19     1.355     0.922 -61.13   0
        40    807.2827    963.9653 307.5821966  +6.3029295     1424.696     1949.327     2092.264      82.7374     165.0816     329.9991      1.540     4.82     977.6276     58.17928      191.608        14     1.389     0.741 -86.08   0
        41      5.5080    965.0549 307.9150630  +6.2755755     1058.933      1636.85     1987.596     82.60639     164.9503      308.102      1.788     4.80     989.9298     58.17928     176.2837        10     1.314     0.496  87.15  16
        42    668.4980    963.0424 307.6398547  +6.2986685     4779.568     7228.497     7863.433      82.7374     164.9503     330.2944      1.661     3.90      980.705     58.17928     620.2178        27     1.442     0.971 -88.80   0
        43    280.7734    963.2593 307.8008359  +6.2855772     4443.957     6698.431     6977.865     82.34373     165.1472     329.9007      1.621     3.90     988.5178     58.17928     591.1303        26     1.427     0.984 -85.72   0
        44    490.8273    961.8997 307.7136655  +6.2931885     1134.163     1463.356     959.3623      82.7374     164.8189     329.9663      1.518     5.83     985.7947     58.17928     147.7224        13     1.261     0.759  88.94   0
        45     49.4750    960.6912 307.8969561  +6.2788577      2293.59     3470.613     3501.112     82.73741     165.2783     330.0976      1.648     4.60     989.7395     58.17928     274.4647        19     1.462     0.797  87.92   0
        46   1018.2000    962.2980 307.4946721  +6.3106603     667.4733     1139.757      1602.06     82.21208     164.6875     320.3054      1.516     3.08     969.5599     58.17928     135.4991         5     0.846     0.612  55.51  16
        47    900.2285    959.5820 307.5437492  +6.3078444     1022.784     1496.771     1104.272     82.34373     164.8846     329.9991      1.585     5.53     974.7197     58.17928     127.6661        12     1.326     0.649  89.35   0
        48    992.1032    957.2947 307.5056759  +6.3118553     559.1155     989.1347      1231.66      82.7374     165.6711     329.9007      1.807     4.95     970.8287     58.17928     97.12799         8     1.524     0.455 -76.75   0
        49   1023.8898    955.3907 307.4925405  +6.3137017     451.9473     791.7156     991.0473     68.40459     127.0388     244.2976      1.705     4.14     969.1547     58.17928     91.52795         7     1.581     0.310 -88.40  24
        50    971.7965    957.1144 307.5141141  +6.3112522     661.9916     886.6017     805.7906     82.21208     164.6875     329.7693      1.341     3.46     971.8609     58.17928     114.1713         5     0.748     0.674 -78.19   0
        51    593.1844    955.6959 307.6713734  +6.2991798     1851.512     2657.864     1827.863     82.47517     164.8189     329.9007      1.557     3.74     983.4251     58.17928     262.4232        19     1.329     0.874 -89.70   0
        52    316.9329    956.6824 307.7860439  +6.2895070     1002.729     1321.515     1338.207     82.86822     165.3438     330.1304      1.516     5.02     988.2979     58.17928     124.7812        10     0.973     0.733  82.47   0
        53    632.1152    951.9755 307.6553333  +6.3020194     1405.222      1900.43     1839.321     82.73741     164.8189     329.9663      1.502     4.20     981.8812     58.17928     227.8245        15     1.338     0.761 -86.84   0
        54     82.0331    952.8425 307.8837034  +6.2831940     808.4263     1127.062     1504.703     82.47517     165.0816     329.9006      1.464     5.38     989.4955     58.17928     145.2798         9     0.971     0.841  86.55   0
        55    312.3322    949.8747 307.7881834  +6.2921628     1548.415     2381.193      2339.25     82.86822     165.2128     330.0648      1.605     3.83     988.1906     58.17928     252.2776        17     1.222     1.020  71.79   0
        56    580.3218    948.5012 307.6769559  +6.3017192     875.1591     1106.326     1377.372     82.34373     165.3438     330.0976      1.578     4.94     983.3365     58.17928     128.0572         8     0.940     0.735  54.77   0
        57    779.2824    945.7018 307.5944355  +6.3095334     927.7009     1309.829      1359.89     82.73741     165.4748     330.1632      1.572     4.07      977.809     58.17928     143.0023        10     1.051     0.731  58.88   0
        58    916.6984    942.2987 307.5374890  +6.3155296     7459.713     11201.12     10820.17     82.73741     165.4748     329.9007      1.648     3.86     973.3734     58.17928     1001.849        30     1.468     0.987 -88.33   0
        59    452.7520    939.7924 307.7302185  +6.3010382     2193.647     3405.258     3362.855     82.21208     164.8846     329.6707      1.595     4.57     985.8613     58.17928     261.9894        19     1.424     0.856 -84.53   0
        60    621.6773    939.3857 307.6600902  +6.3068675     667.3246     1080.439     1367.797     82.34373     164.7532     329.9007      1.695     5.34     981.6473     58.17928     102.0966         5     0.975     0.826 -75.45   0
        61    354.2557    937.8263 307.7711821  +6.2985446     9858.138     15211.88      15961.7     82.34373     165.1472     329.9007      1.646     3.80     987.9219     58.17928     1169.073        39     1.523     1.066 -84.02   0
        62    274.3316    936.8195 307.8044014  +6.2962758     7038.645        11031     11843.54     82.34373     164.9503     329.9991      1.689     4.06     988.0718     58.17928     862.3964        32     1.524     0.996 -86.85   0
        63    602.5416    931.5890 307.6682978  +6.3094454     1242.854     1821.977     1829.954     82.08023     164.9503     329.7693      1.612     3.66       981.95     58.17928      195.417        14     1.008     0.926  78.06   0
        64    787.2759    930.9617 307.5916105  +6.3158860     805.8021     1082.406     1415.929     82.60639     165.1472     330.0648      1.582     4.74     977.1155     58.17928     108.1879         8     1.106     0.576 -64.38   0
        65    932.3085    927.4090 307.5315055  +6.3221979     1350.151     2006.445      2637.66     82.34373     164.7532     329.8021      1.643     5.20     972.0699     58.17928     171.1708        10     1.108     0.690  77.08   0
        66    165.5676    927.5471 307.8498737  +6.2964473      717.933     1024.829     1745.766     82.60639     165.0816     329.9663      1.617     3.71     988.5563     58.17928     135.4037         6     0.987     0.401  71.16   0
        67    888.8227    926.2815 307.5496006  +6.3212114     836.0488     1253.367     1339.139     82.47517     164.7532     329.9991      1.654     5.67     973.3019     58.17928     104.3451         9     1.311     0.690  76.06   0
        68    431.4274    925.6624 307.7395483  +6.3061562     579.1104     650.4759     831.7335     82.34373     165.0816     329.9991      1.187     4.13     986.1702     58.17928     83.03003         7     1.015     0.479  82.04   0
        69    768.9382    920.6001 307.5995725  +6.3195506     1603.257     2211.924     2750.981     81.94816     164.8189     329.7036      1.504     4.36      977.451     58.17928     215.7514        13     1.159     0.743  88.40   0
        70    861.9848    921.1890 307.5609156  +6.3224173     677.7874     707.8592     702.6793     82.47517     164.7532     329.9991      1.397     4.47     973.9941     58.17928     115.1686         7     0.865     0.698  72.56   0
        71     19.5689    917.8265 307.9108206  +6.2955459     1007.265     1744.817     1940.394     82.21209     164.8189     329.9007      1.994     5.13     988.8869     58.17928     148.3364        10     1.239     0.601 -83.22   0
        72    999.9922    916.1479 307.5037767  +6.3291058     1377.035     2055.221     2713.828     82.21208     164.8846     329.7693      2.013     4.47     969.3268     58.17928     193.6918        16     1.380     0.779 -88.41   0
        73    633.0127    917.0798 307.6561324  +6.3164557     854.9617     1363.806     1060.203     82.34373     164.7532     329.9006      1.619     3.75     980.3683     58.17928     128.5415         8     0.860     0.645  47.63   0
        74    553.8442    916.3156 307.6890316  +6.3141194     1129.693     1463.155     1620.958     82.73741      165.016     330.0648      1.524     5.38     982.7446     58.17928      148.131        11     1.191     0.685 -88.20   0
        75    687.3652    913.7043 307.6336764  +6.3196686     2639.721     4013.516      4497.95     82.86822     164.9503     330.1632      1.704     4.28     978.9505     58.17928     349.9144        21     1.460     0.850 -86.03   0
        76    592.3630    920.7942 307.6728868  +6.3135610     676.5934     1001.382     743.3515     81.81588     164.8189      329.835      1.614     5.32      981.787     58.17928     113.2567         7     1.253     0.637  77.21   0
        77    977.6533    911.3632 307.5132131  +6.3303358       636.22     1156.955     1350.152     82.60639     165.0816     330.0976      1.569     5.25     969.9293     58.17928     111.9304         8     1.601     0.486 -73.30   0
        78     83.8351    909.8746 307.8844058  +6.3009926     2883.977     4669.521     4898.566     82.60639     165.1472      330.032      1.661     4.08     988.8398     58.17928     400.7257        25     1.567     0.926 -84.61   0
        79    848.3121    910.2440 307.5669598  +6.3264791     851.7186     1200.951     1003.053     82.73741     164.9503     330.0976      1.464     4.42     974.2078     58.17928     144.0579        10     1.180     0.617 -87.10   0
        80    101.4572    909.1368 307.8771139  +6.3018904     2006.912     3215.414     3521.395     82.86822      165.016     330.0976      1.697     4.79     988.8198     58.17928     257.8481        21     1.420     0.953 -80.86   0
        81    965.5250    909.2321 307.5183207  +6.3308109     854.8226     1635.218     2035.786     82.60639     165.1472      330.032      2.137     5.31     970.2745     58.17928     120.4943        10     1.249     0.637  89.78   0
        82    227.4982    908.9563 307.8247864  +6.3062045     2396.178     3613.779     3367.897      82.7374      165.016     330.2944      1.615     4.02     987.9331     58.17928     284.7539        20     1.282     0.932 -82.53   0
        83    984.1370    906.0686 307.5106979  +6.3327380     508.5377     753.4222     1102.719     82.73741     165.0816     330.1304      1.865     5.58     969.5671     58.17928      81.4082         6     1.274     0.688  87.63   0
        84    681.9713    902.9669 307.6362765  +6.3239210     7172.418     10810.88     11439.48     82.21208     164.8189      329.835      1.580     3.94     978.9086     58.17928     945.8639        33     1.463     1.040 -88.20   0
        85    366.2345    904.9354 307.7673156  +6.3125251     916.8937     1627.978     1649.137     82.60639     165.0816     330.0648      1.789     5.30     987.0918     58.17928     126.4313        12     1.217     0.893 -62.58   0
        86    261.8036    905.4154 307.8106615  +6.3088193     682.2319     976.4688     805.1874     82.34373     164.6875     329.9007      1.571     4.70     987.9004     58.17928     102.0911         7     1.028     0.609  76.20   0
        87    819.4434    903.8290 307.5791626  +6.3281628     831.8088     983.6782     1314.505     82.34373     165.1472     329.9663      1.366     4.60      974.981     58.17928     118.0222         9     1.220     0.491 -86.26   0
        88     41.9364    901.1982 307.9020953  +6.3031637     1248.331     2040.471     1812.978     82.08023     164.8189      329.835      1.690     4.84     988.7868     58.17928      161.418        13     1.316     0.814  85.39   0
        89    919.6741    899.3781 307.5376905  +6.3333485     3032.298     4488.467     4579.354     82.34373     164.9503     329.9991      1.600     3.89     971.4891     58.17928      408.976        21     1.305     0.955 -82.54   0
        90     55.1687    899.8471 307.8966468  +6.3041670     1133.302     1654.803     1856.599     82.34373     165.0816     329.9663      1.478     5.03     988.7809     58.17928     151.8529        17     1.398     0.826  88.53   0
        91    471.0428    900.5834 307.7239425  +6.3178385     635.8821     983.6837     1008.116     82.21208     164.9503     329.8021      1.765     3.96     984.3307     58.17928     87.39551         5     0.914     0.492   2.10   0
        92    364.9940    896.1183 307.7681275  +6.3161234     16402.92     25142.48      26527.1     82.34373     164.6217      329.835      1.613     4.12     986.9376     58.17928     2108.098        44     1.526     1.082 -85.95   0
        93     99.5937    897.0397 307.8782960  +6.3068216     1333.087     2304.578     2172.841     81.94816     164.7532     329.7693      1.766     5.52     988.7559     58.17928     171.3557        16     1.473     0.780 -85.09   0
        94    236.0789    895.7007 307.8216704  +6.3119652     1369.225     2199.955     2410.333     82.47517     165.4093     330.0976      1.816     4.35     987.9139     58.17928     194.0308        17     1.339     0.980 -79.29   0
        95    416.0801    895.2759 307.7469434  +6.3181858     743.7106      934.652     973.7324     82.99883     165.3438      330.196      1.527     3.86     985.6193     58.17928     107.6601         6     0.940     0.721  59.00   0
        96    128.3503    886.6140 307.8667078  +6.3120933     1836.338     2799.348     2795.815     82.08023      165.016     329.7693      1.703     4.58     988.6573     58.17928     243.5784        19     1.560     0.743 -76.01   0
        97    694.4393    887.4370 307.6316204  +6.3307496     680.5701     1178.511      1802.87     82.47517     164.9503     329.9335      1.846     3.38     978.4998     58.17928     126.1046         5     0.935     0.483  81.84   1
        98    442.7030    887.1928 307.7361606  +6.3224160     1197.719     1718.513     1573.267     82.47517     164.6875     329.8021      1.494     3.61     984.7038     58.17928     204.8026        13     1.218     0.744 -87.64   0
        99    523.5436    883.7629 307.7027077  +6.3265428     819.7712     1184.822      944.437     82.73741     165.0816     330.0976      1.422     4.67     982.6608     58.17928     105.8175         9     1.252     0.494  86.95   0
       100    696.3167    883.3914 307.6309766  +6.3324826     885.5248     1328.313     1602.395     82.34373     164.7532     329.9007      1.598     4.95     978.3938     58.17928     133.5225        10     1.124     0.638  57.22   0
       101    910.2023    880.9696 307.5422402  +6.3406321     2001.552     2885.828     3152.053     82.21208     164.8846     329.8678      1.571     3.43     971.2617     58.17928      297.377        17     1.293     0.832  86.38   0
       102    880.7550    880.2792 307.5544916  +6.3399337     2181.397     2987.544     2960.036     82.73741     165.0816     330.0648      1.498     4.39     972.3411     58.17928     294.3456        19     1.386     0.908  79.80   0
       103    844.2797    879.9497 307.5696495  +6.3388511     3231.057     4723.206     5083.959      82.7374     165.1472     330.0648      1.549     3.78     973.5078     58.17928     408.1198        19     1.318     0.857 -82.62   0
       104    111.9330    880.1827 307.8737415  +6.3141958     2530.473     3827.349     4278.454     82.21208      165.016     329.9663      1.647     4.40       988.65     58.17928     325.8348        22     1.446     0.908  89.07   0
       105    580.0711    871.3204 307.6796531  +6.3335738     343738.7     515569.6     538397.9     82.99883     165.3438      330.032      1.627     3.99     980.3808     58.17928     41876.46       164     1.668     1.282 -84.80   0
       106    424.3362    874.0068 307.7442309  +6.3272434     7572.413     11639.06     12360.46     82.08023     164.7532     329.8678      1.638     3.99      984.746     58.17928      939.489        32     1.469     1.035 -86.35   0
       107    668.0533    874.3381 307.6430169  +6.3352743     1358.854     1838.911     1485.296      82.7374      165.016      330.032      1.465     4.37     978.9602     58.17928     208.1308        13     1.159     0.710 -89.29   0
       108    367.5526    872.3005 307.7678671  +6.3260420     12694.19     19507.78      20624.4     82.73741     164.9503     330.2944      1.686     4.04     986.3708     58.17928     1501.008        41     1.524     1.076 -83.38   0
       109    685.9417    868.6793 307.6357787  +6.3382091     3907.691     5931.091     5944.863     82.86822     165.0816      330.032      1.615     4.09     978.4979     58.17928     493.7313        24     1.397     0.974 -77.51   0
       110    918.4371    867.4363 307.5392737  +6.3464942     5835.591     8720.995     9932.029     82.47517     164.9503      329.835      1.669     3.61     970.4891     58.17928     757.1237        28     1.391     1.018 -86.10   0
       111    757.9439    865.8547 307.6059738  +6.3417841     767.2552      1162.86     1242.626     82.86822     165.1472     330.0976      1.611     4.26     975.9087     58.17928     147.2805         6     1.222     0.594  87.59   0
       112    660.7360    862.6183 307.6464489  +6.3398677      3516.66     5201.496     4949.215     82.34373     165.0816     329.9007      1.620     4.00     978.8273     58.17928     447.0441        21     1.275     0.976 -87.43   0
       113    849.0005    861.7198 307.5682999  +6.3465349     1596.634     2550.672     3035.508     81.94816     164.4242     329.8021      1.810     4.45     972.8633     58.17928     217.4578        16     1.363     0.802 -81.11   0
       114    651.2694    861.2728 307.6504252  +6.3401063     1067.467     1820.677     2181.024     82.86822     165.2128     330.0648      1.909     5.76     978.7713     58.17928     139.0296        11     1.421     0.688 -79.91   3
       115    653.7493    857.2388 307.6495308  +6.3418547       2211.5     3445.528     3899.675     82.47517     165.0816      330.032      1.704     5.53     978.6132     58.17928     296.0854        21     1.621     0.950 -81.38   2
       116    976.2666    860.5875 307.5154882  +6.3512521     763.1616     1272.989     1244.263     82.21209     164.8846     329.9663      1.683     3.91     968.4686     58.17928     136.3214         8     1.091     0.537  71.14   0
       117    937.1207    855.3629 307.5319193  +6.3521025     3187.664         4744     4710.121     82.60639     165.1472     330.0648      1.596     4.09     969.4911     58.17928     403.6375        23     1.463     0.950 -83.40   0
       118    347.6338    856.0490 307.7766854  +6.3320824     966.3458     1571.917     1588.124     82.60639     165.0816     329.9991      1.751     4.80     986.6624     58.17928     134.3934        11     1.261     0.607  89.93   0
       119    395.4232    851.2002 307.7570044  +6.3356885     2584.168      3940.87     3927.339     82.34373     164.7532     329.8678      1.627     3.98      985.062     58.17928     317.8599        21     1.394     0.927 -82.78   0
       120    531.6674    840.9127 307.7007748  +6.3445052     2993.447     4721.208     5067.809     82.86822     165.2783     330.0976      1.702     4.12     981.0257     58.17928     385.7302        23     1.497     0.889 -79.88   0
       121    876.7148    839.8094 307.5575252  +6.3565064     1019.189     1632.877     2268.148     82.34373     164.7532     329.9007      2.044     5.35       971.13     58.17928     154.2253        11     1.226     0.659 -88.54   0
       122    597.2558    839.0187 307.6736022  +6.3474848     906.7783     1275.889     1380.091     82.21208      165.016     329.8678      1.454     3.58     978.7073     58.17928      145.869         9     0.866     0.813 -21.58   0
       123    578.4660    837.1130 307.6814689  +6.3476421     6083.233     9169.157     9895.952      82.7374     165.2783     330.0976      1.623     3.94     979.3101     58.17928     810.4664        27     1.419     0.989 -85.99   0
       124    914.1988    835.5210 307.5421026  +6.3595288     1447.247     2177.539     2411.682     81.94817       164.49      329.835      1.621     5.24      969.744     58.17928      200.814        19     1.539     1.025 -76.04   0
       125    585.6782    836.5414 307.6784932  +6.3481197     1356.067     2175.558     2436.936     82.86822     165.0816     329.9991      1.745     5.23     979.0316     58.17928     176.2958        15     1.335     0.943 -79.74   0
       126    496.2965    835.9341 307.7156302  +6.3453748     1622.718      2485.17     2387.079      82.7374     165.1472     330.0976      1.635     4.62     981.9678     58.17928     177.0822        17     1.212     0.998 -68.49   0
       127    290.2147    836.9706 307.8011709  +6.3380299     639.9971     1112.353     595.5912     82.34373     164.8189     329.9991      1.693     4.62     987.4014     58.17928     109.5056         7     1.056     0.574  73.17   0
       128    138.0979    835.2167 307.8643948  +6.3336393      1259.13     1841.756     1526.848      82.7374     164.8846     329.8678      1.556     4.24     987.9976     58.17928     170.6581        14     1.254     0.722 -85.84   0
       129    714.4549    834.1509 307.6250969  +6.3534180     612.1111     1149.178     998.4539     82.73741     165.0816     330.1304      1.798     4.55     976.2145     58.17928     78.79846         7     1.238     0.474 -82.34   0
       130    549.1777    830.9568 307.6938381  +6.3492022     19565.32     30205.29     31218.24     82.21208     164.9503     329.8678      1.635     4.06     980.0777     58.17928     2419.738        46     1.513     1.111 -86.09   0
       131    390.3942    832.8237 307.7597113  +6.3431061     795.1642     933.7283     932.5781     82.21208     164.8189     329.9007      1.325     2.99     984.8947     58.17928     148.4622         5     0.717     0.685 -40.93   0
       132    962.8371    829.3661 307.5221101  +6.3636935     4053.633     5991.147     6241.373     82.47517     164.8189      329.835      1.607     4.02     968.2975     58.17928     562.5466        23     1.421     0.900 -78.53   0
       133     83.0985    826.6454 307.8875217  +6.3353266     677.5462     873.4006     874.5353      82.7374     164.9503     330.2944      1.561     5.16     988.2655     58.17928     102.4469         8     1.460     0.515 -80.34   0
       134     59.7722    821.5421 307.8973799  +6.3366479     1470.549     2039.003     2015.088     82.34373     165.1472     329.9663      1.565     4.63     988.3661     58.17928     200.3038        14     1.266     0.755  83.86   0
       135    604.4667    820.7563 307.6712213  +6.3552657     576.4197     1005.961     919.2586     82.73741      165.016     330.0976      2.399     5.89     977.9618     58.17928     103.4911         7     1.668     0.585 -75.97   0
       136    341.8029    819.7801 307.7803281  +6.3468595     3297.918     5218.572     5956.008     82.34373     164.6875     329.8021      1.733     4.01     986.1619     58.17928     406.7037        23     1.416     1.003  86.30   0
       137    807.3342    815.5554 307.5871502  +6.3642011     57865.03     84485.65     88356.66     82.73741      165.016     330.0976      1.621     3.81     972.7252     58.17928     7341.638        71     1.547     1.141 -83.64   0
       138     41.8163    817.7509 307.9049638  +6.3376083     2148.582     3377.526     3746.074     82.21208     165.1472     329.7693      1.635     3.99     988.4677     58.17928     307.9589        18     1.390     0.821 -82.16   0
       139    745.3685    817.2410 307.6128267  +6.3614332     495.8409     1001.405     1120.341     82.21209     164.9503     329.9335      2.026     4.08     974.5185     58.17928     90.45129         5     1.161     0.409 -76.40   0
       140    264.6018    813.3801 307.8126016  +6.3469080      5352.22     8872.788     11125.11     82.34373     164.6875     329.7693      1.914     4.12     987.0862     58.17928     667.2823        33     1.575     1.064 -83.25   0
       141    450.8143    814.1716 307.7352491  +6.3528336     764.1929     1170.057     687.9496     82.34373     164.8846     329.9663      1.661     5.93     982.6006     58.17928     100.8108         9     1.293     0.765 -62.05   0
       142    932.5417    810.7114 307.5353159  +6.3703837     8827.069     13147.09      14131.3     82.60639     165.0816      330.196      1.642     4.01     968.5488     58.17928     1142.741        35     1.525     1.038 -89.84   0
       143    735.5845    810.1878 307.6171264  +6.3640178     21887.06     33007.14     34690.84     82.60639     164.7532     329.9991      1.648     3.91     974.4776     58.17928     2776.611        48     1.571     1.076 -87.71   3
       144    729.2976    806.6629 307.6198555  +6.3652627     89615.25       134086     140652.2     82.60639     165.2128     330.1304      1.652     3.85     974.5818     58.17928     11101.23        84     1.598     1.177 -84.37   3
       145    374.1867    807.4938 307.7672943  +6.3530190     20552.46     31729.38      33219.6     82.47517     164.8189     329.9007      1.691     3.91     984.9806     58.17928     2421.955        49     1.556     1.142 -85.06   0
       146    423.4694    807.4888 307.7468293  +6.3546751     1408.892     2023.308     2424.693     82.73741     165.3438      330.032      1.654     5.60     983.2607     58.17928     172.9742        13     1.327     0.740 -87.72   0
       147    662.6042    807.0194 307.6475398  +6.3628836      860.183     1512.718       2131.3     82.34373     164.6875     329.8678      1.745     6.11     976.5819     58.17928     108.4274        12     1.216     0.864 -87.74   0
       148    436.0829    805.3438 307.7416636  +6.3559839     22158.13     34280.82     36040.03      82.7374     165.0816     330.1632      1.667     3.94     982.8215     58.17928     2715.052        48     1.521     1.155 -85.83   0
       149    264.0672    791.8442 307.8135495  +6.3557807     766423.7      1817876      2008791      82.7374      165.016     330.0976      2.314     7.30     986.6982     58.17928     63980.09       565     2.422     2.022 -89.59   4
       150    902.2816    802.6467 307.5481526  +6.3727028     785.0961     946.6475     1109.361     82.73741     165.0816     330.0976      1.535     3.93     969.0709     58.17928     130.4014        10     1.146     0.616 -89.32   0
       151    973.2698    804.4162 307.5186127  +6.3743422     2221.007     3155.181     3133.602     82.21209     164.9503     329.9663      1.611     4.57     967.6882     58.17928     295.3545        17     1.357     0.786 -83.46   0
       152    670.1702    801.2795 307.6445905  +6.3655066     6397.605     9975.701     10344.01     82.60639     165.0816      330.032      1.660     3.97     976.2207     58.17928     783.9362        31     1.406     1.084 -87.24   0
       153    458.7835    799.4673 307.7324345  +6.3591714     1623.888     2586.397     2570.754     82.21209      165.016     329.9663      1.672     6.01     981.9127     58.17928     179.4881        16     1.488     0.821 -80.06   0
       154    183.9225    797.9454 307.8466241  +6.3505674     704.3799     1137.968     390.9816     82.86822     165.0816     330.0648      1.682     6.32     986.9246     58.17928     110.4537        10     1.363     0.823  70.63   0
       155    174.5518    792.4104 307.8507020  +6.3525371     883.4497     1374.812     1388.698     82.21209     164.9503     329.7365      1.871     4.74     986.8286     58.17928      142.821        10     1.353     0.472 -82.89   0
       156    898.3030    792.9218 307.5501306  +6.3765848     770.2961     1127.631      512.229     82.47517     165.2783     330.1304      1.470     5.03     968.9328     58.17928     116.6482         8     0.969     0.739  31.35   0
       157    705.0484    791.4281 307.6304369  +6.3707409     2457.755     3865.129     3732.823     82.34373     165.1472     329.9991      1.646     4.44       974.64     58.17928     306.0004        21     1.427     0.903 -87.87   0
       158    623.3481    792.5125 307.6643291  +6.3675583     883.8975     1218.853     1231.361     82.73741     164.9503     330.1632      1.547     4.97     976.6866     58.17928     129.1766         8     1.119     0.624  86.27   0
       159    149.6147    792.2073 307.8610640  +6.3517820     984.7537     1660.496     1592.069     82.34373     164.8189     329.9007      1.672     5.81     987.0112     58.17928     142.8432        13     1.338     0.837 -78.21   0
       160    439.0028    788.0108 307.7410343  +6.3632375     52279.23     82058.94      86466.7     82.34373     164.7532     329.9335      1.669     3.91     981.9615     58.17928     6345.489        77     1.621     1.238 -80.31   0
       161    982.2599    789.5997 307.5153751  +6.3807591      720.353     1015.263     671.9027     81.94817     164.8189     329.7365      1.422     3.76     966.9305     58.17928     122.6702         6     0.927     0.438 -88.28   0
       162    556.6975    787.0517 307.6921911  +6.3675799     6882.995        10460     10765.42     82.60639     165.0816     330.2944      1.616     4.11      977.998     58.17928     870.4495        33     1.491     1.022 -88.47   0
       163    473.6005    785.6527 307.7267462  +6.3653715     4391.635     6742.539     7399.016     81.94817     164.6217      329.605      1.653     3.87     980.8765     58.17928     537.9444        27     1.481     0.958 -84.35   2
       164    470.2041    779.0549 307.7283786  +6.3679814     2419.019     3662.882     3918.939     82.08023     164.8846     329.7365      1.630     4.11      980.674     58.17928     320.2552        21     1.299     0.983 -76.40   2
       165    801.9489    783.6553 307.5904562  +6.3771908     11810.18     17583.76     18580.53      82.7374     165.0816     330.0976      1.605     4.00     971.6357     58.17928      1546.42        37     1.411     1.092 -82.97   0
       166    929.4830    802.2205 307.5368705  +6.3737871     6884.292     10330.63      10523.6     82.47517     164.7532     329.9991      1.599     4.03     968.4003     58.17928     923.1888        28     1.404     0.953 -84.71   0
       167     31.5217    779.9581 307.9105153  +6.3528631     1226.329     1907.243     1887.905     82.60639     165.0816     330.0976      1.779     5.23       988.33     58.17928     161.2655        14     1.375     0.801 -77.46   0
       168    823.7944    777.9400 307.5815755  +6.3802806     1396.533     2053.722     1610.585     82.21208     164.9503      329.835      1.557     4.88     970.5947     58.17928     193.5825        13     1.214     0.716  88.39   0
       169    167.7800    775.9822 307.8540683  +6.3590913     2917.071     4848.074     4914.528     82.47517     164.8846     329.9663      1.738     4.68     986.5873     58.17928     356.5324        23     1.481     0.959  88.71   0
       170    159.7639    775.6417 307.8574085  +6.3589622     11194.34     17670.21     19183.16     82.47517     165.0816     329.9335      1.698     4.14     986.6291     58.17928     1436.707        43     1.572     1.112 -81.12   0
       171    992.2048    776.7576 307.5116748  +6.3863928     609.0605     804.4043     1043.122     82.08023     164.7532     329.7693      1.296     3.81     965.9399     58.17928     110.0529         5     1.040     0.400  86.90   0
       172    151.8807    773.0663 307.8607690  +6.3597602     2704.031     4509.457     5594.211     82.86822     165.2783     330.0648      1.871     3.99     986.7039     58.17928     343.0309        26     1.367     1.139  81.90   3
       173    152.0333    766.9803 307.8609110  +6.3622777     1845.746       3096.7     3424.885     82.21208     164.8846     329.8678      1.716     6.21     986.6162     58.17928     224.6085        18     1.584     0.746 -85.30   3
       174    996.8077    772.1208 307.5099184  +6.3884607     1600.352     2438.193     2903.729     82.34373     164.5559     329.8678      1.595     4.10     965.4714     58.17928      228.741        16     1.333     0.786 -80.60   0
       175    947.5027    772.2926 307.5303891  +6.3867442     6770.053     9972.722     10015.91     82.73741     165.6057     329.9991      1.571     3.90     967.2331     58.17928      894.157        30     1.424     0.972 -82.89   0
       176    703.0292    769.9241 307.6319972  +6.3795511     1730.868     2724.249     3192.219     82.60639     165.1472     330.0976      1.692     5.82     973.7107     58.17928     211.4347        15     1.302     0.823 -89.42   0
       177    589.6378    769.1682 307.6791126  +6.3760665     2217.738     3493.305     3400.231     82.34373     164.8189     329.8678      1.713     4.50     976.3514     58.17928     292.5578        21     1.426     0.933 -81.90   0
       178    437.7979    768.6675 307.7421856  +6.3711826     1082.936      1909.48     2026.574     82.21208     164.6217     329.8678      1.815     4.50     981.0037     58.17928     186.9358        13     1.276     0.851  86.69   0
       179    941.6627    764.1626 307.5330867  +6.3899057     3108.687     4704.268     4534.986     82.73741     165.1472     330.0648      1.605     4.29      967.253     58.17928     437.8728        24     1.432     0.980 -87.31   0
       180   1001.9896    763.6359 307.5080503  +6.3921365     1979.259     2718.254     2856.153     82.21208     164.8846      329.835      1.559     3.92     964.7764     58.17928     309.7316        14     1.252     0.724 -82.28   0
       181    971.1820    763.7063 307.5208424  +6.3910794      3070.26     4469.676     4946.089     82.60639     164.8189     329.9335      1.587     3.87      966.056     58.17928     391.7959        20     1.314     0.868 -81.21   0
       182    693.9570    763.5698 307.6359781  +6.3818708     1389.215     2066.623     2009.259     82.34373      165.016     329.9007      1.561     5.03      973.767     58.17928     219.6433        15     1.443     0.712 -85.67   0
       183    454.4544    763.7421 307.7354342  +6.3737748     416.5772     553.1605     827.0394     82.86822     165.0816     330.0648      1.870     5.19     980.3719     58.17928     75.32245         5     1.269     0.599 -63.89   0
       184    841.2076    761.8555 307.5748831  +6.3875029     1103.015     1696.084     1803.029     82.21208     164.8846     329.7693      1.600     5.02     969.4514     58.17928     167.1388        10     1.088     0.656  80.72   0
       185    266.5986    758.6157 307.8136184  +6.3695834     1953.413     3293.825     4616.777     82.34373     164.6875     329.8021      2.452     5.23     985.9283     58.17928     243.8239        21     1.494     1.092  88.66   0
       186    916.8549    759.4020 307.5435489  +6.3910428      821.717     1314.548     1466.212     82.08023     164.8189     329.7365      1.683     4.89     967.9097     58.17928     124.2489         8     1.017     0.667 -74.46   0
       187    959.5656    753.8712 307.5259961  +6.3947521     1045.964     1932.717     1701.033     82.60639      165.016     330.0648      1.921     4.77     966.1454     58.17928      161.229        12     1.302     0.737  89.46   0
       188    286.9277    754.0305 307.8053309  +6.3721594     654.7089     805.9216     724.4669     82.60639     165.0816      330.032      1.369     5.66      985.803     58.17928     87.20557         8     1.234     0.732 -75.57   0
       189    933.3104    752.6255 307.5369417  +6.3943899     1237.259     1743.292     1502.573     82.86822     164.8846     329.9007      1.591     5.81      967.421     58.17928     154.9025        14     1.298     0.782 -71.59   0
       190    182.4308    753.1750 307.8487539  +6.3689995     763.4631      1128.93     1042.216     82.21209     164.9503     329.9007      1.552     4.03     986.1234     58.17928     107.7025         7     0.985     0.472 -79.93   0
       191    985.9449    751.5721 307.5151175  +6.3965816     2643.119     4068.468     4492.358     82.47517     165.1472     329.9007      1.653     4.04     964.7917     58.17928     364.7319        22     1.347     0.977 -83.93   0
       192    993.5511    750.6331 307.5119900  +6.3972231     557.9457     658.4622     745.4515     82.47517     165.0816     329.9991      1.316     5.53     964.3386     58.17928     78.97144         7     1.313     0.657 -57.49   0
       193    705.6824    750.7654 307.6315384  +6.3875493     898.2574     1477.108     1563.224     82.73741     165.0816      330.032      1.780     4.06     972.6889     58.17928     156.2578         7     1.065     0.443 -81.47   0
       194    653.8738    744.6700 307.6532590  +6.3883317     740.0833     1052.413     771.8976     82.86822     165.2128     330.0976      1.466     4.68     974.0696     58.17928     115.4583         8     1.029     0.798  60.27   0
       195    829.2971    743.7147 307.5804376  +6.3945942     1280.197     1833.859     1793.365     82.73741     165.4748     330.1304      1.601     3.89     968.9842     58.17928     169.9065        13     1.037     0.856 -60.45   0
       196    915.0740    740.4216 307.5449242  +6.3988193     1514.168      2425.08     2357.169     82.34373     164.9503     329.9991      1.710     4.89     967.5994     58.17928     187.1953        21     1.525     0.942  59.34   0
       197    889.6600    735.9630 307.5556282  +6.3998113      827.693     1488.195     1456.501      82.7374     165.1472      330.032      1.909     4.48     967.8427     58.17928     115.7646         8     1.206     0.472 -88.12   0
       198    675.7524    735.5604 307.6444787  +6.3928249     801.8006     1018.559     912.3945     82.60639     165.0816     329.8678      1.436     5.75     973.2211     58.17928     125.9532         9     1.243     0.749  88.70   0
       199    872.4689    732.0792 307.5628980  +6.4008404      1561.38     2334.749     2365.899     82.86822     165.2783      330.032      1.515     4.26     968.0076     58.17928     225.9561        15     1.389     0.729  77.63   0
       200     71.4056    731.1527 307.8956020  +6.3743542     2244.153     3500.715     3616.966     82.08023     164.8846     329.7365      1.672     4.63     987.2921     58.17928     287.1693        21     1.515     0.882 -79.72   0
       201    135.4713    730.5634 307.8690176  +6.3767542      875.162     1783.289     2173.335     82.60639     165.0816     330.0976      2.139     6.08     986.3181     58.17928     126.5167        12     1.723     0.603 -87.22   0
       202    589.2590    725.7948 307.6807274  +6.3939600     604.2149     687.6436       520.53     82.21208     164.9503      329.835      1.419     5.40     974.6948     58.17928     79.89404         7     1.069     0.769  25.66   0
       203    684.0956    719.5706 307.6415506  +6.3997054     6402.689     9653.827     10083.31     82.86822     164.8189     330.0648      1.664     3.94     972.1646     58.17928     788.0394        29     1.440     0.974 -85.34   0
       204    630.8416    718.7369 307.6636952  +6.3982666     1643.325     2541.114     3104.184     82.73741      165.016     330.1304      1.844     4.75     973.5622     58.17928     217.5728        16     1.364     0.754 -82.69   0
       205    541.6484    719.2930 307.7007185  +6.3950487     997.1127     1298.189     705.4107     82.60639     164.9503      330.196      1.570     4.62     975.6255     58.17928     143.1331        12     1.204     0.734 -71.98   0
       206    147.0542    715.4335 307.8647183  +6.3833899     3514.553     5612.169     5835.789     82.60639     165.0816     329.9991      1.749     3.90     985.8084     58.17928     438.6958        29     1.455     1.096  86.86   0
       207    658.0297    715.4890 307.6525129  +6.4005178     2180.574     3466.401     3522.309     82.86822     164.8189     329.9991      1.674     4.39     972.7513     58.17928     253.0963        17     1.350     0.824 -83.97   0
       208   1021.1646    714.7961 307.5017209  +6.4129396     2535.788     3802.193     3846.279     81.81588     161.7007     286.9507      1.578     3.94      961.582     58.17928     326.9036        19     1.325     0.875 -86.64  16
       209    800.9129    711.7253 307.5932984  +6.4068519     20417.21     30659.73     32109.82      82.7374     165.4093     330.1304      1.611     4.17      968.562     58.17928     2582.111        48     1.557     1.080 -86.45   0
       210    483.1183    714.2200 307.7251965  +6.3951806     534.9724     645.9507     1299.442     82.47517     164.7532     329.9991      1.342     4.53     977.5614     58.17928     109.5532         6     0.846     0.690  24.40   0
       211    931.1087    711.4144 307.5392362  +6.4113302     3776.537     5382.976     5341.882     82.47517     164.8846     329.8678      1.525     4.09      965.965     58.17928     473.0505        21     1.359     0.869 -83.91   0
       212    499.7830    711.7556 307.7183586  +6.3967569     1298.729     2161.586     1888.051     82.34373     164.9503      329.835      1.714     5.67     976.8986     58.17928     165.6605        16     1.270     0.986  79.98   0
       213    528.6382    711.4442 307.7063855  +6.3978528     930.5212     1210.005     1502.737     82.47517      165.016     329.9335      1.469     4.92     975.8819     58.17928      144.113         9     1.265     0.541 -75.76   0
       214    346.1669    711.5729 307.7821606  +6.3916772     725.4997     1188.414     1009.254     82.21208     164.8189      329.835      1.857     4.66     981.6862     58.17928     132.5768         7     1.066     0.578  77.31   0
       215    663.7512    706.1925 307.6504489  +6.4045473     926.0176     1471.473     1327.316     82.21208     164.8846     329.6707      1.585     5.44     972.2101     58.17928     125.6307        10     1.311     0.636 -87.96   0
       216    274.4590    705.3334 307.8121502  +6.3918439     5957.893     9468.169     9575.504     82.86822      165.016     330.0648      1.738     4.07     984.1673     58.17928     717.4088        35     1.551     1.085 -83.32   0
       217    681.5300    704.4448 307.6431239  +6.4058640     7127.842     11011.33        11991     82.73741      165.016     330.0648      1.730     3.82     971.5164     58.17928      925.385        36     1.598     1.008 -82.98   0
       218    377.1218    703.9822 307.7695609  +6.3958503     648.6871     1227.693     1577.377     82.21208     164.8189     329.9991      2.145     3.92     980.2519     58.17928     134.0436         6     0.789     0.558  59.53   0
       219    941.3113    696.9932 307.5354818  +6.4176246     1204.677     1446.796     1114.842     82.21208     164.7532     329.8021      1.370     5.09     964.8361     58.17928     169.7898        10     1.195     0.613 -87.03   0
       220    753.1820    692.9700 307.6137509  +6.4129988      3636.51     5851.293     6504.239     82.34373     164.8846     329.9991      1.679     3.99     968.7868     58.17928      499.286        29     1.490     1.003  89.94   0
       221    708.5952    693.1486 307.6322626  +6.4114333     1084.342     1699.226     1842.212     82.08023     164.8846     329.7036      1.653     5.14      970.021     58.17928     166.1608        10     1.264     0.591 -79.31   0
       222   1019.5243    689.4930 307.5032488  +6.4233311     9349.814     13591.73     13893.48     82.60639     165.2128     307.6799      1.582     3.80      961.233     58.17928     1279.327        31     1.420     0.987 -88.68  16
       223     18.9293    691.4041 307.9187366  +6.3889956     709.3781     1047.048      1188.76     82.21208     164.6875     329.9007      1.542     4.09     987.5792     58.17928     116.2699         7     0.897     0.585 -80.45   0
       224    958.1074    689.8919 307.5287438  +6.4211170     2466.372     3503.686     3165.494     82.73741     165.6057     330.0648      1.502     3.83     963.8148     58.17928     329.6456        18     1.279     0.842 -83.67   0
       225     38.5519    689.0852 307.9106662  +6.3906139     1716.499     2908.808     3007.304      82.7374      165.016     330.0648      1.861     6.27     987.2289     58.17928     213.9359        17     1.555     1.031  41.68   0
       226    558.1846    685.3365 307.6949925  +6.4096214     1924.236     2871.243     2952.227     82.21208     164.9503     329.9007      1.574     4.53     974.4715     58.17928     244.7495        17     1.290     0.858  83.09   0
       227    456.1702    686.9679 307.7373050  +6.4055273     641.9352     1008.066     997.9178     82.21208     164.8189     329.8021      1.638     4.34     977.4128     58.17928     93.09027         5     1.038     0.518 -56.97   0
       228     96.8883    684.2639 307.8866033  +6.3945689     24666.26     39171.91     40864.75     82.60639     165.3438     330.0648      1.702     3.93     986.2076     58.17928     2980.111        51     1.590     1.161 -84.71   0
       229    526.8032    682.8895 307.7081078  +6.4095797     1289.057     2086.932     2359.339     82.21208     164.7532     329.7365      1.808     5.15     975.1771     58.17928     152.5007        15     1.386     0.778 -81.10   0
       230    948.0435    681.5430 307.5332031  +6.4242278      1098.78     1470.788     356.7265     82.60639      165.016     330.0976      1.561     4.99      963.887     58.17928     157.3571        10     1.011     0.698 -89.62   0
       231    567.2441    679.5316 307.6914251  +6.4123215     953.6293     1467.893     1489.762     82.73741      165.016     330.1304      1.528     5.37     974.1534     58.17928     148.2007        11     1.186     0.800 -56.81   0
       232    742.9069    676.6061 307.6185674  +6.4194108     3457.173     5088.977     5039.401     82.34373     164.7532     329.9007      1.569     3.95     968.3103     58.17928     439.4117        24     1.378     0.937 -75.18   0
       233    764.8706    674.8179 307.6095054  +6.4208836      3991.67     5818.597     5445.957     82.21208     164.9503     329.9991      1.512     3.79     968.0769     58.17928     519.4191        22     1.334     0.894 -86.50   0
       234    596.4142    672.8694 307.6795342  +6.4160493     3068.552     4896.782     5008.623     82.21208     164.9503     329.9663      1.638     3.78     973.3259     58.17928     391.5826        24     1.436     0.941 -83.26   0
       235    432.7190    673.2933 307.7475046  +6.4103857     1199.175     2063.047     2009.219     82.47517     165.3438     330.1304      1.811     5.77     977.9244     58.17928     164.9937        15     1.430     0.859 -79.59   0
       236    256.9492    672.3970 307.8205323  +6.4048524     1552.564     2523.565     2506.971     82.08023     164.8189     329.6379      1.707     4.98     983.0997     58.17928     205.5287        16     1.402     0.782 -77.22   0
       237    340.4966    672.0040 307.7858484  +6.4078219     1243.698     2030.904     2434.666     82.47517     164.7532     329.7365      1.833     5.46     979.9176     58.17928     148.6249        16     1.351     0.855 -74.48   0
       238   1003.1732    669.8784 307.5106964  +6.4308834     8183.634     12282.21      12748.6     82.60639      165.016      330.032      1.592     3.86     961.4738     58.17928     1049.403        34     1.475     0.997 -85.07   0
       239    557.1345    670.5281 307.6959264  +6.4156997     714.8622     978.2411     586.8254     82.73741     165.1472     330.1304      1.445     4.48     974.1771     58.17928     106.6931         7     1.264     0.451  70.79   0
       240    723.2488    668.9610 307.6269885  +6.4219093     1042.848     1528.343     1507.734      82.7374     165.1472     329.9007      1.518     3.93      968.603     58.17928     156.1042        12     1.021     0.908  53.25   0
       241    448.4297    664.1176 307.7412886  +6.4147010     2713.622     4278.422     4364.688     82.60639     164.8846      330.032      1.723     4.48     977.0164     58.17928     321.8356        24     1.581     0.910 -80.91   0
       242    114.8838    666.6672 307.8797242  +6.4024390     845.2047     1493.255     1764.516     82.99883     165.3438     330.0976      1.922     5.21     985.4823     58.17928     114.0092        11     1.097     0.807  64.42   0
       243    161.6357    663.1996 307.8604257  +6.4054439     22360.79     36164.43     37039.68     81.81588     164.8846     329.8678      1.731     3.92     984.4261     58.17928     2675.816        50     1.570     1.181 -82.05   0
       244    830.1527    664.1161 307.5827507  +6.4274844     1216.749     1950.697     1932.117      82.7374     165.0816     330.0976      1.698     6.11     967.1358     58.17928     149.2555        14     1.140     0.921 -74.71   0
       245    381.0771    657.8627 307.7694714  +6.4150226     766.8444     1530.293     1405.261     82.99883     165.1472      330.032      2.053     7.14     978.5149     58.17928     103.0903        11     1.709     0.835 -76.41   0
       246    998.0786    652.8631 307.5133819  +6.4377382      6983.59     11132.21     11967.27     82.99883     165.1472     330.0648      1.732     3.89     961.0427     58.17928     837.7678        32     1.502     1.063  79.72   0
       247    591.6057    648.0420 307.6823656  +6.4261379      45725.9      73340.3     76226.49     82.08023     164.7532     329.7693      1.713     3.99     972.6055     58.17928     5421.419        63     1.605     1.191 -84.28   0
       248    956.1593    649.4869 307.5309058  +6.4377330     706.2906      773.906     1028.944     82.73741     165.0816     330.0976      1.248     3.69     962.3779     58.17928     119.0897         7     0.864     0.633  78.87   0
       249    235.1931    649.2009 307.8303498  +6.4136970     600.4692     876.9631     1190.312     82.08023     164.7532     329.8678      1.686     5.24     982.4498     58.17928     91.12811         9     1.321     0.587 -88.42   0
       250    550.7715    647.4030 307.6993465  +6.4250333     743.2526     1154.978     1328.105     82.21209     164.8189     329.8678      1.715     3.70     973.7343     58.17928     111.3831         5     0.966     0.406  83.07   0
       251    817.1884    646.3986 307.5887293  +6.4343657     531.8844     637.3162     367.7473     82.34373     164.7532     329.8678      1.248     3.46     966.5883     58.17928     84.42688         5     0.757     0.456  17.11   0
       252    199.1573    644.6990 307.8454674  +6.4143437     2707.058     4194.574     4750.514     82.73741     164.9503     330.2944      1.672     3.89     983.1056     58.17928      314.701        22     1.306     1.007  88.98   0
       253     42.6320    652.3660 307.9102125  +6.4059098     1051.484       1664.2     1281.645     82.21209     164.8189     329.8021      1.620     5.55     986.7398     58.17928     180.9019        12     1.454     0.641 -78.56   0
       254     91.8879    639.0356 307.8902073  +6.4130717     1386.395     2326.232     2391.431     82.73741     164.9503     330.0648      1.853     5.16     985.1255     58.17928     199.7478        20     1.498     0.998 -87.15   0
       255    488.8906    631.8687 307.7255696  +6.4293716     58359.79     94007.19     99022.95      82.7374     165.2128      330.032      1.726     3.89     974.8294     58.17928     6941.808        78     1.643     1.258 -81.72   0
       256     32.6196    633.7253 307.9150004  +6.4132677     1607.793     2798.756     3262.286     82.34373     164.9503     329.9991      1.882     4.86     986.8744     58.17928     198.7045        18     1.462     0.968 -89.16   0
       257    674.8159    629.0888 307.6484427  +6.4367492     933.7719     1442.268     1290.053     82.47517     164.8189     329.9006      1.757     5.30     968.8388     58.17928     157.5667        13     1.527     0.710  85.33   0
       258    163.3537    626.9440 307.8609358  +6.4204689     1511.324     2267.737     2596.651      82.7374     165.0816     330.1304      1.603     4.62     983.6227     58.17928     189.9247        16     1.329     0.848  88.84   0
       259    442.7403    625.0953 307.7449648  +6.4306197      881.019     1398.003      1533.55     82.60639     165.0816     330.1632      1.700     5.83     975.9504     58.17928     129.4788        10     1.380     0.804  53.60   0
       260    958.5154    624.4714 307.5307648  +6.4481392     817.9907     1208.188      1322.74     82.86822     165.3438     330.0976      1.712     4.75     961.3912     58.17928     110.9008         6     1.282     0.500  89.59   0
       261    635.3409    623.2479 307.6650342  +6.4378388      699.307     1037.792     720.3936     82.73741     165.0816     330.1632      1.493     4.71     970.1911     58.17928     102.8419         8     1.390     0.453  83.84   0
       262    334.3567    621.3201 307.7901060  +6.4285395     2000.942     3201.311     3282.896     82.73741     165.0816      330.032      1.774     4.56     978.7542     58.17928     239.0692        19     1.404     0.876 -88.21   0
       263    486.5465    619.8101 307.7269488  +6.4342712     693.5682     1058.476     1784.549     82.08023      165.016     329.7693      1.392     4.98     974.6099     58.17928     128.6737         7     1.021     0.688 -89.71   0
       264    760.9241    615.4301 307.6131369  +6.4452694     5268.349     7852.316     8129.111     82.60639     165.1472     330.0648      1.636     4.10     966.6629     58.17928     651.4062        25     1.408     0.959 -76.70   0
       265    814.4716    610.6474 307.5910566  +6.4490344     14257.62     21431.24     22204.45     82.73741     165.1472     330.0648      1.651     3.91     965.3015     58.17928     1855.053        40     1.470     1.084 -83.65   0
       266    557.0071    610.8904 307.6979843  +6.4403160     1114.452     1616.317     1435.086     82.34373     164.7532      329.835      1.765     6.37     972.6453     58.17928     179.9819        16     1.506     0.756 -88.44   0
       267    638.3621    608.5737 307.6642723  +6.4439980     2850.979     4532.962     4686.572     82.34373     164.8846     329.9007      1.724     4.07      969.575     58.17928     372.1442        24     1.446     0.971 -84.69   0
       268     59.7565    610.0565 307.9045303  +6.4239528     786.5449     1162.513     2036.403     82.60639     165.0816     330.0976      1.639     2.46     985.5984     58.17928     139.8318         7     0.732     0.645 -83.81   0
       269    955.4011    605.2410 307.5327023  +6.4559744     1118.315     1677.867     1524.446     82.08023     164.7532     329.7693      1.514     4.27      960.853     58.17928     155.1715        13     1.174     0.887 -57.13   0
       270    250.9170    601.9425 307.8254132  +6.4337351      1128.29      1922.17     2589.788     82.73741     165.0816     330.1304      2.243     6.93     980.2606     58.17928     148.7502        20     1.617     0.975  67.92   0
       271    396.9074    602.1541 307.7647728  +6.4385523     812.8665     1347.162     1754.089      82.7374      165.016      330.196      1.716     4.22     976.3522     58.17928     110.7675         7     0.992     0.823  67.46   0
       272    890.5044    593.9957 307.5600344  +6.4584498      2824.66     4054.479     4279.411     82.47517     164.7532     329.8021      1.505     3.94       962.77     58.17928     434.9746        19     1.354     0.843 -84.75   0
       273    185.7859    593.3248 307.8527540  +6.4351024      662.958     1467.509     2236.807     82.21209     164.8189     329.9007      2.304     4.51     981.8762     58.17928     84.87219         5     1.151     0.503  55.15   0
       274    849.3984    591.3680 307.5771961  +6.4581612     2566.861     3644.435     3932.112     82.08023     164.8846      329.835      1.553     3.58     963.9247     58.17928     341.6624        18     1.178     0.922 -85.50   0
       275    820.2565    587.0793 307.5894441  +6.4589577     2450.177     4108.838     5024.091      82.7374     165.0816     330.0648      1.902     4.31     964.3967     58.17928      350.138        22     1.430     0.941 -81.48   0
       276    762.5923    587.2910 307.6133882  +6.4569421     619.4631     1210.208     1473.534     82.34373     164.7532     329.8678      2.381     5.56      965.854     58.17928     74.39478         7     1.099     0.794  60.48   0
       277    277.2728    586.2660 307.8149956  +6.4410927     7273.578      11895.9     12310.83     82.86822     165.1472     330.0648      1.776     3.98     979.1491     58.17928     774.6605        33     1.514     1.106 -84.36   0
       278    829.8588    582.4976 307.5856094  +6.4611702     159672.9     239860.5     250222.9     82.47517      165.016      330.196      1.646     3.94      964.012     58.17928     20553.95       103     1.597     1.230 -84.11   0
       279    211.5000    580.7932 307.8424973  +6.4411407        54180     89358.49      94512.7     82.47517     164.6875      329.835      1.792     4.07     980.6485     58.17928     6115.938        77     1.674     1.308 -84.55   0
       280    135.4607    577.0298 307.8742050  +6.4401359     5610.482     9376.501     9369.891     82.47517     165.0816      330.032      1.797     4.04     982.6313     58.17928     659.8567        35     1.544     1.136 -87.12   0
       281   1000.7167    574.3231 307.5149151  +6.4702511     1403.554     1937.482     1991.909     82.86822     165.4093     330.1632      1.576     4.42     957.8903     58.17928     211.5188        14     1.236     0.823  82.06   0
       282   1021.6224    573.0849 307.5062730  +6.4714598     701.5257     568.8839     616.1866     82.60639     157.5617      280.692      1.361     4.50     957.0312     58.17928     101.5067         8     1.190     0.484  88.27  16
       283    866.4381    569.8323 307.5708404  +6.4676215     4493.227     6737.188     7022.106     82.34373     164.8189      329.835      1.650     3.96     962.7325     58.17928       557.59        24     1.388     0.946 -88.74   0
       284    384.8441    567.9278 307.7709357  +6.4522769     15451.78     25652.74     27220.34     82.60639     165.1472     330.0976      1.759     3.88     975.4863     58.17928     1769.353        49     1.595     1.242 -87.84   0
       285    475.0117    568.5479 307.7334645  +6.4550470      775.755     1216.452     1189.501     82.08023      165.016     329.7693      1.659     3.56     973.0234     58.17928     110.4358         6     0.910     0.531 -70.46   0
       286    186.6241    566.9881 307.8532947  +6.4460030     1706.335     3024.362     4198.174     82.34373     164.8846     329.9991      2.089     4.44     980.9848     58.17928     238.6376        19     1.416     0.927 -88.10   0
       287    261.8111    564.8242 307.8221403  +6.4494248     935.9792     1462.505     1421.804     82.34373     164.8846     329.9663      1.659     4.73     978.8132     58.17928     134.4299        11     1.081     0.827  50.79   0
       288    192.9687    564.2890 307.8507506  +6.4473307     747.4208     1477.731     3055.668     82.86822     164.8846     329.9991      2.611     5.34     980.7086     58.17928      112.717         8     1.504     0.535  73.23   0
       289    820.3368    563.1828 307.5902122  +6.4688259     5775.143     8872.072     9263.942     82.21208      165.016     329.9007      1.638     3.88     963.6112     58.17928      671.868        30     1.439     1.034 -81.56   0
       290    551.2349    562.8114 307.7019983  +6.4599712     6007.455     9548.969     9907.847     82.21208     164.8846     329.8678      1.668     3.93     970.0353     58.17928      684.449        30     1.467     1.042 -80.18   0
       291    124.0819    563.7806 307.8793782  +6.4452224     911.1477     1511.727     1089.145     82.34373     164.7532     329.9991      1.559     5.44     982.4854     58.17928     138.0406        11     1.202     0.694 -87.81   0
       292    409.6076    559.5196 307.7609336  +6.4565795     1246.098     1993.582     1678.287     82.34373     164.6217     329.9007      1.715     5.00     974.1937     58.17928     171.6943        14     1.235     0.914 -71.21   0
       293    293.4854    552.4461 307.8094022  +6.4555994     79558.16     131026.5     138339.7     82.73741      165.016     330.0648      1.819     4.16     977.5394     58.17928     8634.307        93     1.725     1.321 -83.68   0
       294    198.2434    556.0434 307.8488382  +6.4509121     6062.034      10513.8      11437.2     82.47517     165.0816     329.9335      1.864     4.35     980.3093     58.17928     667.0689        36     1.512     1.222 -82.77   0
       295    836.8615    555.2360 307.5836148  +6.4726590     1341.958     2249.849     2280.224      82.7374     165.0816      330.032      1.668     4.65      962.907     58.17928     201.6752        17     1.385     0.888 -69.31   0
       296    596.0298    555.8519 307.6836265  +6.4643455     2212.435     3985.448     4546.538     82.47517     165.2128     329.9663      1.960     4.42      968.614     58.17928     272.9039        25     1.430     1.123 -74.24   0
       297     69.9229    554.7510 307.9021766  +6.4471263     4668.284     7438.269     7605.155     82.60639     165.1472     330.0648      1.709     3.91     984.1186     58.17928     555.2303        30     1.525     1.042  88.65   0
       298    583.0003    550.1414 307.6892304  +6.4662664     742.8234     1233.717     1720.976     81.94816     164.6875     329.7365      1.792     5.21     968.5904     58.17928     102.5408         8     1.094     0.700 -81.59   0
       299    277.3944    547.3445 307.8162574  +6.4571647     1411.231     2321.339      2644.72     82.21209     164.8846     329.7365      1.830     4.98      977.789     58.17928     188.7013        16     1.341     0.899  86.98   0
       300    992.9294    546.3804 307.5190852  +6.4815273     1724.353      2607.99     2458.651     82.34373     164.9503     329.9991      1.570     4.06     957.0396     58.17928     244.8989        16     1.300     0.817  89.48   0
       301    816.6027    544.8856 307.5923768  +6.4762549     16088.88     24214.07     25101.54     82.08023     164.6875     329.7693      1.607     3.83     963.1046     58.17928     2059.265        39     1.473     1.050 -82.15   0
       302    520.2216    543.3035 307.7155359  +6.4669850      36938.2     65652.71     70673.27     82.60639     164.8846     329.8678      1.917     4.01      970.107     58.17928     3934.399        81     1.713     1.491 -85.26   0
       303    670.6583    541.7192 307.6531037  +6.4726795     827.3903      1262.88     1869.286     82.73741     165.0816     330.0648      1.644     5.39     966.1707     58.17928     112.1582         8     1.212     0.676 -83.05   0
       304    232.6409    539.5580 307.8351079  +6.4588745     1696.586     2729.864     2685.615     82.47517     165.0816     329.9335      1.784     4.17      978.795     58.17928     219.0167        18     1.242     0.975  89.99   0
       305     68.4503    539.9910 307.9032869  +6.4531700     1062.246      1663.23     1860.021     82.21208     164.9503     329.7365      1.600     5.32     983.8943     58.17928      145.849        13     1.248     0.978 -88.41   0
       306    690.3871    538.3262 307.6450230  +6.4747407     1269.773     2005.439      2111.19     82.21209     164.7532     329.8678      1.726     6.09      965.738     58.17928     174.7278        15     1.413     0.811 -71.23   0
       307    680.2639    538.1846 307.6492326  +6.4744603     2724.682     4321.566     4433.867     82.21208     164.9503     329.9335      1.673     4.26     965.8634     58.17928     349.4559        22     1.488     0.872 -74.16   0
       308    742.3418    537.1635 307.6234817  +6.4769594     1349.362     2252.493     2638.518     82.73741     165.0816     330.0648      1.781     5.06      964.958     58.17928     155.9629        14     1.213     0.788  87.33   0
       309    100.0957    536.9768 307.8902455  +6.4554800     527.8939     1154.801     1705.551     82.73741     164.8189     329.9006      2.156     5.22     982.4069     58.17928      80.4386         5     1.414     0.544 -13.59   0
       310    417.9482    534.1094 307.7583249  +6.4673495      1476.39     2336.312     2384.141     82.73741     164.8846      330.196      1.703     5.03     972.7499     58.17928     186.7999        14     1.311     0.743  84.20   0
       311    529.4151    531.7524 307.7121058  +6.4720619     1896.182      3070.99     3465.222     82.08023      165.016     329.8021      1.784     4.31     969.3193     58.17928     209.2261        20     1.352     0.966  88.00   0
       312    349.5063    532.2619 307.7868145  +6.4658142     3435.628      5495.26      5833.25     82.73741     165.0816     330.1304      1.780     4.23     975.0311     58.17928     423.7782        23     1.430     0.954 -84.83   0
       313    164.5980    530.8412 307.8636627  +6.4601841     23245.25     38502.54     40581.35     82.08023     164.8189     329.7693      1.776     4.08     980.6025     58.17928     2675.773        50     1.640     1.179 -87.47   0
       314    892.4449    531.0588 307.5613375  +6.4844977     1581.209      2220.94     2233.316     82.60639      165.016     330.1632      1.562     4.18     960.3349     58.17928     236.1213        15     1.194     0.830  84.98   0
       315    129.8413    529.0944 307.8781574  +6.4597354     2516.378     4376.826      4174.86      82.7374      165.016      330.196      1.809     4.18     981.4608     58.17928     307.9591        27     1.497     1.081  76.31   0
       316      9.6146    529.0393 307.9280929  +6.4557087     1797.192     3002.506     3094.469     82.47517     164.8846     329.8021      1.734     4.86       986.33     58.17928     208.4235        21     1.461     0.994 -83.69  16
       317    366.8094    527.4062 307.7797913  +6.4683998     1012.553     1639.104     1739.849     82.21209     164.8846     329.9007      1.714     5.06     974.0765     58.17928     137.4991        10     1.030     0.703  87.59   0
       318    990.1730    525.3249 307.5209351  +6.4901279     5365.933     7763.126     7930.957     82.60639      165.016      330.032      1.561     3.95     956.0667     58.17928     689.8198        24     1.352     0.964 -81.10   0
       319    563.3170    518.1449 307.6984818  +6.4788160     1361.616      2127.48     1747.156     82.73741     165.0816     330.1632      1.657     4.44     967.8696     58.17928     189.0316        18     1.373     0.924  87.06   0
       320     28.8876    515.1677 307.9205572  +6.4620846     23256.08     38352.58     40593.88     82.86822     164.9503     330.0648      1.769     3.99     985.1391     58.17928     2777.688        61     1.658     1.236 -87.46   0
       321    461.5930    511.9414 307.7409430  +6.4779658     38182.31     63705.95     66670.94     82.08023     164.9503     329.7693      1.784     3.97     970.8521     58.17928     4332.316        68     1.662     1.268 -84.50   0
       322    669.5926    511.6703 307.6545556  +6.4850491     11564.96     18188.23      19345.3     82.21209     164.6875     329.9663      1.720     3.89     964.9479     58.17928     1426.315        41     1.532     1.140 -79.66   0
       323    309.1876    512.9036 307.8042133  +6.4724513     770.6866     1350.668     959.4137     82.60639     164.8189      329.835      1.715     5.68     974.7601     58.17928     113.4177         8     1.189     0.764  89.74   0
       324     11.4283    509.3890 307.9280040  +6.4638817     180194.9     293391.3     308892.3     82.21209     164.8846     329.9007      1.790     4.00     985.8719     58.17928     20433.84       115     1.722     1.309 -87.21   0
       325    226.7485    509.4970 307.8385693  +6.4710863     16895.36     29986.74     31638.67     82.60639     165.0816     330.2944      1.910     4.12     977.7479     58.17928      1942.27        55     1.687     1.341  82.01   0
       326    192.5643    510.6202 307.8527297  +6.4694728     1358.904     2248.339     1507.508     82.21209     164.8846      329.835      1.787     4.88      979.157     58.17928     165.4521        21     1.479     1.041 -88.41   0
       327   1003.5652    509.5903 307.5158989  +6.4970707     1190.361     1944.351     2433.154     82.21209     164.8189      329.835      1.959     5.75     954.6503     58.17928     156.7015        12     1.331     0.707 -77.38   0
       328    843.7570    509.8210 307.5822734  +6.4916387     916.0504     1473.736     1294.664     82.21208     164.9503     329.9007      1.765     4.27     961.1339     58.17928     155.5065        11     1.234     0.713 -81.42   0
       329    932.4258    509.2755 307.5454600  +6.4948260     717.2369     769.9592     875.2858     82.34373     164.9503      330.032      1.437     5.39     957.8138     58.17928     90.65649         7     0.924     0.887 -87.35   0
       330    591.4976    508.2187 307.6871101  +6.4838583      2690.93     4109.975     4367.102     82.60639     164.9503     329.8021      1.667     3.99     967.0682     58.17928     311.9172        21     1.357     0.937 -84.67   0
       331    965.2904    505.5423 307.5319334  +6.4974645     4820.669     7119.755     7737.293     82.60639     165.0816      330.196      1.604     4.02     956.1874     58.17928     610.6183        27     1.435     0.984 -82.30   0
       332    638.4767    503.9987 307.6677381  +6.4871742     5971.233     9642.271      9904.93     81.94816       164.49     329.8678      1.728     3.94     965.6769     58.17928     693.4565        33     1.558     1.039 -79.88   0
       333    126.0922    504.4316 307.8805473  +6.4697906     1093.014     1690.423     1586.701     82.86822     164.8846     330.0976      1.709     5.58     981.0145     58.17928      139.673        12     1.207     0.726 -82.92   0
       334    987.8461    497.7796 307.5228239  +6.5014222     3373.169     4749.137     4426.886     82.34373     165.0816     329.9007      1.534     3.83     954.7325     58.17928     464.2916        21     1.250     0.936 -88.50   0
       335    550.6194    495.2503 307.7045258  +6.4878421     6697.613     11047.47        11666     82.21209     165.1472     329.9007      1.781     4.00     967.3479     58.17928     792.8419        34     1.561     1.083  86.70   0
       336    396.7841    495.2538 307.7684241  +6.4826798      2444.52     4091.919     4652.706     82.08023     165.0816     329.7693      1.833     4.17     971.2904     58.17928     278.5372        23     1.352     1.035 -86.62   0
       337    119.9430    494.8311 307.8834256  +6.4735468     600.2734      711.773     999.1714     82.60639     165.0816     329.9663      1.299     4.64      980.934     58.17928      90.6936         6     1.048     0.583  78.45   0
       338   1018.2477    493.2432 307.5103471  +6.5043095     617.5438     992.9596     1031.262     82.73741      165.016     320.0009      1.627     3.69     953.0859     58.17928     94.75037         5     0.898     0.436  44.89  16
       339    907.1044    491.0663 307.5565884  +6.5014979     3242.184     4796.426     5374.483     82.73741     165.2128     330.0976      1.571     3.80     958.0862     58.17928     417.9686        22     1.430     0.844 -87.42   0
       340    560.0307    490.2207 307.7007857  +6.4902340     635.5698     1326.692     1364.599     82.21208     164.8846     329.9335      2.424     3.84     967.0397     58.17928     94.89648         5     0.829     0.509 -49.62   2
       341    914.3915    485.3130 307.5537541  +6.5041165     2113.859     3252.741     3042.595     82.34373     164.7532      329.835      1.676     4.11     957.5065     58.17928      251.889        23     1.371     1.065  87.02   0
       342    953.9076    484.6855 307.5373603  +6.5056952     1380.728     1978.075     2045.442     82.47517     165.5403     330.1632      1.548     4.19     955.6408     58.17928     176.2048        13     1.152     0.751 -80.33   0
       343    133.7086    484.3469 307.8780621  +6.4783383     743.6043     1132.701     885.1974     82.60639     164.8846     330.2288      1.782     5.87     980.4384     58.17928     103.4067         9     1.297     0.748 -89.80   0
       344    738.4468    481.4582 307.6269693  +6.4998264     3027.545      4648.25     4465.422     82.73741     165.0816      330.196      1.684     3.80     962.5738     58.17928     361.1415        22     1.370     0.941 -84.40   0
       345    100.3570    480.1993 307.8920547  +6.4789276     1708.248     2866.822     3202.276     82.08023     164.7532     329.6707      1.841     4.64     980.9451     58.17928     225.0556        18     1.374     0.878 -79.98   0
       346    449.3957    479.8240 307.7470904  +6.4908156     984.6326     1530.094     1643.156     82.34373     164.8189     329.9007      1.708     4.68     969.6803     58.17928     118.8295        12     1.117     0.890  89.97   0
       347    409.3366    479.5818 307.7637380  +6.4895711     3382.258     5587.831     5417.526     82.34373      165.016     329.9335      1.805     4.17     970.3918     58.17928     386.6627        26     1.417     1.091 -74.07   0
       348    637.0881    476.2083 307.6692487  +6.4986006     9125.671     15038.38     15870.33     82.34373     164.7532     329.8021      1.749     3.87     964.5889     58.17928     1148.939        39     1.526     1.172 -86.68   0
       349    799.7798    472.7697 307.6017837  +6.5054648      15704.3     24341.42     25891.48     82.21208     164.8846     329.9335      1.670     3.94     960.7108     58.17928     1983.886        43     1.525     1.094 -83.48   2
       350    804.0599    467.8907 307.6001694  +6.5076222     1363.273     2015.057     2116.731     82.60639     165.0816     330.1304      1.571     4.10     960.3638     58.17928     212.4453        14     1.106     0.950 -81.03   3
       351    319.4688    473.2181 307.8012806  +6.4891800     2411.677     4362.915     4133.973     82.21209     164.9503     329.9991      1.840     4.50      971.693     58.17928     288.2872        27     1.513     1.150 -82.50   0
       352    443.4054    472.6999 307.7498185  +6.4935556     598.4187     987.3189     1110.264     82.47517     164.6875     329.7036      1.909     5.64     969.2658     58.17928     78.80597         7     1.255     0.715  82.36   0
       353    828.7282    469.7536 307.5898599  +6.5076778     1385.131     1813.273     1197.241     82.73741     165.1472     330.0648      1.529     4.44      959.861     58.17928     191.6937        14     1.120     0.947  64.43   0
       354    402.6809    470.0051 307.7668251  +6.4933012     1453.386     2468.406     2867.959     82.34373     164.6217      329.835      1.811     5.91     969.7076     58.17928     167.2655        19     1.343     0.965 -71.43   0
       355    984.9847    467.6698 307.5250207  +6.5137573     2258.089     3188.652     3501.708     82.21208      165.016     329.9663      1.522     3.92     953.5148     58.17928     324.4728        14     1.208     0.732 -88.34   0
       356    137.2774    464.7355 307.8772421  +6.4865544     4051.975     6856.792     7226.141     82.99883     165.0816     330.0648      1.802     4.29     979.7539     58.17928     478.6561        33     1.557     1.166 -79.06   0
       357    733.8181    466.4628 307.6293954  +6.5058622     575.9332     585.0716     641.1769     82.34373      165.016     329.9335      1.385     3.72     961.9756     58.17928     89.26984         5     1.056     0.376  85.02   0
       358    391.1090    466.0639 307.7717645  +6.4945397     662.5068     1196.338     1374.558     82.73741     165.2783     330.1304      1.877     4.33     969.5944     58.17928     95.37469         6     1.126     0.475  60.85   0
       359    775.3473    463.6952 307.6122373  +6.5083941     2321.216     3473.969      4165.26     82.60639      165.016     330.3272      1.723     3.89      960.893     58.17928     273.7935        22     1.362     0.989 -82.69   0
       360    295.1068    461.9907 307.8117783  +6.4929963     1264.721     2149.824     2228.205     82.34373     164.6875     329.8678      1.783     6.55     971.9029     58.17928     154.5503        16     1.310     0.919 -65.18   0
       361    373.2067    459.4369 307.7794239  +6.4966744     2811.328     4980.968     4835.318     81.94817     164.8189      329.835      1.881     4.36     969.5179     58.17928     300.8214        27     1.520     1.081  85.82   0
       362    729.1890    457.6646 307.6316137  +6.5093395     1472.335     2422.304     2362.712     82.21208     164.8846     329.9007      1.823     4.80      961.675     58.17928     194.7424        17     1.378     0.867 -81.21   0
       363   1003.1247    455.5020 307.5178927  +6.5193861     662.7092      1067.21     1631.188     82.34373     165.2783      330.032      1.502     4.54     952.3283     58.17928     111.6397         7     1.069     0.548 -75.90   0
       364    261.5210    455.3348 307.8259532  +6.4946150     729.9014     1312.019     975.0804     82.99883     165.1472      330.032      1.834     4.99     973.2051     58.17928     105.3993         7     1.067     0.662 -80.13   0
       365    570.4760    450.0884 307.6977964  +6.5071520     890.1119     1726.783     1803.175      82.7374     165.4093     330.1632      1.999     6.59     964.9196     58.17928     120.9072        12     1.325     0.918   1.12   0
       366    492.7836    448.4236 307.7301248  +6.5052344     1096.337     1486.084     744.7334     82.47517     164.9503     329.9663      1.508     5.89     966.4734     58.17928     132.3492        12     1.319     0.741 -63.02   0
       367    855.4377    447.4028 307.5795142  +6.5177979     1482.471     2343.775     2651.522     81.81588     164.8189     329.8678      1.722     4.61     957.9072     58.17928     188.7483        20     1.425     0.990 -68.45   0
       368    840.8818    446.3574 307.5855958  +6.5177430     1980.262     2990.019     3139.125      82.7374     165.0816      330.032      1.562     4.07     958.2359     58.17928     301.0564        15     1.338     0.702 -77.44   0
       369    738.2812    444.4646 307.6282799  +6.5150932      14392.1     22327.55     23706.77     82.99883     165.1472     330.0648      1.712     3.92     960.9457     58.17928     1678.271        42     1.528     1.133 -85.06   0
       370    640.7715    446.4143 307.6687197  +6.5110241     897.1965     1537.975     1644.385     82.34373     164.8846     329.9663      1.911     5.75     962.5458     58.17928     116.5212        11     1.126     0.828 -69.92   0
       371    659.5272    440.3766 307.6611315  +6.5141447     2388.939     3865.475     4332.337     82.34373     164.8846     329.9991      1.716     4.45     961.6547     58.17928     298.5358        24     1.455     1.004  88.61   0
       372    634.5164    437.4926 307.6716179  +6.5144977     5117.925     8158.271     9017.663     82.47517     165.4748      330.196      1.724     3.83     962.1335     58.17928     571.1442        22     1.242     1.055 -87.05   3
       373    630.8965    434.9846 307.6732058  +6.5154119     13396.31     22976.12     24940.18     82.47517     164.8189     329.8678      1.853     3.93     962.1062     58.17928      1582.98        47     1.686     1.321  86.43   3
       374    963.5320    434.3972 307.5350467  +6.5267776     3751.206      5420.01     5509.011     82.08023     164.6875     329.8678      1.586     4.33     953.0886     58.17928     548.5562        22     1.406     0.884 -79.93   0
       375    402.6822    430.3585 307.7681599  +6.5096685      25512.3      43341.6     45142.46     82.73741     165.0816     329.9991      1.833     4.11     966.8958     58.17928      2826.81        57     1.664     1.261 -83.70   0
       376    919.3070    430.0860 307.5535628  +6.5270808     1411.835     2199.939     2483.202     82.60639     165.5403     330.1632      1.719     5.06     954.5925     58.17928     175.9512        15     1.388     0.793 -76.83   0
       377    148.7904    429.9218 307.8736355  +6.5013138     2088.784     3564.577     2870.628     82.34373     164.6217     329.9335      1.791     4.78     977.8986     58.17928     237.6324        21     1.447     0.964  88.31   0
       378    932.3015    424.8406 307.5483404  +6.5296803     5110.658      7428.11     7078.687     82.73741     164.9503     330.2944      1.555     3.91     953.8724     58.17928     643.1118        24     1.410     0.900 -82.90   0
       379    915.2548    426.1524 307.5553779  +6.5285694     678.4495     1136.287     997.5897     82.73741     165.0816     330.1304      1.905     6.05     954.5441     58.17928     92.17932         8     1.142     0.903 -64.14   0
       380     82.1691    425.4143 307.9014600  +6.5009314      1234.97     2098.044     2082.456     82.34373     164.8189     329.9991      1.889     6.81     980.8207     58.17928     145.3329        16     1.548     0.875 -87.32   0
       381    988.0362    423.0535 307.5252472  +6.5322787     570.4158     589.5805     338.1874     82.60639     165.0816     330.0976      1.532     4.76     951.7999     58.17928     100.4391         6     1.137     0.566 -87.75   0
       382    260.2377    420.8760 307.8276485  +6.5087973     12159.83     20998.13     22022.25     82.60639     165.1472     330.0648      1.865     4.12     971.2111     58.17928     1294.509        49     1.662     1.260 -80.72   0
       383     95.8898    415.7102 307.8960888  +6.5053995     819.1516     1365.761     488.8023      82.7374     165.6057     330.1632      1.684     5.55     980.3568     58.17928     122.9968         8     1.221     0.784 -53.72   0
       384    755.1724    415.5996 307.6222321  +6.5275749     658.0416     1181.375     1236.506     82.34373     164.7532     329.8678      1.480     4.32     959.2115     58.17928     103.5725         7     1.098     0.484 -48.69   0
       385    983.3817    413.0627 307.5275153  +6.5362480     996.1928     1622.986     1240.487     82.34373      165.016     329.9335      1.831     5.81     951.5387     58.17928     127.8034        11     1.171     0.813 -89.28   0
       386    373.2297    410.8145 307.7810525  +6.5167478     1134.884     1969.844     2138.972     82.34373     164.8189     329.9991      1.906     5.52     967.1365     58.17928     159.2725        15     1.358     0.865 -71.15   0
       387    206.1273    411.0478 307.8504564  +6.5110347     819.8878     1263.933     677.2268     82.73741     165.1472     330.0976      1.730     5.79     974.0258     58.17928      101.446        10     1.114     0.847 -67.13   0
       388    160.6137    409.5780 307.8694113  +6.5101100     4637.791     7430.104     7491.417     82.47517     164.8846     329.9663      1.727     4.18     976.3621     58.17928     489.9014        28     1.495     1.042 -83.38   0
       389    265.5353    409.0647 307.8258463  +6.5138514     1209.374     1812.522     1925.955      82.7374     165.0816     330.0976      1.652     4.76      970.259     58.17928     144.4691        15     1.111     0.960 -76.37   0
       390    846.5527    406.0461 307.5845919  +6.5345746     816.8195     1322.778      1639.24      82.7374     164.9503     330.0976      1.955     5.17     955.9514     58.17928     107.8655         9     1.173     0.644  80.33   0
       391    182.7451    405.2310 307.8603652  +6.5126494     2120.768      3836.42     4332.088     82.60639     165.1472      330.032      1.948     4.98     974.9445     58.17928     271.6427        23     1.597     0.942  89.22   0
       392    577.8090    404.7435 307.6962750  +6.5261177     919.9148     1257.242     1220.181     82.08023      165.016     329.8021      1.576     4.61     961.9148     58.17928     136.6801         9     0.979     0.616 -62.92   0
       393    406.0620    400.0031 307.7677784  +6.5223136     1822.066     3215.397     3308.205     82.08023     164.8846     329.7693      1.852     4.69     964.6291     58.17928     254.7944        18     1.299     0.969 -81.75   0
       394    294.3141    401.0247 307.8141632  +6.5181379     709.9637     1113.158     1113.792      82.7374     164.8189     329.8678      1.681     4.32     968.5837     58.17928     90.59436         7     0.781     0.682 -77.66   0
       395    994.6293    399.5045 307.5232968  +6.5422208     1096.206     1521.483     1782.523     82.86822     164.8189      330.032      1.741     4.55     950.3941     58.17928     150.4196        11     0.990     0.801 -82.73   0
       396      6.9588    398.5590 307.9336076  +6.5094834     851.5077     1410.943     1787.044     82.47517     165.0816     321.6888      1.735     6.09     982.1898     58.17928     124.7331        12     1.265     0.824  59.06  16
       397    459.8923    393.6904 307.7456299  +6.5267264     6403.985     10931.98     11270.97      82.7374     165.6057     330.0976      1.822     4.08     962.9996     58.17928     711.7967        38     1.669     1.144 -79.52   0
       398     56.1129    394.6112 307.9133239  +6.5127696     2915.562     5411.038     5860.202     82.34373     164.8189     329.9007      1.970     4.67     980.5312     58.17928     347.1499        30     1.588     1.137 -80.00   0
       399    613.8766    395.7184 307.6815957  +6.5310522     488.8788     592.6039     46.14233     82.99883     165.3438      330.196      1.450     4.29     959.9719     58.17928     91.60803         5     1.040     0.503  36.24   0
       400    792.3674    392.6800 307.6075499  +6.5382811     1913.185     3243.906     2908.041     82.60639     165.0816     330.0648      1.795     4.52     957.1281     58.17928      212.616        23     1.467     1.000 -80.26   0
       401    800.4182    391.0466 307.6042603  +6.5392247     12395.16      19660.4     20264.45     82.21208      165.016     329.8021      1.698     3.98     956.8063     58.17928     1461.422        39     1.485     1.143 -81.87   0
       402    363.8591    389.6804 307.7856571  +6.5251578     1024.442     1712.848     1319.356     82.86822     165.0816     330.0648      1.682     4.78     966.1876     58.17928     128.4739        13     1.203     0.882 -81.76   0
       403    975.5364    382.5674 307.5317958  +6.5485759     660.9735     850.7786     904.4502     82.47517     165.1472      330.032      1.726     4.74     950.1401     58.17928     101.3175         6     1.284     0.497 -87.89   0
       404     14.5331    380.0069 307.9310888  +6.5173973     931.4286     2411.983     3904.306     82.21208     164.8189     329.8678      3.512     7.84     981.8765     58.17928     113.3052        16     1.619     1.063 -78.63   0
       405    480.3720    378.0458 307.7376491  +6.5338721     1972.429     3244.317     3376.729     82.21208     165.1472     329.9663      1.735     4.54     961.5052     58.17928     227.8785        20     1.352     0.974 -76.95   0
       406    508.2518    377.4209 307.7260886  +6.5350653     2762.599     4544.109     3991.159     82.21209     165.1472     329.8678      1.715     4.18     961.2552     58.17928     333.2552        22     1.408     0.943 -89.53   0
       407    936.7165    376.7897 307.5481163  +6.5496651      738.217     1247.265     1304.904     82.34373     164.8189     329.9007      1.481     4.24      951.273     58.17928     119.6145         7     1.148     0.447  86.96   0
       408    865.7868    374.0041 307.5776761  +6.5484457     31201.96     50436.36     53721.15     82.34373     164.7532     329.9335      1.706     4.21     953.9312     58.17928     3895.077        63     1.686     1.161 -82.37   0
       409    358.4109    368.8669 307.7886216  +6.5335672     612.7737     1200.493     884.3283     82.21208     164.9503     329.9007      1.791     5.40     965.0972     58.17928     78.36127         7     1.407     0.585  11.27   0
       410    637.6055    366.4021 307.6727236  +6.5439499     2517.825     4306.048      4326.29     82.08023     164.7532      329.835      1.781     4.59     957.9193     58.17928     312.7626        23     1.499     0.950 -85.89   0
       411     46.0341    366.3997 307.9184640  +6.5240762     1032.262     1891.663      1938.33     81.68339     164.8846     329.8021      1.941     6.34     980.1859     58.17928     133.4762        15     1.460     0.826 -84.97   0
       412    169.2116    364.7615 307.8673530  +6.5289006     580.4484     575.0311     821.2914     82.21208     164.8846     329.7693      1.174     4.34     974.0547     58.17928     79.24786         5     0.865     0.619 -43.43   0
       413    722.2424    359.9707 307.6377795  +6.5494387     73086.73     118404.1     124531.7     82.34373      165.016     329.9335      1.737     4.06     957.3302     58.17928     8491.331        85     1.668     1.249 -81.55   0
       414    880.4162    361.4156 307.5720206  +6.5541315     1292.899     1810.828     2214.215     82.47517     164.7532     329.9991      1.618     3.47     952.7815     58.17928     180.1339        13     1.058     0.838  68.38   0
       415    101.6746    359.3040 307.8955915  +6.5288798     1273.343     2059.629     1925.775     82.47517     165.2783     330.0976      1.776     4.41      976.874     58.17928     180.9879        16     1.209     0.952 -56.36   0
       416    584.7888    356.8301 307.6949866  +6.5461319     2410.045     4236.897     4655.768     82.21208     164.8189     329.9007      1.887     4.38     958.2753     58.17928     287.3425        27     1.451     1.215  88.23   0
       417    963.8221    356.7754 307.5375262  +6.5588329     955.5109     1501.213     1663.245     82.21208     164.8846      330.032      1.551     5.17     949.1885     58.17928     129.4961         9     1.221     0.618  89.33   0
       418    121.9243    355.4760 307.8873093  +6.5311420     5453.246     9559.527     10086.76     82.99882     165.3438     330.1632      1.896     4.27     975.8521     58.17928     633.6241        37     1.643     1.175  88.89   0
       419    567.9800    352.9061 307.7021013  +6.5471884     6352.885     10615.91     11226.12     82.60639     164.8846     329.9006      1.790     4.12     958.4665     58.17928     729.3862        34     1.565     1.117 -80.79   0
       420    297.0059    350.5513 307.8147470  +6.5390650      2345.46     4238.023     4158.215     82.21208     164.8846     329.7036      1.827     4.67     967.4152     58.17928     255.6362        25     1.484     1.044 -74.51   0
       421    430.8957    348.0534 307.7592119  +6.5445935     22674.08     38960.46     41134.43     82.60639     165.0816     330.3272      1.834     4.02     960.2691     58.17928     2526.151        59     1.681     1.280 -79.34   0
       422    538.5831    346.5559 307.7145270  +6.5488245     1290.392     2086.889     1868.805     82.34373     164.9503      329.835      1.742     5.00      958.625     58.17928     167.8082        15     1.252     0.881 -77.77   0
       423    697.1823    346.5939 307.6486394  +6.5541224     478.1685     485.8924     682.8127     82.34373     164.7532     329.9007      1.194     3.60     956.6017     58.17928     97.02271         5     0.991     0.377  84.92   0
       424    410.9780    347.0000 307.7675215  +6.5443598     927.7056      1703.25      2413.69     82.21209     164.6875     329.7036      1.945     5.19     960.8723     58.17928     117.2454         9     1.204     0.633 -17.71   2
       425    510.1422    343.7714 307.7264357  +6.5490202     1001.004     1937.028     2268.776     82.34373     165.1472     329.9663      2.062     7.04     958.5917     58.17928     154.2073        15     1.575     0.952 -57.96   0
       426    825.7598    340.8548 307.5954165  +6.5607931     1031.143      1505.77     1668.609     82.60639     165.1472     330.0648      1.538     5.70      953.696     58.17928     116.4973        12     1.222     0.749 -84.88   0
       427    661.8326    341.1625 307.6635072  +6.5551810     668.0475     1066.282     1062.399     82.34373     164.8189      329.835      1.656     4.50     956.2104     58.17928     77.96191         6     0.934     0.617  25.39   0
       428    519.9948    338.4565 307.7225215  +6.5515448     7471.124     12790.07     13514.62     82.21208     164.9503     329.7693      1.826     3.97     957.9897     58.17928     872.9727        43     1.650     1.201 -89.17   0
       429    408.2468    340.5664 307.7688728  +6.5469240      771.268      1431.44     2370.228     82.47517     165.0816     329.9991      3.174     5.13     960.8558     58.17928     114.8324         8     1.008     0.739  36.67   0
       430    789.1081    337.2865 307.6107627  +6.5610406     2888.625      4689.86     5069.878     82.60639     165.5403     330.1632      1.761     4.25     954.5691     58.17928     348.8985        21     1.390     0.939 -87.29   0
       431    944.3531    336.8712 307.5462813  +6.5664001     964.7325     1600.627     1584.659      82.7374     165.0816     330.0648      1.715     5.38     949.0542     58.17928     158.5802        10     1.338     0.612 -87.06   0
       432    736.5054    336.6579 307.6326369  +6.5595404     726.7001     962.5327     777.2269     82.60639     165.0816     330.2288      1.577     4.71     956.0279     58.17928     98.71887         7     0.917     0.685  26.28   0
       433    347.0154    335.1561 307.7944915  +6.5471011      959.713     1663.345     1272.105     82.21208     164.8846      329.835      1.643     6.28     963.6326     58.17928     118.8121        12     1.292     0.858 -68.27   0
       434    182.3148    329.4419 307.8631024  +6.5439221      978.676     1712.938      2017.31     82.73741     164.9503     330.0648      1.828     4.78     972.1081     58.17928     125.8511        14     1.224     0.913 -36.64   0
       435    409.8642    322.6762 307.7688036  +6.5543639     6493.295      11175.5     11602.96     82.99883     165.0816      330.032      1.847     4.08     960.2437     58.17928     711.1979        43     1.640     1.263  87.22   0
       436    265.7890    323.2172 307.8286366  +6.5492997     1970.771     3154.311     3531.428     82.47517     164.7532     329.9663      1.735     4.15     967.1636     58.17928     273.1906        21     1.437     0.902  89.08   0
       437    763.6570    322.3711 307.6218367  +6.5663469     993.8064     1464.201     1502.249     82.34373     165.1472     329.9663      1.585     5.63     954.3714     58.17928     133.8781        11     1.172     0.894  71.59   0
       438    777.7410    318.5260 307.6161147  +6.5684055      51533.2     80525.91      84279.4     82.86822     165.0816     330.0648      1.724     3.91     953.8188     58.17928     6231.523        68     1.622     1.202 -85.24   0
       439    449.5353    317.7871 307.7524879  +6.5577139     2029.107     3311.789     3702.629     82.21209     164.8846     329.9663      1.913     4.81      958.145     58.17928     228.6605        22     1.400     1.030 -87.28   0
       440   1012.6992    315.6595 307.5185974  +6.5774385     1673.538     2519.335     2406.494     82.47517      165.016      330.196      1.624     4.32      944.576     58.17928     226.7889        16     1.316     0.756 -85.68   0
       441    953.5270    314.7630 307.5432108  +6.5758336      2340.06      3680.42     3735.918     82.60639     165.0816     330.1304      1.678     3.82      947.562     58.17928     344.5332        20     1.376     0.877 -84.15   0
       442    595.7595    315.2948 307.6918256  +6.5636466      1168.69      1705.59     1486.389     82.73741      165.016     330.1632      1.591     5.30     955.2063     58.17928     167.0439        12     1.088     0.876 -78.09   0
       443    436.0524    313.6506 307.7582283  +6.5589690     1779.762     2808.022     2916.163     82.86822     164.9503     330.0976      1.709     4.60     958.6854     58.17928     226.2804        19     1.422     0.933  89.81   0
       444    486.4187    314.0320 307.7372919  +6.5605018     1125.221     1874.428     2139.566     82.34373     164.8846     329.9335      1.691     3.46     956.1763     58.17928     155.9053         9     0.856     0.788  10.38   0
       445    857.0883    307.7928 307.5835101  +6.5754896     1187.536     1894.476     2183.344     82.21208     164.7532     329.8021      1.651     4.71     951.2007     58.17928     167.9625        13     1.192     0.835 -85.33   0
       446    989.1610    306.2854 307.5286904  +6.5805230     572.8237     952.6548      1098.25     82.73741     165.0816     330.0648      1.922     4.07     945.2215     58.17928     122.4077         6     1.183     0.401 -60.42   0
       447    212.5842    304.9735 307.8513542  +6.5550417     2114.736     3633.804     4182.733     82.34373     164.8846     329.9991      1.869     4.66     969.5443     58.17928     241.7827        23     1.487     0.997 -82.93   0
       448    466.5671    305.1182 307.7458389  +6.5635156     1061.667     1796.853     3156.399     82.60639      165.016      330.032      3.387     6.18     956.3258     58.17928     120.4737        13     1.262     0.850  75.01   0
       449    776.1922    303.1378 307.6172746  +6.5747065     5747.242     9119.788      9339.67     82.08023     164.8846     329.8678      1.697     4.01     952.9282     58.17928     707.3798        30     1.468     1.033 -84.68   0
       450    108.9204    302.4069 307.8945039  +6.5526119     961.7869     1743.701     1879.936     82.34373     164.6217      329.835      1.867     7.21     975.8924     58.17928     122.8317        16     1.509     0.973 -86.38   0
       451    792.5251    301.0744 307.6105584  +6.5761046     2428.609     3972.237     3737.101     82.99882     165.3438     330.1632      1.713     4.38     952.3817     58.17928     290.0481        25     1.525     0.995 -83.76   0
       452    248.9207    303.7693 307.8363000  +6.5567610     549.4257     854.4937       962.04     82.60639     165.0816      330.032      1.763     4.53     967.3679     58.17928     94.86462         6     0.980     0.595  61.90   0
       453    495.0162    301.2805 307.7341494  +6.5660543     480.5513     762.0121     385.4186     82.34373     164.8189     329.9007      1.485     4.57     954.9723     58.17928     91.30359         5     1.200     0.494  71.46   0
       454    382.3082    295.4957 307.7811667  +6.5646594     1348.084     3142.937     3897.058     82.73741     165.6057      330.032      2.360     8.40       960.23     58.17928     155.0984        26     1.624     1.498  60.89   0
       455     96.0036    296.3182 307.9000754  +6.5546903     1168.169     2093.332     2540.541     82.21208     164.6875     329.7693      1.860     5.70     976.5308     58.17928     138.0031        16     1.307     0.940 -83.67   0
       456    508.8694    291.7996 307.7287133  +6.5704331     1648.111      2693.46     2851.611     82.21208     164.5559     329.8678      1.789     4.80     954.0718     58.17928      200.985        17     1.436     0.786 -78.42   0
       457    271.4992    287.4125 307.8274723  +6.5642727     5137.982     8672.916     9592.091     82.47517     164.8189      329.835      1.842     4.32     965.5114     58.17928     537.6019        34     1.504     1.186 -84.57   0
       458    939.1732    286.6714 307.5501155  +6.5869516     608.9351     1034.074     938.3245     82.34373     164.9503     329.9991      1.614     6.04     947.1258     58.17928     111.1951         8     1.629     0.630 -83.86   0
       459    835.9138    286.2622 307.5930293  +6.5836704     699.9487     1143.339      1058.92     82.86822     165.2783     330.0648      1.682     4.61     950.6242     58.17928     114.2064         7     1.185     0.509 -71.93   0
       460      2.1382    280.1480 307.9396145  +6.5582025     57674.34     86967.88     90333.73     80.74983     143.1541     261.7628      1.612     4.41     979.5991     58.17928     6833.217        52     1.693     0.996 -88.07  24
       461    790.7789    281.1160 307.6119536  +6.5842858     689.3525     901.6043     677.7798     82.47517     164.7532     329.9335      1.546     4.51     951.4671     58.17928       106.85         7     1.239     0.655  89.32   0
       462    405.8647    278.3728 307.7719575  +6.5725192     1465.024      2389.61     2049.118     82.34373     165.0816     329.9663      1.726     4.65     958.6352     58.17928     157.7256        17     1.298     0.894 -83.83   0
       463    249.0104    280.1926 307.8370583  +6.5664970     615.7301     912.4174     875.7449     82.21208     164.8846     329.9663      1.443     3.81     966.9472     58.17928     86.12463         5     0.819     0.509 -55.49   0
       464    992.7516    276.9167 307.5281824  +6.5927674     1016.144     1424.935     1939.317     82.73741     165.0816     330.0976      1.606     5.51     943.9471     58.17928     148.6565        12     1.304     0.657  86.60   0
       465    328.2438    274.0327 307.8043501  +6.5717035     1082.551     1678.671     1708.521     82.34373      165.016     329.9007      1.701     6.37     961.9977     58.17928     129.8213        14     1.215     0.939 -84.33   0
       466    175.4120    274.0146 307.8678413  +6.5665713     1473.729     2365.324     2013.251     82.60639     164.7532     329.9991      1.733     4.48     971.8181     58.17928     180.3668        18     1.300     0.928 -81.52   0
       467    584.9026    269.6041 307.6978725  +6.5821454     1889.119     3095.021     3074.044     82.47517     164.7532     329.7365      1.741     4.55     952.1759     58.17928     230.7099        20     1.552     0.836  89.00   0
       468    928.8385    268.7275 307.5550105  +6.5940144      1788.72     2859.053      3123.79     82.60639      165.016     330.1304      1.653     4.78     946.6267     58.17928      266.117        16     1.467     0.713 -89.66   0
       469    748.6149    267.2703 307.6299358  +6.5885912      4866.59     7826.942     8355.228     82.21209      165.016     329.9663      1.746     3.98     951.6609     58.17928     595.2421        32     1.552     1.113  89.71   0
       470    689.4739    267.3283 307.6545045  +6.5865878     2025.452      3055.68     3563.375     82.99883     165.2128     330.0976      1.800     4.50     951.2585     58.17928     217.3111        18     1.314     0.908 -84.35   0
       471    986.5008    267.1343 307.5311070  +6.5965974      907.621     1112.669     938.1304      82.7374     165.2128     330.0648      1.441     5.07     944.1619     58.17928     106.1539         9     1.067     0.683 -61.82   0
       472    404.6287    261.6973 307.7730328  +6.5793618     687.8566     883.1154     545.8829     82.86822     164.8189     330.0648      1.453     4.13     957.6087     58.17928      91.6886         6     0.929     0.525 -48.53   0
       473    944.6135    259.4123 307.5487687  +6.5983869     1166.734     1583.961     1647.034     82.60639     164.7532     329.9991      1.677     4.41     945.4933     58.17928     163.6823        12     1.182     0.758 -87.41   0
       474    248.2407    252.7147 307.8383051  +6.5778145     1944.861     3312.691     3445.535     82.73741      165.016      330.032      1.839     5.00     966.8425     58.17928     214.7743        22     1.409     1.131 -79.42   0
       475    890.9186    251.4726 307.5713435  +6.5998712     1657.789     2662.088     2905.359     82.99882     165.4093     330.0976      1.706     4.71     947.0428     58.17928     205.7824        16     1.402     0.773 -88.23   0
       476    781.4621    250.8495 307.6168402  +6.5964693     1415.355     2510.153     1993.303     82.73741      165.016     330.1304      1.834     4.32      950.548     58.17928     196.8533        18     1.382     0.881 -80.29   0
       477    482.0429    242.3947 307.7415213  +6.5899288     19918.94     35004.51     37056.61     82.08023     164.7532     329.7365      1.851     4.12     951.6631     58.17928     2252.322        52     1.656     1.274 -85.42   0
       478    808.0908    241.5150 307.6060901  +6.6012134     12529.24     20053.69     21599.43     82.47517     165.4748      330.196      1.746     3.93      949.806     58.17928     1547.753        52     1.579     1.312 -68.15   0
       479    343.3843    243.6038 307.7990861  +6.5847741     782.7154     1261.937     1551.875     82.34373     164.6875     329.9007      2.009     5.69     960.8055     58.17928     85.00317        10     1.191     0.765  45.43   0
       480    487.9383    237.6379 307.7392321  +6.5920904     1181.797     2229.436     2761.639      82.7374     165.1472     330.0648      2.167     5.12     951.3458     58.17928     141.4037        15     1.186     0.997  73.24   1
       481    747.0771    237.5883 307.6315713  +6.6007936     683.8334     1056.355      1318.06     82.34373     164.6875     329.9007      1.805     4.95     950.2253     58.17928     110.6038         8     1.177     0.666  57.28   0
       482    170.4576    235.7319 307.8711922  +6.5822082     2011.606      3557.58     3615.419     82.86822      165.016      330.032      1.918     5.04     971.7734     58.17928     231.7857        25     1.555     1.119  75.19   0
       483    145.3688    235.1632 307.8816341  +6.5815985     979.4251     1786.313       2263.3     82.34373     164.8189      329.835      2.027     5.89     973.2257     58.17928      119.513        16     1.452     0.915 -77.91   0
       484    944.3005    232.2473 307.5498090  +6.6095912     1534.327     2494.797     1938.712     82.73741     164.9503     330.2944      1.674     5.23     944.2657     58.17928     191.2509        18     1.456     0.863 -73.46   0
       485      8.1966    229.1299 307.9388232  +6.5794676     4353.433     7521.327     7850.415     82.21208     164.6875     329.2433      1.836     4.50     979.5449     58.17928     483.8674        30     1.575     1.063 -83.08  16
       486    606.2519    228.1076 307.6903982  +6.5999919     4361.887     7104.225     7553.001     82.60639     164.9503     330.2944      1.776     4.10     949.0383     58.17928     464.6612        30     1.483     1.082 -83.38   0
       487    568.7119    228.2299 307.7059906  +6.5986831     2020.056     3264.089     2745.094     82.86822     164.8846     329.9663      1.717     4.34     949.3884     58.17928     265.7562        23     1.460     0.989 -84.82   0
       488    326.3872    228.7679 307.8066476  +6.5903275     902.3395     1491.176     832.3577     82.21209     164.8189     329.9991      1.774     6.34     961.8011     58.17928     107.8433        11     1.488     0.759  86.99   0
       489    410.6454    227.1302 307.7716977  +6.5938340     1331.252     2113.354         1664      82.7374      165.016     330.0648      1.680     6.03     954.7446     58.17928     152.8353        14     1.146     0.891  85.11   0
       490    966.9244    225.4054 307.5406385  +6.6131712     2588.181     3740.137     3604.554     82.34373     164.5559     329.9663      1.551     4.46      943.875     58.17928     360.1677        19     1.355     0.894 -81.23   0
       491    913.1161    224.7323 307.5630174  +6.6116522     11202.73     16917.79     18052.54     82.86822     165.3438     330.0976      1.640     3.78     944.6479     58.17928     1347.816        35     1.460     1.040 -85.81   0
       492    588.4777    225.1763 307.6978813  +6.6006063     723.7488     1167.003     845.1643     82.34373     164.9503      330.032      1.442     5.16     948.9973     58.17928      118.553         7     1.507     0.499 -89.65   0
       493    999.7816    222.6137 307.5270804  +6.6154205     10109.76     15070.93     15082.82     82.34373     164.7532     329.9663      1.613     4.06     943.6092     58.17928     1452.962        36     1.473     1.020 -86.89   0
       494    340.6752    226.0559 307.8008031  +6.5919272      647.586     1236.213     1199.438     82.60639      165.016     329.9991      2.364     3.44     960.7581     58.17928     110.5161         5     0.819     0.419 -72.64   0
       495    232.2413    224.8083 307.8458936  +6.5887967     550.7213     1135.606     1020.208     82.08023     164.8846     329.8021      2.035     5.83     967.5878     58.17928     91.49493         7     1.271     0.753 -71.01   0
       496    711.1893    222.6201 307.6469843  +6.6057718     2670.458     4413.288     4967.973     82.34373     164.7532     329.9335      1.844     4.02     949.1746     58.17928      323.158        22     1.452     0.906 -89.10   0
       497     39.3315    221.3048 307.9261536  +6.5837474     23188.21     39047.59     41431.07     82.60639     165.1472     330.0976      1.821     4.20     978.1961     58.17928     2551.731        57     1.671     1.256 -86.23   0
       498    285.6381    222.3945 307.8237917  +6.5915888     960.5746     1671.408     1459.017     81.81588     164.8189     329.8021      1.753     5.86     964.5403     58.17928     139.3427        12     1.240     0.857 -81.93   0
       499    519.7235    217.6021 307.7267010  +6.6014279     1733.832     2970.859      3185.67     82.08023     164.5559     329.9335      1.845     4.13     949.6931     58.17928     222.5163        22     1.366     1.026  88.61   0
       500    851.7827    214.2352 307.5888524  +6.6139363     1839.942     3017.581     3406.201     82.21208     164.8846      329.835      1.721     4.20     946.6034     58.17928     255.1019        21     1.409     0.932 -86.38   0
       501    531.7601    213.4689 307.7218394  +6.6035379     2305.456     3808.834     4118.623     82.60639     165.0816     330.1632      1.770     4.20     949.1909     58.17928     287.2708        24     1.468     1.023  86.99   0
       502    903.9036    213.1291 307.5672341  +6.6161346     1892.134     3150.578     3524.816     82.60639     165.2128     330.0976      1.791     4.87     944.5481     58.17928     216.8881        16     1.299     0.844 -86.51   0
       503    763.2972    210.6674 307.6257362  +6.6124501      38017.7     60062.27     63363.32     82.73741     165.1472     330.0976      1.728     3.94      948.752     58.17928     4249.046        64     1.600     1.218 -86.58   0
       504    366.3566    210.1128 307.7906711  +6.5993717     5465.811      11395.7     12851.61      82.7374     164.9503     330.0976      2.250     5.91     958.2538     58.17928     651.6201        50     2.153     1.233 -78.18   0
       505    997.1785    209.5178 307.5286005  +6.6207401      2913.75     4011.682     4300.624     82.47517     164.7532     329.9663      1.550     3.87     942.5217     58.17928     401.0806        19     1.327     0.846 -83.54   0
       506    931.1959    207.8307 307.5560721  +6.6192337     7419.521     11531.43     12382.74     82.21208     164.9503      329.835      1.646     3.92     943.4451     58.17928     910.0355        34     1.473     1.049  87.41   0
       507    474.7482    206.8895 307.7457473  +6.6043415     4451.764     7843.816     8320.944     82.73741     164.8846     330.1632      1.895     4.12     950.5729     58.17928       503.53        33     1.550     1.158 -86.32   0
       508    132.2401    198.2454 307.8883354  +6.5963966     4373.548     7374.894      7353.81     82.60639     165.0816     329.9335      1.787     4.13     972.6828     58.17928     480.6183        29     1.484     1.109 -88.68   0
       509    277.7737    195.9616 307.8279506  +6.6022365     5834.857     9871.989     10119.76     82.34373     164.8846     329.9007      1.787     4.04     965.4659     58.17928     654.2544        39     1.596     1.196 -85.43   0
       510    951.5317    197.1381 307.5479811  +6.6243271     898.2357     1324.615     1430.264     82.73741      165.016     330.0976      1.539     5.71     942.5674     58.17928     121.4514        12     1.281     0.718  85.33   0
       511    302.4375    194.8241 307.8177423  +6.6035352     29651.96      51181.3     54497.38     82.34373     164.8846     329.8021      1.869     4.21     963.8061     58.17928     3039.688        65     1.717     1.305 -84.19   0
       512    731.8566    194.0069 307.6393586  +6.6182761     879.3735     1445.151     2017.509     82.21208     164.9503     329.7693      2.025     5.98     948.0079     58.17928     131.8703        11     1.403     0.716  82.99   0
       513    426.5079    190.3421 307.7663468  +6.6095536     44743.64     76286.55     80420.09     82.60639      165.016     330.1632      1.850     4.11        951.9     58.17928     4672.427        72     1.705     1.331 -86.00   0
       514    182.4542    191.5986 307.8676986  +6.6008310     3615.699     5975.756     6185.465     82.08023     164.8189     329.6707      1.786     4.34     969.9628     58.17928     411.4146        27     1.453     1.081 -86.22   0
       515    443.8889    190.7201 307.7591128  +6.6099810     1229.094     2033.403     1899.104     82.47517     165.3438     330.1632      1.763     6.36     951.2857     58.17928     150.8892        15     1.356     0.837 -83.52   0
       516    338.1146    187.7495 307.8031584  +6.6076549     1873.556     3816.965     4909.176     82.73741      165.016     330.0976      2.378     6.02     960.3822     58.17928     204.6256        29     1.759     1.122 -82.54   0
       517    330.5003    188.0666 307.8063112  +6.6072681     15934.56     27427.71     29318.88      82.7374     165.2128      330.032      1.865     4.23     961.0658     58.17928     1702.316        49     1.681     1.244 -86.32   0
       518    713.9731    188.1656 307.6469851  +6.6200890     963.0864     1473.313     1237.562     82.21208     164.8189      329.835      1.547     5.65     947.8181     58.17928     134.2069        14     1.373     0.841  79.83   0
       519    814.1094    187.1842 307.6054127  +6.6238444       1078.6     1773.029     2354.338     82.47517     164.8846     329.9006      1.669     5.43      946.452     58.17928      144.623        11     1.289     0.645  87.86   0
       520    765.7481    186.5388 307.6255279  +6.6224932     31666.53     49918.75     51952.07     82.73741      165.016     330.0648      1.722     3.93     947.3211     58.17928     3795.029        57     1.583     1.206 -87.66   0
       521     82.6703    183.8585 307.9094150  +6.6006661     8341.818     13869.26      14083.2     82.86822     165.0816      330.032      1.778     4.24     974.7902     58.17928     922.4781        37     1.568     1.136 -84.74   0
       522    116.5532    181.8485 307.8954065  +6.6026372     1229.671     2157.544     2369.128     82.73741     164.9503     330.0648      1.852     5.94     972.7137     58.17928     163.3842        18     1.667     0.802  87.04   0
       523   1023.6464    181.3886 307.5185454  +6.6332362     830.2283     934.4833     957.2324     71.50137     131.2327     248.4739      1.372     4.32     939.0284     58.17928     157.3578         8     1.111     0.478 -89.20  24
       524    750.4183    174.7099 307.6322945  +6.6268637     766.3666     1145.285     1230.022     82.47517     164.8189     329.9663      1.703     4.59     946.8427     58.17928     117.0156         8     0.965     0.647 -78.53   0
       525    599.8599    171.2010 307.6949675  +6.6232704     906.5955      1162.24     1207.925     82.08023     164.8189     329.7365      1.594     5.77     947.5912     58.17928     110.1991        12     1.176     0.796 -84.07   0
       526     16.4370    168.5167 307.9374501  +6.6047671     901.3994     1350.226     1227.525     82.73741      165.016     329.9991      1.678     5.57     980.0051     58.17928     120.7867        11     1.240     0.830  78.65   0
       527    608.4465    164.8918 307.6916121  +6.6261627     964.7339     1409.494     1530.515      82.7374      165.016      330.196      1.660     5.10     947.5695     58.17928     125.1625        10     1.115     0.774 -67.17   0
       528    616.4546    162.9714 307.6883494  +6.6272239     1768.064      2909.89     3690.162     82.47517     165.1472     329.9991      1.853     4.53     947.5445     58.17928      207.201        21     1.288     1.112 -77.33   0
       529    361.0031    163.3606 307.7944713  +6.6184922     802.0089      1407.72      1459.44     81.81588     164.8189     329.7693      1.943     5.83     957.3207     58.17928     117.8835        12     1.495     0.706 -84.92   0
       530    301.3306    161.0906 307.8193399  +6.6174239     26574.07     46530.07     49751.69      82.7374     165.2128     330.0648      1.861     4.28     964.3706     58.17928     2807.852        64     1.720     1.325 -86.71   0
       531     46.5885    159.6218 307.9252245  +6.6094554     4074.424     6872.333     7093.297     82.34373     164.8189     329.9663      1.867     4.32     977.2189     58.17928     485.5712        32     1.711     1.074 -78.67   0
       532    733.0061    157.7324 307.6400993  +6.6332898     7568.212     12091.27     10811.89     82.21208     164.6875     329.8678      1.687     4.03     946.2305     58.17928     913.7888        35     1.478     1.102 -86.49   0
       533    210.6209    158.9162 307.8571000  +6.6152707     757.8185     1313.826     1312.445     82.47517     164.7532     329.9335      1.614     5.91     968.0602     58.17928      105.824         9     1.262     0.780  86.55   0
       534    287.2272    156.5400 307.8253529  +6.6188283     699.8411     1119.767     1229.117     82.34373     165.1472     329.9335      2.015     5.91     965.8543     58.17928     120.1926         8     1.283     0.768  78.37   0
       535    143.9135    154.6919 307.8849570  +6.6147692     4352.234     7507.911     8148.682     82.60639     165.5403     330.1632      1.819     4.18     970.3973     58.17928     504.7244        33     1.618     1.096 -80.98   0
       536    482.5764    152.1171 307.7443391  +6.6272157     1073.088     1920.116      1360.79     82.60639     164.8189     329.9991      1.805     7.09     948.5154     58.17928     123.3196        16     1.681     0.838 -82.50   0
       537    414.5106    150.8371 307.7726623  +6.6254593     3687.573     6711.167     6887.393     82.73741      165.016     330.0976      1.938     4.62     950.8105     58.17928     425.5107        34     1.603     1.200  78.51   0
       538    605.8466    152.2181 307.6931185  +6.6313077     776.3632     1236.234     2019.206     82.21208      165.016     329.8021      1.698     4.81     947.1542     58.17928     112.1146         7     0.850     0.771  41.87   0
       539    671.6787    151.2203 307.6657993  +6.6339251     663.1302     1011.561     516.5304     82.34373     164.7532      330.032      1.595     5.12     947.1516     58.17928     108.4865         7     1.401     0.786  39.33   0
       540    590.9043    149.9140 307.6994044  +6.6317581     789.1797     1183.466     1222.203     82.73741     165.4748     330.1304      1.763     5.58     946.9001     58.17928     122.6962        11     1.206     0.727 -83.43   0
       541    378.9332    149.7384 307.7874809  +6.6247180     2729.888     4700.057     4817.711     82.73741      165.016     330.0648      1.777     4.40      955.079     58.17928     308.0209        25     1.478     1.028  89.76   0
       542    133.3970    149.6974 307.8894950  +6.6164769     1656.025     2787.927     3183.364     82.47517     164.7532     329.7365      1.972     4.64     970.6798     58.17928     205.8181        19     1.288     1.032 -84.85   0
       543    694.7897    147.5864 307.6563189  +6.6361991     743.2903     1077.626     1037.345     82.47517     164.8189     329.9991      1.508     5.15     946.5469     58.17928     92.16931         9     0.931     0.805  70.59   0
       544    751.6022    143.6148 307.6328467  +6.6397403     535.6891     494.8488      586.084     82.34373     164.7532     329.9007      1.338     4.10     945.1231     58.17928     86.08588         5     0.993     0.484   3.04   0
       545    230.8078    138.6925 307.8493958  +6.6242986     4874.454     8380.271      8704.55     82.34373     164.7532     329.8678      1.845     4.03     967.2948     58.17928     576.3095        33     1.551     1.151 -84.76   0
       546    113.4542    138.5701 307.8981564  +6.6203987     1990.216     3331.782     3199.997     82.47517     165.1472     329.9663      1.772     4.80     971.0649     58.17928     223.3081        24     1.562     1.009 -68.44   0
       547    692.5802    137.5119 307.6575754  +6.6402842     5755.615     9338.566     9953.754     82.47517     164.8189     329.9663      1.770     4.01     946.1752     58.17928     649.2813        33     1.551     1.083 -81.41   0
       548    840.4336    137.0893 307.5961560  +6.6454054     1021.346     1463.786      1199.22     82.86822     164.9503     330.0648      1.539     3.90     942.8582     58.17928     179.1672        10     1.044     0.841 -64.05   0
       549    644.7653    134.7255 307.6775361  +6.6398331     8312.636     14086.47     15581.58     82.60639     165.1472      330.032      1.836     3.87     946.5961     58.17928     1012.454        39     1.580     1.178  89.33   3
       550    648.2507    126.2384 307.6763732  +6.6434536     48389.89     79939.07     84654.98     82.47517      165.016      330.032      1.778     4.01     946.2803     58.17928     5478.522        74     1.674     1.290 -85.89   2
       551    279.6050    135.4987 307.8292296  +6.6272583     787.5692     1268.328     773.5636     82.47517     164.7532     329.7036      1.781     4.42     966.0279     58.17928     115.4027         6     1.159     0.480  55.68   0
       552    583.1949    134.7353 307.7031181  +6.6377659     718.0046     861.1198     1256.277     82.08023     164.7532      329.835      1.321     4.22     946.4362     58.17928     106.2423         6     0.770     0.659  66.83   0
       553     43.8433    133.9174 307.9272342  +6.6199739     889.4429     1580.436     1201.274      82.7374     165.0816      330.032      1.801     5.99     976.3654     58.17928     112.6283        12     1.191     0.848 -81.19   0
       554    371.9882    130.4025 307.7910182  +6.6324670     3186.688     6090.269     6515.611     82.34373     164.7532     329.9007      2.047     4.93     955.7638     58.17928     350.8976        35     1.721     1.220 -73.58   0
       555   1017.8296    129.1915 307.5227104  +6.6545910     823.1827     1430.671     1728.675     82.21208     164.8846     323.2339      1.956     5.19     936.6671     58.17928     126.0566         9     1.375     0.554 -85.86  16
       556    553.7487    129.8973 307.7155156  +6.6387759     1490.425     2277.331     1934.151     82.60639     165.0816     330.2944      1.601     4.29     946.1805     58.17928      194.002        14     1.189     0.870 -72.00   0
       557    327.2984    119.9837 307.8099373  +6.6352665     3089.409     5322.273     5585.731      82.7374     164.8189     329.8678      1.848     4.48     961.2751     58.17928     333.2047        29     1.538     1.119 -81.38   0
       558     24.7742    102.9861 307.9362028  +6.6320998     742238.8      1737463      1904223     82.47517     164.8846     329.9991      2.272     7.60     976.7694     58.17928     62050.63       457     2.228     1.892 -85.01   4
       559    727.3089    114.5610 307.6439166  +6.6509216     865.3917     1243.686     1002.222     82.86822      165.016     330.0976      1.589     4.81     944.0858     58.17928     117.6431         8     1.221     0.538  73.38   0
       560    698.8030    113.3683 307.6558011  +6.6504598     1294.506     2064.862     1666.194     81.94817     164.8846      329.835      1.685     4.79     944.9295     58.17928     163.4999        15     1.357     0.760  89.47   0
       561    712.6123    110.2975 307.6501663  +6.6521898     2891.805     4796.533     4754.627     82.47517     164.8189      329.835      1.770     4.32     944.3107     58.17928     328.1857        27     1.495     1.063  88.72   0
       562    454.4568    101.2941 307.7577340  +6.6472529     3777.397     6412.381     6498.753     82.60639     165.0816     330.2616      1.808     4.04     947.5895     58.17928     400.4849        32     1.464     1.179 -89.44   0
       563    908.9530     97.5095 307.5690126  +6.6640352     2212.841     3054.566     3009.782      82.7374     164.9503      330.196      1.523     3.91     939.2484     58.17928      289.752        18     1.283     0.865 -80.26   0
       564    927.0338     96.6157 307.5615296  +6.6650082     4026.994     6129.663     5984.243     82.34373     164.8189     329.9335      1.605     4.17     938.6524     58.17928     528.7631        25     1.362     0.998  86.22   0
       565    619.1870     95.1334 307.6894952  +6.6553209     1680.097     2673.311     2396.224     82.21208     164.8846     329.9663      1.710     4.71     945.2719     58.17928     202.4958        19     1.330     0.944 -89.17   0
       566    606.8062     96.4635 307.6945948  +6.6543569     575.6107     1087.513     695.1765     82.08023     164.8189     329.8021      1.609     3.71     945.3109     58.17928     86.70081         5     1.039     0.380 -83.57   0
       567    417.6319     93.1414 307.7733094  +6.6493822     1554.601     2855.003     2749.618     82.60639     165.1472     329.9991      1.889     5.25     949.1606     58.17928     209.8038        21     1.606     0.930 -86.06   0
       568    264.6574     94.5712 307.8368210  +6.6436511     679.3956     1252.615     1622.027     82.34373     165.1472     329.9663      2.062     5.04     966.3046     58.17928     98.56726         8     1.110     0.648 -81.38   0
       569    165.8747     90.0561 307.8780162  +6.6421911     2970.284     5165.888     5359.743     82.60639      165.016     329.9991      1.835     4.28     967.5998     58.17928     351.5397        31     1.530     1.207  83.31   0
       570    314.0877     88.8338 307.8164768  +6.6476817     1273.519     2317.321      2207.65      82.7374     164.9503     330.0648      1.776     6.48     962.8595     58.17928     141.9673        20     1.558     0.959 -89.31   0
       571    782.5422     86.3208 307.6219146  +6.6644282     796.9109      1432.91     1770.751     82.73741     165.0816      330.032      2.230     7.13     941.8318     58.17928      110.692        13     1.706     0.836  79.12   0
       572    574.5909     86.9157 307.7083018  +6.6572186     627.7187     1102.789     714.4983     82.34373     164.7532     329.9007      1.708     5.52     945.5176     58.17928     95.09467         7     1.258     0.684  78.58   0
       573    968.7459     86.4027 307.5445394  +6.6706174     452.0251     513.4008     685.3705     82.08023     164.8846     329.6707      1.543     3.40     936.6584     58.17928     86.49921         5     1.175     0.285  53.95   0
       574    794.4352     82.8246 307.6170902  +6.6662694     3052.538     4773.591     4813.983     82.21209     164.8846      329.835      1.690     4.14     941.5307     58.17928      340.873        23     1.504     0.915 -81.71   0
       575     47.5603     87.8070 307.9272492  +6.6391339     11319.43     19135.65      21215.5     82.08023     164.7532     329.7693      1.835     4.05     973.7339     58.17928     1301.332        47     1.667     1.195 -88.04   0
       576    849.3005     82.4091 307.5943063  +6.6682756     5969.553     9213.323     9469.697     82.47517     164.6875     329.8678      1.636     4.00     939.8525     58.17928     771.5985        28     1.455     0.975 -88.70   0
       577    439.3016     83.4320 307.7646327  +6.6541180     1123.739     1999.383     1864.696     82.73741     164.9503      330.196      1.747     7.08     948.1597     58.17928      135.838        16     1.582     0.942  76.65   0
       578    916.4989     84.1992 307.5663234  +6.6697822     684.3997     972.8741     771.1755     82.21209     164.6875     329.7365      1.376     4.77      938.265     58.17928     113.7004         8     0.891     0.724 -38.15   0
       579    556.7101     81.2696 307.7159214  +6.6589500     1031.926     1693.053     1860.361     82.86822     165.3438     330.0648      1.746     3.51     945.6028     58.17928     156.7034        10     0.881     0.821  68.81   0
       580    449.1327     79.4154 307.7606831  +6.6561062     966.6332     1582.123     1796.236     82.21208     164.9503     329.9663      1.712     6.47     947.6831     58.17928     119.4667        13     1.310     0.897 -77.51   0
       581     88.0762     79.6037 307.9106932  +6.6438857     2924.455     4888.838     5155.354     82.21208     164.5559     329.9335      1.769     4.16     970.1775     58.17928     355.0645        27     1.490     1.137 -68.78   0
       582     72.3888     80.6080 307.9171770  +6.6429426      886.833     1486.116     1592.614     82.34373     164.8846     329.9991      1.795     4.88     971.4149     58.17928     137.4163        11     1.118     1.048 -88.18   0
       583    611.6713     76.3969 307.6932482  +6.6628039     1198.484     1979.031     1588.895     82.21209     164.6875     329.9007      1.692     5.70     945.1923     58.17928     160.1843        14     1.329     0.739 -76.37   0
       584     30.3168     75.1585 307.9348413  +6.6437741     2505.529      4222.42     4697.734     82.73741     165.0816     329.9991      1.810     4.57     974.0326     58.17928      315.787        24     1.551     0.986  79.11   0
       585    738.5502     73.2955 307.6406317  +6.6683335     525.2248     727.1528     602.5391     82.60639      165.016     330.2288      1.661     4.87     942.3222     58.17928     83.39111         5     1.049     0.640 -26.37   0
       586    789.1059     70.4589 307.6197198  +6.6711961     1843.918      2844.65     3443.214     82.60639     165.0816      330.196      1.724     5.33     941.1105     58.17928     235.3889        17     1.414     0.851 -87.87   0
       587    429.4681     71.4819 307.7691211  +6.6587211     775.1422     1336.018     1301.409     82.86822     165.3438     330.0976      1.839     4.13     948.6364     58.17928     108.1034         7     1.000     0.488 -84.07   2
       588    430.3309     68.6800 307.7688571  +6.6599068      536.292     868.1503     916.8276     82.99883     165.3438      330.032      1.379     3.61     948.5887     58.17928     99.26526         5     0.795     0.567  40.91   3
       589    126.6821     69.6427 307.8949898  +6.6492983     867.7715     1472.367      1333.93     82.73741     165.0816      330.032      1.811     6.35      968.278     58.17928      103.165        12     1.182     0.958  78.44   0
       590    102.7610     71.4000 307.9048693  +6.6477671     727.5922     865.3656     817.2651     81.68339     164.8189     329.7693      1.165     3.37     969.1129     58.17928     142.1355         5     0.819     0.401 -23.24   0
       591    115.6672     63.9258 307.8997595  +6.6512872     8686.562      14424.9     14599.99     82.86822     165.2128      330.032      1.791     4.04     968.5143     58.17928     1016.696        39     1.609     1.141 -84.81   0
       592    444.8098     63.6243 307.7630113  +6.6624800     2444.581     4112.446      4529.65     82.34373     164.8846     329.9335      1.795     4.10     947.8737     58.17928     267.5642        23     1.359     1.036  83.37   0
       593    658.3966     55.9934 307.6745189  +6.6727926     16915.89     27662.88     29332.53     82.08023     164.7532     329.9335      1.771     3.86     943.9898     58.17928     1941.214        51     1.583     1.201 -85.02   0
       594    282.8289     58.1406 307.8305002  +6.6593014     1333.454     2059.283     2769.433     82.34373     165.1472     329.9991      1.608     4.33     965.7344     58.17928      173.707        15     1.210     0.926 -81.26   0
       595    558.1403     52.0334 307.7163109  +6.6710673     4795.456     7925.206     8434.746     82.60639     165.1472     329.9991      1.759     4.07     945.3657     58.17928     565.8033        32     1.514     1.079 -86.85   0
       596    276.5921     51.9987 307.8332988  +6.6616271     1602.233     2850.457     4302.007     82.08023     164.7532     329.8678      2.517     5.73     965.7837     58.17928     195.2629        20     1.377     1.279  80.45   3
       597    284.3432     47.9857 307.8302136  +6.6635444         8153     14191.96     15559.69     82.08023     164.9503     329.7365      1.845     4.00     965.6718     58.17928     894.9556        44     1.615     1.251 -84.11   2
       598    644.8294     46.3091 307.6804820  +6.6763360     3083.787     5680.913      6519.19     82.86822     164.8189     329.9991      2.139     5.17     944.0662     58.17928       359.88        37     1.972     1.117  82.74   0
       599    463.7527     47.6649 307.7556778  +6.6697042     20381.42     34474.26     36268.05     82.60639      165.016     330.1304      1.816     4.04     946.9681     58.17928     2212.615        52     1.630     1.248 -84.90   0
       600     25.5960     50.3757 307.9376410  +6.6538454     1094.749     1729.571     1612.083     82.34373     164.8189     329.9007      1.712     4.34     971.9142     58.17928     153.0756        15     1.100     1.011  31.07   0
       601     49.7371     47.6619 307.9277025  +6.6557795     2157.425      3378.05     3392.971     82.73741     165.0816     330.0976      1.708     4.71     970.7429     58.17928     237.6625        22     1.478     0.952 -75.74   0
       602    941.6089     47.7680 307.5571107  +6.6856609     1987.113     2983.379      3565.14     82.21209     164.8846     329.9007      1.696     3.88     935.4092     58.17928     260.4563        18     1.301     0.861 -81.74   0
       603    344.4471     48.1284 307.8052352  +6.6655060     954.1943     1511.979     1742.531     82.73741     165.1472     330.0648      1.977     4.82     959.9731     58.17928     132.8055        10     1.065     0.706  54.03   0
       604    272.3420     44.5250 307.8353169  +6.6645694     2950.415      5063.94     6470.008     82.86822     165.0816      330.032      1.998     4.41     965.8002     58.17928     325.7496        29     1.480     1.175  88.22   0
       605    325.3987     42.7696 307.8133307  +6.6670780     896.3655     1371.154     1277.884     82.08023     164.8846     329.8678      1.778     5.23     961.9617     58.17928     107.2372        12     1.165     0.801  80.09   0
       606    962.4013     38.0729 307.5487955  +6.6903577     928.1486     1398.072     1510.547     82.08023     164.5559     329.9335      1.624     4.26     933.5432     58.17928     129.2437        12     1.085     0.855  64.83   0
       607    713.6477     37.4569 307.6521834  +6.6822951     1765.296     2798.015     2850.604     82.73741     165.0816      330.196      1.704     4.21     942.1829     58.17928     223.9937        19     1.388     0.881 -88.56   0
       608    118.4857     37.6041 307.8994780  +6.6622480      673.303     1006.419     762.3087     82.21209     164.6875     329.7693      1.637     4.21     967.8512     58.17928     90.39917         6     1.064     0.475 -80.62   0
       609    201.8127     30.0343 307.8651114  +6.6681785     9917.166     16856.37     17705.14     82.21208     164.8846     329.9335      1.797     4.08     966.1091     58.17928     1155.059        44     1.641     1.182 -84.18   0
       610    279.2703     32.4161 307.8328468  +6.6698012     766.1044     1081.189     1344.498     82.21209      165.016     329.9663      1.744     5.97     965.6418     58.17928     107.8312         8     1.329     0.754 -78.53   0
       611    224.9870     32.9728 307.8553831  +6.6677453     652.4437     1028.244     307.5978     82.47517     164.8846     329.9991      1.648     2.53     966.1677     58.17928     119.7532         5     0.606     0.600  -2.69   0
       612     15.0369     30.3306 307.9427062  +6.6617641     981.6213     1516.989     1360.866     82.60639     165.1472     330.1632      1.719     4.40       970.24     58.17928     124.5138        13     1.167     0.829  47.93   0
       613    546.1259     28.2468 307.7221037  +6.6804841     2668.277     4286.355     4353.096     82.60639     165.1472     330.0648      1.776     4.13     945.1984     58.17928     335.1685        21     1.374     0.946 -79.30   0
       614    947.3867     27.7049 307.5553823  +6.6941366      4023.18     5854.286     5790.362     82.47517     164.8189     329.9007      1.639     3.98     933.9045     58.17928     509.8076        23     1.424     0.891 -85.64   0
       615    748.2758     26.3998 307.6381656  +6.6880189     2034.696     3073.668     2888.688     81.94817     164.4242      329.835      1.642     4.03     941.1457     58.17928     246.4525        19     1.254     0.977 -69.69   0
       616    484.3070     26.7005 307.7478432  +6.6790486     1636.793     2435.973      2011.38     82.73741     165.6057     329.9991      1.669     5.05     946.1125     58.17928     170.7093        18     1.298     0.975  80.63   0
       617   1012.2411     23.8498 307.5285612  +6.6978933     2028.443     3223.139     3241.472     82.86822     165.0816     329.9991      1.707     4.68      928.903     58.17928     256.7676        23     1.640     0.918 -74.93   0
       618    234.5494   1020.8193 307.8180879  +6.2602616     594.4941     457.1996     327.3373     82.21209     164.0284     291.7051      1.368     5.05     991.0662     58.17928     79.30902         7     1.188     0.608 -53.27  16
       619    996.4910   1019.4159 307.5017758  +6.2863552     616.0458     772.1278     837.1298     82.47517     164.8846     308.5938      1.575     5.18     972.3085     58.17928     102.9247         8     1.253     0.736  66.47  16
       620    354.2548     19.5668 307.8021231  +6.6776263     843.3427     1211.179     1566.437     82.60639     165.0816      330.032      1.660     5.27     959.3871     58.17928     117.1115         8     1.062     0.738  43.50   0
       621    773.0015   1011.5206 307.5948367  +6.2821507     8371.696      12427.6     13101.06     81.94816       164.49      329.835      1.607     3.68     979.5134     58.17928     1087.389        35     1.479     1.051 -81.53   0
       622    538.7367   1013.5318 307.6920376  +6.2734789     1276.658     1949.279     1893.223     82.73741     165.0816     330.1304      1.682     4.75     986.4407     58.17928     154.6754        14     1.176     0.860 -69.11   0
       623    568.3953   1012.0294 307.6797738  +6.2750929     4495.924     6826.394     6850.122     82.21208     164.8846     329.8678      1.630     3.88     986.2151     58.17928     540.8531        26     1.416     0.963 -84.04   0
       624    406.8224     16.6090 307.7803798  +6.6806133      481.433     818.1953     817.4629     82.34373     164.8189     329.9007      1.479     4.39     950.8323     58.17928     78.46606         5     1.140     0.482  -4.13   0
       625    318.7737   1010.7615 307.7834582  +6.2672434     14950.64     23287.78     25358.23     82.34373     164.8846     329.9007      1.706     4.07     989.1703     58.17928     1941.286        57     1.769     1.267 -55.92   0
       626    834.1498   1011.1251 307.5694603  +6.2843578     1277.323      1894.51     1936.037      82.7374     165.1472     330.0976      1.619     4.34     978.3932     58.17928     158.2407        14     1.250     0.837  85.10   0
       627    443.0543   1011.1458 307.7318450  +6.2712560      979.514     1223.087     310.9753     82.99883     165.0816     330.0648      1.411     4.53     987.9599     58.17928     136.7677         9     1.112     0.637  78.76   0
       628     15.3876   1012.2034 307.9093686  +6.2564446     716.8338     1028.051     1129.187     82.34373     164.7532     329.9335      1.374     3.47     991.1625     58.17928     130.5673         5     0.733     0.475  78.73   0
       629    290.1573   1008.4172 307.7954184  +6.2672500     1117.198     1759.472     2023.937     82.21208     164.9503      329.835      1.781     4.22     989.1103     58.17928     155.6505        12     1.151     0.736 -71.48   0
       630    934.3068   1004.9643 307.5280795  +6.2902463     9096.117     13879.97     14306.23     82.86822     164.9503     330.1632      1.636     3.63     976.8267     58.17928     1153.778        37     1.484     1.068 -86.77   0
       631    565.6588   1004.2581 307.6811711  +6.2782094     8989.267     13286.25     13695.34     82.73741      165.016     330.0976      1.589     3.79     985.8831     58.17928     1178.241        32     1.420     0.995 -86.61   0
       632    907.9230   1001.1115 307.5391636  +6.2909561     12879.75     19859.45     21004.34     82.73741     165.4093     330.1304      1.632     3.81     976.9158     58.17928     1730.877        50     1.530     1.225 -81.20   0
       633    620.6829   1001.8405 307.6584059  +6.2810505     1435.599     2261.665     1797.752     82.73741     165.1472     329.9991      1.580     5.47     985.0151     58.17928     210.3605        15     1.416     0.817 -81.74   0
       634    552.0212   1000.1401 307.6869718  +6.2794526     4276.749     6519.324     7288.653     82.34373      165.016     329.9663      1.588     4.07     985.7555     58.17928     543.9724        26     1.395     0.952 -81.07   0
       635    662.0593    999.2167 307.6413141  +6.2835189     1450.123     2395.065     2477.092     82.21208     164.9503     329.8021      1.726     5.64     982.4905     58.17928     199.9198        15     1.332     0.839 -72.30   0
       636     87.0325    998.8342 307.8800752  +6.2643759     983.1082     1344.751     1438.415     82.34373     164.8189     329.8021      1.445     4.65     990.5173     58.17928     130.0519        12     1.129     0.907  88.65   0
       637    817.7269    998.0660 307.5767170  +6.2892003     643.5247     970.2957     1055.794     82.86822     165.1472     330.0648      1.538     3.80     978.5074     58.17928     96.92743         5     1.285     0.322  40.81   0
       638    505.2167    996.4711 307.7065286  +6.2793986     2304.396      3356.05     2930.931     82.21209      165.016     329.9663      1.570     3.98     986.8167     58.17928     289.1384        18     1.328     0.837 -85.65   0
       639    939.6539    988.6841 307.5264042  +6.2971460     46035.38      69795.2     73583.12     82.73741     165.0816     330.2288      1.654     3.69     975.4059     58.17928     5914.124        70     1.578     1.201 -85.34   0
       640     12.6165    988.4395 307.9113218  +6.2661614     3176.435     4927.046     4691.796     82.34373     164.9503      329.835      1.692     4.00     990.5302     58.17928     407.6244        26     1.429     0.995 -78.42   0
       641    247.1731    986.9365 307.8139887  +6.2746736     1729.947      2484.24      2552.75     82.34373      165.016     329.9663      1.493     3.78     989.6622     58.17928     265.2601        15     1.269     0.742 -76.88   0
