#   1 NUMBER                 Running object number                                     
#   2 X_IMAGE                Object position along x                                    [pixel]
#   3 Y_IMAGE                Object position along y                                    [pixel]
#   4 ALPHA_J2000            Right ascension of barycenter (J2000)                      [deg]
#   5 DELTA_J2000            Declination of barycenter (J2000)                          [deg]
#   6 FLUX_APER              Flux vector within fixed circular aperture(s)              [count]
#   9 FLUXERR_APER           RMS error vector for aperture flux(es)                     [count]
#  12 FLUX_RADIUS            Fraction-of-light radii                                    [pixel]
#  13 FWHM_IMAGE             FWHM assuming a gaussian core                              [pixel]
#  14 BACKGROUND             Background at centroid position                            [count]
#  15 THRESHOLD              Detection threshold above background                       [count]
#  16 FLUX_MAX               Peak flux above background                                 [count]
#  17 ISOAREA_IMAGE          Isophotal area above Analysis threshold                    [pixel**2]
#  18 A_IMAGE                Profile RMS along major axis                               [pixel]
#  19 B_IMAGE                Profile RMS along minor axis                               [pixel]
#  20 THETA_IMAGE            Position angle (CCW/x)                                     [deg]
#  21 FLAGS                  Extraction flags                                          
         1    180.4204     16.2753 307.8651017  +6.6680825     12414.82     16581.61     16577.29      77.4864     155.1584      310.533      1.377     3.15     833.3819     54.74738      2017.99        30     1.314     0.890 -88.19   0
         2    925.9955     13.4643 307.5553790  +6.6940242     4411.018     6294.504     6303.323     77.11417     155.0347     310.4094      1.461     2.93     818.4919     54.74738     807.4696        27     1.418     0.885  87.31   0
         3    524.7082     14.2474 307.7221077  +6.6803871     3402.899     4429.089     4766.391     77.85686     155.2819     310.7183      1.328     3.42     820.7853     54.74738       574.79        16     1.265     0.653 -87.47   0
         4    727.0011     12.1572 307.6381155  +6.6879686     2218.107     2829.807     2857.971     77.23844     155.0347      310.224      1.312     2.71     819.3799     54.74738     448.6223        15     1.266     0.706 -79.38   0
         5    463.0378     12.6856 307.7477863  +6.6789808     2142.973      2657.55     3128.003     77.85685     155.3437     310.5948      1.291     3.11     822.5801     54.74738     402.5212        17     1.231     0.748 -89.70   0
         6    990.8956      9.5799 307.5285382  +6.6977758     2149.364     3361.668     3442.491     77.73357     155.1584     310.4094      1.604     4.10     814.9638     54.74738     328.9985        18     1.459     0.765 -75.77  16
         7    785.7401      9.0396 307.6138102  +6.6912039     537.8598     764.4449     1003.091     77.85686     155.3437     310.6874      1.391     3.76     818.5772     54.74738     91.64758         5     0.825     0.492 -36.66   0
         8    710.2381      6.4975 307.6452700  +6.6897490      8525.71      11250.9     11601.33     77.85686     155.2202     299.2394      1.381     3.16     819.3137     54.74738     1558.997        28     1.332     0.840 -87.41  16
         9    630.4100      5.7277 307.6784683  +6.6874168     4309.274     5735.355     6141.182     77.36252     154.9728     291.9057      1.338     3.15     819.9225     54.74738     688.8413        23     1.309     0.821 -84.62  16
        10    332.5458      5.8546 307.8022386  +6.6774565     1107.619     1445.408     1530.231     78.10285     155.3437     293.3806      1.333     3.45     833.3716     54.74738      182.229        11     1.211     0.577  84.69  16
        11    386.4548      4.2292 307.7798920  +6.6799230     858.3724     990.4266     734.6193     77.61008      154.663     275.2655      1.368     4.10      830.049     54.74738     166.9411         9     1.187     0.498  89.47  16
        12    430.6334      2.2898 307.7615990  +6.6821943      7426.15      8844.49     9196.404     77.11417      136.829     248.7243      1.263     3.51     825.7038     54.74738     1226.632        21     1.128     0.858  89.30  24
        13     31.5528      2.1999 307.9274303  +6.6689220     9482.588     11855.59     12143.36     75.98652     135.4198     247.0605      1.322     3.21     833.6059     54.74738     1524.439        25     1.114     0.977  87.03  24
        14    677.5872      1.6143 307.6590009  +6.6906814     608.6215     624.0953     630.5404     71.16317     127.3909     238.1656      1.000     2.78     819.3784     54.74738     139.4145         5     0.700     0.471  73.77  24
        15    752.3692    997.4471 307.5947765  +6.2820306     7620.549     12504.22     12974.92      77.4864     155.3437     310.5021      1.792     4.09     849.8728     54.74738     803.8206        38     1.545     1.146  86.35   0
        16    752.2283   1023.4819 307.5939691  +6.2712774     621.0963     925.9748     1140.285     69.93964     125.8761     236.5898      1.600     3.67     850.0953     54.74738     100.4083         5     0.811     0.670 -42.68  24
        17    719.5112   1022.4236 307.6075889  +6.2706296     6870.997     9553.314     9850.271     77.85686     140.0848     252.7408      1.592     3.76     850.2191     54.74738      774.121        27     1.190     1.151  28.86  24
        18    712.0300   1021.7739 307.6107168  +6.2706498     1227.118     1983.358     2565.106     77.36252     147.0984      262.093      1.776     5.12     850.2825     54.74738     150.6846        17     1.326     0.930  72.49  24
        19    586.5327   1023.6771 307.6627611  +6.2656999     10574.22     12726.37     13681.19     67.70992     123.4914     233.4884      0.976     2.23     854.8513     54.74738     3418.988        27     1.393     0.626   3.21  24
        20    575.6789   1021.8047 307.6673300  +6.2661126     4030.483     6243.216     6686.716      77.4864     146.5104     261.5802      1.648     3.68     854.7675     54.74738     502.6585        25     1.287     1.075 -88.80  24
        21    434.3027   1022.6287 307.7260023  +6.2610747     3846.768     4952.194      5594.26      77.4864     137.6676     249.7633      1.459     3.16      854.015     54.74738     467.2024        21     1.110     0.996 -48.16  24
        22    592.1154    999.9372 307.6612339  +6.2756863     555.9529      788.664      354.763     77.97995     155.4054     310.5639      1.426     3.94     854.0186     54.74738     86.95349         5     1.294     0.343  26.40   0
        23    298.0352    996.9191 307.7834388  +6.2671546     15165.84        23260      25713.2     77.73357     155.4054     310.5948      1.678     3.47     852.7773     54.74738     1998.062        58     1.788     1.268 -54.91   0
        24    813.6160    996.5052 307.5693767  +6.2844491     1050.504      1845.58      1477.58     77.61008     155.1584     310.4712      1.892     5.24     849.3724     54.74738     131.1279        14     1.193     1.052  83.33   0
        25    422.4587    997.0560 307.7317733  +6.2712384     1124.397     1545.903     1617.214     77.97995     155.3437     310.6256      1.552     3.55     853.4352     54.74738      154.002        10     0.962     0.758  73.32   0
        26    124.5577    997.5536 307.8554444  +6.2611115     471.7133     421.2578     359.8727     77.85686     155.3437      310.533      1.297     4.16     850.3806     54.74738     83.39032         6     1.312     0.376  45.01   0
        27    269.3612    994.7347 307.7954173  +6.2671015     835.8797     1359.005      1136.33     77.85686     155.2819     310.6874      1.719     5.86     852.4185     54.74738      135.583        10     1.459     0.662  89.15   0
        28    913.7354    990.8671 307.5279917  +6.2900919     7555.793     13568.33      14676.6     77.85686     155.3437     310.6256      1.935     4.48     848.0189     54.74738     791.9525        44     1.610     1.340 -83.99   0
        29    544.9977    990.3805 307.6811163  +6.2780671     8423.904     12830.42     13662.42      77.4864     154.9109     310.3476      1.644     3.79      853.675     54.74738     1106.601        36     1.508     1.063  85.49   0
        30    887.2636    987.0762 307.5391095  +6.2907808     10886.43     19409.41     20941.14     78.10285     155.3437     310.5639      1.943     4.32     848.0735     54.74738     1110.423        56     1.682     1.417 -73.26   0
        31   1009.0909    986.4761 307.4885427  +6.2950591     3825.067     7343.342     7783.226     77.85686     155.5905     310.6256      2.012     4.95     844.5893     54.74738     447.7449        35     1.684     1.257  88.98   0
        32    599.9017    987.6505 307.6584102  +6.2810174     1485.671     2365.301     2448.576     77.85686     155.3437     310.7491      1.735     4.60      853.597     54.74738     213.0039        19     1.413     0.925  82.16   0
        33    531.4280    986.2687 307.6868878  +6.2793139      4213.27     6686.974     7254.975     77.61008     155.2819     310.5021      1.731     3.69     853.5144     54.74738     521.0988        31     1.468     1.213  87.25   0
        34     43.6146    989.8766 307.8893080  +6.2615801     491.1703     736.9612     795.0912      77.4864     155.0965     310.4403      1.585     4.17     849.2401     54.74738     79.23944         5     1.155     0.430 -77.68   0
        35    640.8289    984.9730 307.6415056  +6.2834812     1483.194     2344.895     3076.355     77.36252     155.1584     310.4094      1.896     3.98      852.032     54.74738     200.9658        16     1.285     0.805  86.45   0
        36     65.8913    985.1613 307.8802169  +6.2642703     882.2607     1370.205     1599.923     77.97995     155.2819     310.6256      1.595     4.78     849.2178     54.74738      108.829        10     0.996     0.731 -66.46   0
        37    484.5850    982.6708 307.7064577  +6.2792428     2249.909     3218.863     3220.637     77.36252     155.2819     310.5021      1.521     3.58     853.3475     54.74738     329.2116        21     1.375     0.918 -72.56   0
        38    918.9947    974.5781 307.5263487  +6.2969910     38446.25     68105.18        72798      77.4864     155.0965     310.4094      1.905     4.19     847.4748     54.74738     4038.165        71     1.719     1.356  87.43   0
        39    521.1887    977.5328 307.6914305  +6.2825803     480.6571     634.9876     988.6775     77.36252     155.2202     310.4403      1.469     4.19     853.2596     54.74738     84.95599         5     0.886     0.566  48.37   0
        40    226.3167    973.0816 307.8140132  +6.2746069     1777.781     2870.714     2960.655     77.61008     155.5905     310.6874      1.674     3.96     851.4715     54.74738     215.5915        20     1.353     1.006  83.11   0
        41    765.1804    966.4438 307.5904881  +6.2952551     6346.447     10617.45     11794.82     77.36252     155.2202     310.4403      1.842     4.36     849.4445     54.74738     759.7719        43     1.797     1.185 -87.21   0
        42    624.9848    970.9610 307.6485511  +6.2887403     776.3987     1129.042     492.8057     77.61008     155.1584     310.3476      1.439     4.22     852.3831     54.74738     118.0366        10     1.256     0.775  89.84   0
        43    114.3882    971.8904 307.8605257  +6.2713671     617.8225      939.713     860.9492     77.61008     155.0347     310.4094      1.614     4.58     849.6627     54.74738     113.1281         6     0.871     0.685  56.56   0
        44    817.0512    968.3161 307.5688873  +6.2962009     2249.286     3583.551     4492.317     77.85686     155.2819     310.6874      1.867     4.16     848.7122     54.74738     304.3785        23     1.457     0.972  82.57   0
        45    234.5111    965.5214 307.8108636  +6.2780010     1475.347     2187.748     2183.772     77.61008     155.5905     310.7183      1.631     3.70     851.4689     54.74738     213.8228        17     1.287     0.873  83.03   0
        46    551.5521    965.6288 307.6792198  +6.2885035     835.8682     1142.666     1435.469      77.4864     155.4054     310.5021      1.701     3.90     852.8773     54.74738     145.3435         9     1.098     0.612 -60.06   0
        47    199.3219    965.1144 307.8254880  +6.2769964     794.7943     1267.532     1072.528     77.85686     155.6521     310.7183      1.854     5.12     850.9717     54.74738      104.449        10     1.135     0.654  44.71   0
        48     59.4069    963.6018 307.8836312  +6.2729544     2809.741     4098.711     4085.119     77.23844     155.0347     310.4094      1.610     3.76     848.5449     54.74738     373.0129        21     1.318     0.967 -89.40   0
        49    953.3162    961.2350 307.5125401  +6.3036354     5920.816     10609.62     11458.49     77.85686     155.3437     310.5639      1.905     4.43     846.0537     54.74738     631.3092        37     1.583     1.239  84.25   0
        50    635.3530    955.8538 307.6447490  +6.2953214      818.143     1161.384     1036.988     77.85686     155.3437     310.6256      1.541     4.40     851.6844     54.74738     129.3876        10     1.210     0.585 -80.62   0
        51    210.3642    957.3370 307.8211633  +6.2805753     669.5943     1067.545     922.8942     77.73357     155.3437     310.5639      1.576     5.50     850.9324     54.74738     98.67859         8     1.272     0.671   4.98   0
        52    927.0720    952.7668 307.5237190  +6.3062632     1879.431     3216.853     3715.102     77.73357     155.3437     310.5948      1.925     4.55      846.678     54.74738     226.9224        25     1.555     1.012  89.17   0
        53    647.8074    949.1901 307.6397994  +6.2984858     4716.355       7383.3     7428.159     77.23844     155.1584     310.5021      1.674     3.87     851.2015     54.74738     619.1283        29     1.512     0.991 -83.82   0
        54    786.6310    949.5705 307.5821421  +6.3029322     1177.342     1711.044     1458.323     77.36252     155.0965     310.3476      1.613     4.55     848.9046     54.74738     154.8092        15     1.247     0.886 -85.70   0
        55    260.0431    949.3422 307.8008034  +6.2855311     4566.459     6554.573     6938.866     77.73357     155.2819     310.6256      1.542     3.51     851.5884     54.74738     609.5223        26     1.317     0.986 -85.82   0
        56     28.6025    947.0779 307.8969746  +6.2787477      2126.51      3624.75     3536.245     77.23844      154.849     310.3785      1.797     4.00     847.2875     54.74738     310.1451        26     1.476     1.066 -78.03   0
        57    470.0162    947.3917 307.7136836  +6.2933234     1281.992       1548.9     1614.497      77.4864     155.0965     310.4403      1.323     3.79     852.4945     54.74738     195.8562        11     1.083     0.673 -86.76   0
        58    879.5350    945.2198 307.5437091  +6.3078057     913.6747     1597.982     1417.686      77.4864     155.3437     310.4403      1.845     5.82     846.9974     54.74738     155.7589        14     1.659     0.807  88.82   0
        59    572.5143    941.5859 307.6713170  +6.2991258     1693.684     2704.137     2730.668      77.4864     155.0965     310.5021      1.659     4.71     852.0328     54.74738     242.8837        19     1.579     0.816 -79.23   0
        60    971.3763    942.3351 307.5056681  +6.3120358     560.6459     1049.674     1236.478      77.4864     155.3437     310.5021      2.221     5.03     844.8746     54.74738     95.67261         6     1.117     0.642 -44.33   0
        61    950.8262    942.7844 307.5141865  +6.3111705      719.863     1099.408     830.7731      77.4864     155.2202      310.533      1.417     5.26     845.5778     54.74738     109.1008         8     1.064     0.735  86.76   0
        62    295.9283    942.4792 307.7861327  +6.2895596     992.3136     1396.417     1704.568     78.10284     155.5905     310.5639      1.512     5.48     852.0551     54.74738      121.783        12     1.176     0.770 -64.06   0
        63   1004.0607    940.2679 307.4921645  +6.3139702     809.7358      1467.34     1526.905     77.97995     155.2819     310.5948      1.993     7.27     843.7182     54.74738     110.1339        13     1.696     0.872 -78.72   0
        64     61.4695    938.7560 307.8836070  +6.2832804     710.1067     1257.134     1406.411     77.85686     155.2819     310.6256      1.498     4.98     847.8627     54.74738      116.791         9     1.412     0.497 -87.96   0
        65    611.6330    937.8234 307.6551989  +6.3019780     1272.473     1865.697     2125.645     77.36252     155.1584     310.4094      1.598     3.90     851.7492     54.74738     196.1924        14     1.138     0.937  80.89   0
        66    291.5443    935.6328 307.7881818  +6.2922401     1530.576     2063.362     1977.322     77.73357     155.4054     310.5948      1.499     4.50     851.9617     54.74738     193.9166        14     1.203     0.810 -77.93   0
        67    559.8363    934.0659 307.6768319  +6.3018094     825.5765     1173.522     1689.472     77.73357     155.3437     310.6565      1.579     4.91     851.7939     54.74738     104.6896        11     1.073     0.919  67.94   0
        68    758.7953    931.6254 307.5942974  +6.3094184     910.4358     1511.326      1234.73     77.36252     155.0965     310.4403      1.662     5.66     849.1749     54.74738     135.7731        11     1.219     0.741  83.29   0
        69    896.0323    928.2402 307.5374226  +6.3153619     6485.655     10805.63     11674.24      77.4864     155.1584     310.4403      1.774     3.94     846.3338     54.74738     763.4322        40     1.589     1.181  85.64   0
        70    431.7519    925.4456 307.7303042  +6.3011116     2185.296     3214.391     3307.013     77.85686     155.2202     310.5948      1.613     3.44     851.9927     54.74738     315.7183        20     1.297     0.921 -87.03   0
        71    333.5836    924.0024 307.7711147  +6.2984412     10190.91     15052.42     15751.32      77.4864     154.9728     310.4094      1.552     3.32     851.8322     54.74738     1353.345        37     1.456     1.039 -86.88   0
        72    253.5591    922.9608 307.8043776  +6.2962064     7517.989     10893.48      11482.8     77.61008     155.4054     310.4712      1.536     3.32     850.9958     54.74738     1084.756        28     1.350     0.985 -88.65   0
        73    172.2260    921.2505 307.8382058  +6.2942019      580.798     917.1552      797.051      77.4864     155.4054     310.5021      1.767     5.00     849.6031     54.74738     81.77704         6     1.116     0.634 -78.01   0
        74    581.6534    917.6618 307.6683193  +6.3093064     1265.552     1758.061     1916.287     77.85686     155.2819     310.5639      1.684     6.58     851.4573     54.74738     176.0985        15     1.479     0.820 -69.54   0
        75    766.1831    916.0670 307.5917472  +6.3160867      825.619     1237.038     1363.707     77.36252     155.2819     310.5021      1.678     4.94     848.8657     54.74738     92.88464        10     0.979     0.756  26.61   0
        76    911.9438    912.8840 307.5313253  +6.3222285     999.6706     1831.282     2338.292     77.85686     155.3437     310.6874      2.227     5.87      846.087     54.74738     130.1796        12     1.287     0.754  78.46   0
        77    868.1682    912.1965 307.5495263  +6.3210632     735.1381      1293.19     1574.333     77.11417     155.1584     310.3785      1.952     5.45     846.7001     54.74738     108.8055         9     1.125     0.745 -43.55   0
        78    410.2235    911.3341 307.7397145  +6.3062215     844.9949     1147.083     915.7094      77.4864     155.3437      310.533      1.486     4.77     851.5521     54.74738     112.0453         9     0.998     0.646 -69.44   0
        79    978.6157    908.7517 307.5037765  +6.3261405     665.6667     1227.391     1175.993     77.36252     155.3437     310.3785      1.982     3.50     844.1357     54.74738     104.8635         5     0.761     0.465  76.16   1
        80    747.9291    906.7047 307.5996386  +6.3193469     1720.562     2524.093     3376.495     77.73357     155.4054     310.5639      1.558     4.24     849.1754     54.74738     206.9276        15     1.260     0.778 -89.90   0
        81    571.9745    906.9405 307.6726957  +6.3134113     843.8898     1014.006      614.903      77.4864     155.3437     310.4403      1.347     3.70     851.4201     54.74738     147.4692         9     1.161     0.620  88.39   0
        82    979.3945    902.1061 307.5036737  +6.3289100     1309.179     2305.989     2635.292     77.61008     155.0347     310.3785      2.025     5.89     844.0925     54.74738     190.1756        21     1.517     1.143 -75.75   0
        83    612.0222    902.9227 307.6561999  +6.3163997     774.6637     985.4704     650.8939      77.4864     155.1584     310.5639      1.347     3.88     851.0627     54.74738     123.0699         8     0.909     0.682 -85.25   0
        84    533.1539    902.3968 307.6889671  +6.3139977     1205.612     1622.743     1338.717     77.23844     155.0965     310.2549      1.365     3.54     851.6385     54.74738     209.3539        10     1.023     0.700  85.50   0
        85    624.0502    902.6536 307.6512142  +6.3169101     692.0305     990.6694     709.4678     77.97995     155.2819     310.6256      1.421     4.34     850.8867     54.74738     83.84741         7     0.866     0.619  23.76   0
        86    666.7264    899.9329 307.6335836  +6.3194496     2601.652     4024.908     4298.753     77.97995     155.4671     310.5639      1.673     4.26     850.2112     54.74738     337.0846        24     1.437     1.033  79.17   0
        87    957.1884    897.3787 307.5130519  +6.3301272     603.0785     981.1053     1427.615      77.4864     155.0965     310.4712      1.426     5.51     844.8468     54.74738     84.17316         7     1.421     0.603 -84.14   0
        88     63.1942    896.1960 307.8843164  +6.3009083     3092.609     4554.159      4572.01     77.23844     155.0347     310.4712      1.591     3.53     846.8838     54.74738     385.8671        23     1.278     0.963 -83.25   0
        89    827.6431    895.6161 307.5669057  +6.3265664      942.476     1654.752         1525     77.36252     155.2202     310.3785      1.795     5.58      847.369     54.74738     140.1393        11     1.325     0.673  87.58   0
        90    206.7484    895.1103 307.8247458  +6.3061445     2431.832     3483.425     3595.635     77.85686     155.1584     310.7183      1.530     3.25      849.625     54.74738     396.0182        20     1.332     0.857 -84.78   0
        91     80.7019    895.3406 307.8770756  +6.3018457      2064.67      3021.35     3093.128     77.61008     155.2819     310.7183      1.561     3.65     847.1273     54.74738     322.4894        18     1.253     0.861  80.53   0
        92    944.5715    894.6764 307.5183810  +6.3308254      748.173     1382.947     1548.703     77.73357     155.4054     310.5948      1.808     5.39     845.2708     54.74738     98.61243         9     1.064     0.788  89.48   0
        93    240.6179    891.7498 307.8107946  +6.3086605     852.2427      983.282     754.9338     77.36252     155.4054     310.3476      1.329     4.05     849.9967     54.74738     142.1792         7     0.981     0.479 -84.48   0
        94    661.3502    888.9675 307.6361811  +6.3237983     7311.455     10974.62     11199.42     77.73357     155.3437      310.533      1.615     3.43      850.137     54.74738      995.264        39     1.544     1.138  81.96   0
        95    345.7490    890.8951 307.7671691  +6.3125143     1129.834     1677.106     1918.588     77.73357     155.2819     310.8109      1.507     3.25     850.5444     54.74738     166.2589        10     0.909     0.740  37.52   0
        96    798.4721    889.3401 307.5792278  +6.3281911     744.7509     1147.634     1503.951     77.97995     155.3437     310.6256      1.765     5.40     847.8431     54.74738     108.6365         8     1.064     0.826  72.44   0
        97     21.3696    887.2603 307.9019821  +6.3032010     1322.912     1964.617     2101.248     77.61008     155.3437     310.5639      1.613     3.89     846.2404     54.74738     186.7084        15     1.140     0.934  70.12   0
        98    898.9330    884.9617 307.5376556  +6.3333258     2721.826     4361.722     4673.584     77.73357     155.2819     310.6874      1.674     3.75     846.2296     54.74738     325.0044        24     1.318     1.084 -88.60   0
        99    450.6842    886.9450 307.7237276  +6.3176360     576.0093     729.5852     238.7581     77.85686     155.3437     310.7491      1.259     4.26     851.3245     54.74738     88.69781         6     1.103     0.469  20.79   0
       100     34.2777    885.7325 307.8966736  +6.3042627     1206.666     2007.551     2523.042     77.97995     155.4054     310.5639      2.082     4.38     846.3684     54.74738     164.3957        14     1.254     0.839 -80.41   0
       101    344.2234    882.2732 307.7680906  +6.3160231     17744.74     25443.43     26432.14      77.4864     155.1584      310.533      1.533     3.42     850.1932     54.74738     2590.145        41     1.424     1.035 -85.28   0
       102     78.8599    883.2294 307.8782460  +6.3067842     1499.428     2368.512     2425.589     77.61008     155.3437     310.5639      1.653     3.73     846.7155     54.74738     230.9972        15     1.198     0.883 -67.40   0
       103    215.2477    881.7374 307.8216639  +6.3119486     1375.406     1947.548     1687.781     77.73357     155.2202     310.6565      1.504     4.35     849.4468     54.74738     194.5126        13     1.139     0.825 -82.50   0
       104    421.9902    873.0625 307.7361060  +6.3224131     1159.913      1385.73     662.1241     77.36252     155.1584     310.4094      1.395     4.62     850.5824     54.74738     176.2892        11     1.081     0.692 -84.97   0
       105    107.5002    873.0255 307.8666955  +6.3119524     1844.938     2893.328     2837.021     77.85686     155.0965     310.5021      1.674     3.71     846.8632     54.74738     258.3084        20     1.290     1.006  73.01   0
       106    889.4370    866.7473 307.5422041  +6.3405314     1957.838     2863.235     2328.781     77.73357     155.3437     310.6256      1.588     4.10     846.3256     54.74738     254.9653        18     1.245     0.971  72.89   0
       107    675.8058    868.6515 307.6308547  +6.3326654     968.4258      1326.62     1917.678     77.36252     155.1584     310.2549      1.553     2.90     849.6379     54.74738      177.923         9     0.903     0.643 -76.40   0
       108     90.9205    866.5057 307.8737982  +6.3140908     2685.492     3754.572     4046.116     77.61008     155.5905     310.6565      1.518     3.75      846.198     54.74738     372.6395        20     1.361     0.891 -80.26   0
       109    860.1818    866.3265 307.5543669  +6.3397365     2155.253     3256.019     3736.081     77.36252     155.2819     310.5021      1.637     3.71     846.6825     54.74738     271.7396        20     1.170     1.075  88.24   0
       110    823.4081    865.6484 307.5696605  +6.3387985     3249.557     4774.704     5457.631     77.36252     155.2202     310.2549      1.631     3.53     847.1889     54.74738     397.4048        22     1.290     0.959 -80.93   0
       111    338.8149    864.5853 307.7709273  +6.3231454     730.2225     895.3635     986.9212     77.61008     155.0347      310.533      1.346     4.91     849.5546     54.74738     114.1304         8     1.156     0.590 -72.16   0
       112    559.3125    857.3538 307.6796062  +6.3334627     372137.5     517956.9     538668.7     77.85686     155.2202     310.5948      1.511     3.36     850.9652     54.74738     55894.25       158     1.578     1.195 -86.89   4
       113    453.8713    864.0239 307.7231690  +6.3272049     669.8589     935.5964     1116.804      77.4864     155.2202      310.533      1.362     3.68      850.941     54.74738     133.1351         7     1.010     0.578  88.78   0
       114    403.5464    860.0080 307.7442005  +6.3271892     8404.549     11968.52     11959.96     77.36252     155.1584     310.3167      1.490     3.24      849.952     54.74738     1151.242        31     1.377     0.975 -85.70   0
       115    647.0079    860.3127 307.6430911  +6.3351526     1308.413     1923.131     1509.665      77.4864     155.0347     310.3476      1.525     4.22     849.8947     54.74738     183.4466        12     1.129     0.720 -80.59   0
       116    346.7513    858.4442 307.7678369  +6.3259449     13986.85     19729.03     20328.07     77.85686     155.2819     310.5639      1.506     3.30     849.4011     54.74738     2134.478        37     1.430     0.991 -85.76   0
       117    665.2257    854.6308 307.6357151  +6.3381029     3811.784     5398.838     6111.889     77.36252     155.1584     310.4403      1.481     3.28     849.5694     54.74738     533.8794        25     1.326     0.962 -77.69   0
       118    897.7658    853.4206 307.5391881  +6.3463092     5136.129     8127.695     8585.341     77.36252     155.1584     310.4094      1.703     3.78     845.9597     54.74738     620.1967        30     1.470     1.051 -88.84   0
       119    736.9834    850.5993 307.6060506  +6.3421473     765.0054     1335.653     1211.189      77.4864     154.9109     310.2858      1.727     4.54     848.7123     54.74738     112.7545         8     0.872     0.670  86.18   0
       120    640.0245    848.5982 307.6463812  +6.3397572     3755.543     5523.391     5798.115      77.4864     155.0347     310.3785      1.552     3.69     849.7661     54.74738     535.6694        23     1.335     0.947  86.65   0
       121    828.3179    847.5042 307.5682248  +6.3464521     1834.604     2637.318     2332.996     77.73357     155.6521     310.6874      1.591     3.70     846.9214     54.74738     244.4022        18     1.295     0.859  89.10   0
       122    632.2256    844.3663 307.6497608  +6.3412455     1916.015     4143.419      5443.93     77.23844     155.1584     310.4094      2.369     7.30     849.7482     54.74738     372.2971        31     2.545     0.907 -66.59   0
       123    182.9131    848.2529 307.8362106  +6.3246945      612.872     855.5909     827.8632     77.85686     155.2202     310.7491      1.463     4.69     848.2497     54.74738     105.3145         7     1.191     0.699 -73.71   0
       124    955.1439    846.0638 307.5156046  +6.3512453     797.1061     1200.124     675.3091     77.97995     155.2819     310.5948      1.580     4.91     844.3438     54.74738      127.062        10     1.099     0.860 -73.28   0
       125    916.5012    841.0440 307.5318188  +6.3520391     3166.817     5137.233      5527.88     77.85686     155.2819     310.8109      1.778     3.97     845.3484     54.74738     360.8523        26     1.430     1.027  86.35   0
       126    326.6056    842.1294 307.7767474  +6.3320098     1088.148     1538.237     1258.209     77.36252     154.9728     310.4712      1.461     3.74     849.2948     54.74738     166.6025        11     1.078     0.716 -82.64   0
       127    374.6317    837.3230 307.7569649  +6.3355926     2939.358     4028.653     4065.651     77.73357     155.3437      310.533      1.370     3.29      849.151     54.74738     476.5512        21     1.342     0.775 -77.55   0
       128    510.8067    826.9692 307.7007620  +6.3443954     3327.698     4554.227     4766.161     77.23844     155.1584     310.3785      1.405     3.38      849.808     54.74738     531.3534        21     1.298     0.845  86.26   0
       129    855.4296    826.0322 307.5576796  +6.3562150     1094.418      1492.04      1704.03     77.36252     155.0965     310.3476      1.492     3.71     846.2908     54.74738      164.631        10     1.160     0.593  88.71   0
       130    557.7072    823.1472 307.6814131  +6.3475316     6484.648     9095.435     9641.526     77.73357     155.2819     310.8109      1.481     3.15     849.6232     54.74738      936.344        23     1.321     0.864 -86.94   0
       131    576.2067    824.6179 307.6736818  +6.3475388      882.983     1184.937     1193.779      77.4864     155.0347     310.4403      1.303     3.75     849.6252     54.74738     145.3668         8     0.963     0.594  68.21   0
       132    269.3781    823.7492 307.8011256  +6.3376922     698.7391     895.4053     424.8033     77.36252     155.4054     310.4712      1.347     4.39     848.8409     54.74738     143.1061         7     1.236     0.443  80.19   0
       133    564.6063    822.3921 307.6785733  +6.3480725      1320.67     1801.884     2167.509     77.23844     155.1584     310.4403      1.439     3.62     849.5585     54.74738     200.6279        12     1.137     0.730 -75.52   0
       134    475.4793    822.1197 307.7155941  +6.3452234     1693.891     2277.992     2096.891     78.10284     155.5905     310.7491      1.418     3.56     849.4745     54.74738     265.6211        16     1.273     0.763 -89.40   0
       135    117.0334    821.5265 307.8644613  +6.3335311     1615.926     2057.852     1875.907     77.73357     155.2819     310.5948      1.374     3.55      846.227     54.74738     246.7449        16     1.242     0.801  84.37   0
       136    893.3718    821.0595 307.5420880  +6.3595243     1451.965     2210.919     2075.249      77.4864     155.4054     310.5021      1.570     4.57      845.405     54.74738     188.4144        15     1.235     0.980  81.99   0
       137    693.2720    820.0040 307.6252211  +6.3533291     834.7213     1063.601     1290.429     77.36252     154.9109     310.4403      1.278     4.17     848.6532     54.74738     124.1328         9     1.066     0.585 -86.78   0
       138    528.3768    817.0512 307.6937964  +6.3490739     21686.22     30463.97      31177.7     77.36252     155.3437     310.5021      1.461     3.14     849.3889     54.74738     3337.353        44     1.390     1.023 -87.23   0
       139    942.0227    815.0913 307.5220820  +6.3635985      3609.51     5935.697     6328.422     77.85686     155.1584     310.4403      1.795     3.84     843.9624     54.74738     452.4016        30     1.522     1.053  88.54   0
       140    369.4727    818.0545 307.7597507  +6.3433758     711.7858     1079.789     871.8633     77.73357     155.2202      310.533      1.529     3.75     848.7731     54.74738     107.2649         6     0.810     0.499  87.56   0
       141    174.7537    816.5923 307.8406581  +6.3374933     728.8839     981.1703     319.0649     77.36252     155.2202      310.224      1.411     4.28     846.8817     54.74738      114.937         7     0.867     0.665 -70.19   0
       142     62.2022    813.1241 307.8875111  +6.3351702     605.9538     1133.445     1020.384     77.36252      154.849     310.5021      1.658     3.90     845.9297     54.74738     91.63409         6     0.775     0.561  53.91   0
       143    414.5201    812.0970 307.7412430  +6.3473341     608.0896     794.7915     909.2425     77.61008     155.6521     310.6565      1.377     4.12      848.423     54.74738     133.3215         5     0.738     0.657 -31.72   0
       144     38.6066    807.7772 307.8974882  +6.3365899     1693.833     2526.759     2402.469     77.36252     155.1584     310.4403      1.470     3.52     845.9117     54.74738     238.5812        14     1.150     0.764 -86.87   0
       145    320.9616    805.7184 307.7803077  +6.3468539     3589.587     4997.604     5040.278     77.85686     155.4054      310.533      1.454     3.07     848.7763     54.74738     552.7762        21     1.194     0.898  88.92   0
       146     20.9350    804.2740 307.9049436  +6.3374460      2303.37     3307.487     3222.469     77.97995     155.3437     310.5948      1.518     4.10     845.8928     54.74738     308.3469        19     1.364     0.845 -88.53   0
       147    786.5700    801.4606 307.5870929  +6.3640782     59228.29     84641.35     88008.33     77.61008     155.3437     310.5639      1.576     3.33     846.9318     54.74738     7840.886        65     1.525     1.095 -87.36   0
       148    725.3301    803.3586 307.6124619  +6.3612645     797.3101     1222.849     1428.736     77.73357     155.3437     310.6565      1.740     4.84      847.728     54.74738     124.2502         9     1.067     0.725  67.22   0
       149    243.7752    799.4791 307.8125690  +6.3468589     5869.078     8727.491     10518.52     77.61008     155.2202     310.5948      1.653     3.29     847.7592     54.74738     894.7839        32     1.459     1.023 -85.09   0
       150    429.7658    800.1594 307.7353104  +6.3527696     980.7363     1298.088      1059.87     77.61008     155.3437     310.4094      1.357     3.41     848.1166     54.74738     186.7925        10     1.052     0.676 -64.73   0
       151    911.7876    796.6616 307.5352505  +6.3702067     8406.261     13147.28     14025.56     77.36252     155.1584     310.3167      1.702     3.87     844.3765     54.74738     1085.152        37     1.534     1.105 -85.06   0
       152    714.8105    796.0792 307.6170729  +6.3639210     23253.02     33536.68     36091.19      77.4864     155.0965     310.4712      1.513     3.28     847.7103     54.74738     3452.913        48     1.473     1.053  89.43   3
       153    708.5074    792.5945 307.6198065  +6.3651506     95905.13     135557.3     140863.9      77.4864     155.0347     310.4094      1.523     3.33     847.7125     54.74738     13315.19        83     1.530     1.112 -89.36   3
       154    353.3530    793.6748 307.7672590  +6.3529044     23146.57     32303.31     33607.06     77.73357     155.4054     310.5948      1.475     3.19     848.3095     54.74738     3562.552        46     1.416     1.023 -83.73   0
       155    415.2235    791.4993 307.7416385  +6.3558612     25397.73     34395.13     35473.13     77.97995     155.0965     310.4094      1.466     3.15     847.8005     54.74738     4234.506        45     1.399     1.016 -86.80   0
       156    402.5606    793.8397 307.7468190  +6.3544737     1649.281     2331.811      2000.21     77.61008     155.4054     310.4712      1.461     3.41     847.9581     54.74738     274.5356        14     1.129     0.785  83.31   0
       157    642.2856    792.9456 307.6472959  +6.3628086     1059.904      1318.55     1463.283     77.85686     155.2819     310.7491      1.386     3.85     848.3839     54.74738      178.952        11     1.175     0.786  85.07   0
       158    952.3653    790.1829 307.5186139  +6.3742243      1999.76     3334.042     3083.782      77.4864     155.1584     310.4094      1.773     4.39     843.1429     54.74738     245.5378        24     1.458     1.060 -82.78   0
       159    881.6611    789.4647 307.5480010  +6.3721807     734.3376     908.3812     1083.179     77.85686     155.2819     310.6256      1.420     3.84     845.0431     54.74738     129.1143         7     0.856     0.689 -66.62   0
       160    649.2656    787.1999 307.6445885  +6.3654123     7092.444     10027.66     10290.11     77.11417     154.9728     310.3167      1.474     3.25     848.0804     54.74738     1131.819        28     1.358     0.908 -82.82   0
       161    437.9255    785.1553 307.7324227  +6.3592354     1875.139     2676.234     2727.241     77.73357     155.4054     310.6256      1.436     2.85     847.7843     54.74738     377.0892        14     1.187     0.651  89.88   0
       162    163.2767    784.7533 307.8464895  +6.3502550     915.7997     1174.053     626.3091     77.73357     155.4054     310.5948      1.324     4.30     845.5323     54.74738     133.6365         9     1.102     0.589  82.26   0
       163    737.1522    781.4558 307.6082813  +6.3706992      517.938     677.6141      768.175     77.85686     155.3437     310.6874      1.516     4.82     846.8932     54.74738     73.90027         6     0.979     0.673  76.91   0
       164    877.1653    778.1772 307.5502432  +6.3766920     661.6985     1149.765     1110.705     77.36252     155.0965     310.3785      1.908     4.76     844.8849     54.74738      108.255         8     1.113     0.576  82.37   0
       165    684.3757    777.2947 307.6303375  +6.3706667     2738.419     3869.025     4033.969     77.97995     155.0965     310.4712      1.460     3.32     847.4467     54.74738     430.4006        22     1.343     0.879  89.22   0
       166    602.4619    779.0195 307.6642981  +6.3672360     992.9977     1520.167     2114.715      77.4864     155.3437     310.4712      1.521     3.10     847.6942     54.74738     188.8448         8     0.951     0.590 -46.39   0
       167    153.4201    778.0535 307.8508069  +6.3526922     1069.075     1392.741     1697.745     77.36252     155.3437     310.4094      1.428     3.37     845.2977     54.74738     180.2076         9     1.018     0.606 -78.65   0
       168    128.5687    778.4484 307.8611135  +6.3517002      1240.06     1602.425      1235.62     77.61008     155.3437     310.5021      1.481     3.73     845.2424     54.74738     184.6169        11     1.074     0.706  72.43   0
       169    418.1423    774.1343 307.7410061  +6.3631274     60266.04     82964.38     85569.08     77.97995     155.2819     310.6256      1.453     3.10     847.3869     54.74738      9848.16        64     1.423     1.075 -84.23   0
       170    243.2914    778.2095 307.8134811  +6.3556238     757346.4      1601988      1748988      77.4864     155.0347     310.3476      2.157     8.46     846.9724     54.74738     63487.27       574     2.433     1.969  89.64   4
       171    535.9451    773.0501 307.6921207  +6.3674912     7775.816     10818.96     10926.78     77.85686     155.3437     310.6256      1.469     3.08     847.3747     54.74738     1240.713        28     1.367     0.900 -89.31   0
       172    452.7061    771.7720 307.7267313  +6.3652522     5066.925     7213.381     7908.642     77.97995     155.0965     310.5021      1.483     3.29     847.5085     54.74738     847.6055        24     1.278     0.913 -83.94   0
       173    781.1215    769.6020 307.5904153  +6.3770507     12428.88     17981.67        18555     77.23844      154.849     310.3785      1.541     3.51     846.2278     54.74738     1847.972        37     1.443     0.992 -87.77   0
       174     10.3367    766.2206 307.9106200  +6.3528019     1147.998     1685.606     1352.269      77.4864     155.3437     310.4712      1.385     4.36     844.8031     54.74738     172.0766        10     1.123     0.661  78.84   0
       175    449.3083    765.0900 307.7283653  +6.3678979     2622.691     3427.006     3306.453     77.85686     155.8369     310.6874      1.338     2.95     847.2908     54.74738     428.8215        18     1.210     0.791 -83.88   0
       176    802.8960    763.8400 307.5815640  +6.3801512     1337.431     1716.431     1732.527     77.85686     155.2202     310.7491      1.468     4.00     845.8848     54.74738     179.5677        16     1.238     0.840 -89.51   0
       177    138.8470    761.8751 307.8574001  +6.3588852     12829.08     18127.43     19205.79     77.73357     155.4054     310.5948      1.462     3.14     844.8383     54.74738     2008.677        36     1.410     0.982 -81.91   0
       178    146.9612    762.0167 307.8540258  +6.3590974     3360.367     4622.677     5079.827      77.4864     155.2202     310.3785      1.403     2.88     844.8687     54.74738     597.0468        16     1.141     0.765 -86.22   0
       179    130.9738    759.0640 307.8607637  +6.3597831     3319.247     4977.843     5344.631      77.4864     155.3437      310.533      1.569     3.65     844.7256     54.74738     500.5486        22     1.385     0.896 -89.25   3
       180    131.3126    752.5496 307.8608412  +6.3624838     2054.758     2756.157     3060.078     77.85686     155.2202     310.7183      1.444     3.37      844.561     54.74738     330.6366        15     1.213     0.801  82.36   2
       181    926.6252    758.0244 307.5303718  +6.3866495     6533.063     9934.807     10630.01     77.36252     155.1584     310.5021      1.610     3.48     843.5185     54.74738     822.6593        31     1.469     1.013 -89.51   0
       182    975.8990    757.9868 307.5099092  +6.3882954     1545.145     2441.906     2645.377     77.61008     155.0965     310.3476      1.616     3.97     841.7701     54.74738     183.7582        16     1.215     0.861  87.06   0
       183    681.9315    755.6973 307.6320716  +6.3795022     1864.471     2505.808     2642.312     77.85686     155.4671     310.5948      1.472     3.53      846.535     54.74738      269.027        17     1.257     0.834 -76.55   0
       184    568.9659    755.0106 307.6790089  +6.3760358     2672.802     3656.083     3627.032     77.36252     155.0965     310.4403      1.400     2.91     846.4395     54.74738     464.3339        15     1.162     0.719 -89.56   0
       185    416.8889    754.8438 307.7421707  +6.3710498      1234.98     1852.021      1483.97     77.85686     155.2819     310.6256      1.465     3.63     846.9277     54.74738     226.8133        12     1.238     0.592 -74.27   0
       186    908.7609    788.0516 307.5367935  +6.3736613     6790.282     10619.65     11274.35     77.61008     155.3437     310.5948      1.656     3.54     844.3148     54.74738     874.7498        33     1.481     1.031  89.10   0
       187    700.3453    752.8030 307.6245207  +6.3813080     654.2776     878.5765     1193.161     77.23844     155.1584     310.2549      1.594     4.18     846.3111     54.74738      101.451         6     1.065     0.468  84.89   0
       188    981.2292    749.3430 307.5079825  +6.3920403     1960.411     3016.046     3311.929      77.4864     155.4054     310.5021      1.710     4.34     841.3883     54.74738     256.7842        22     1.561     0.864  88.86   0
       189    950.4049    749.4534 307.5207805  +6.3909750     3036.583     4730.379     4832.001     77.23844     155.0965     310.2858      1.723     3.59      842.583     54.74738     400.0131        27     1.369     1.137  89.83   0
       190    920.8395    749.9709 307.5330422  +6.3897830     3140.754     4869.495     4907.293     77.36252     155.0965     310.4712      1.625     3.50     843.5171     54.74738     445.1508        24     1.385     0.937 -88.99   0
       191    673.2063    749.3908 307.6359052  +6.3818164     1594.584     2093.179     1805.464     77.23844     155.1584     310.4403      1.463     3.34     846.2565     54.74738     219.6025        12     0.936     0.871 -83.74   0
       192    433.4492    750.0628 307.7354530  +6.3735744      431.804     394.1161     273.7233     77.85686     155.2819     310.6565      1.305     3.94     846.8371     54.74738     94.91455         5     0.905     0.492  84.53   0
       193    820.5444    747.4581 307.5747793  +6.3874993     1368.719     1547.484     1749.908     77.97995     155.4054     310.6256      1.337     3.89     845.1185     54.74738     172.1446        13     1.019     0.839  70.96   0
       194    245.5009    744.7033 307.8136841  +6.3695302     2091.669     3256.898     4265.092     77.85686     155.8369     310.4403      1.906     3.78     845.8065     54.74738     300.0635        20     1.296     1.029  88.66   0
       195    895.8586    745.3568 307.5435703  +6.3908611     858.1346     1306.939     1539.109     77.73357     155.2819     310.6874      1.671     5.47     843.7723     54.74738     115.8815        11     1.247     0.677  85.27   0
       196    684.6777    736.7890 307.6315608  +6.3873997     892.9424     1539.961     2390.324      77.4864     154.9728     310.4403      2.508     4.31     845.6874     54.74738     196.7686        11     1.460     0.568 -73.47   2
       197    266.0125    739.8521 307.8053283  +6.3722164     810.6057     1477.083     1612.468     77.23844     155.2819     310.3167      1.761     4.10     845.8539     54.74738     153.9733         8     1.128     0.531 -70.65   0
       198    161.1727    739.8188 307.8488672  +6.3687355       806.02     1028.393      500.451      77.4864     155.1584     310.5021      1.197     4.34     844.3795     54.74738     140.9324         8     1.150     0.508 -60.22   0
       199    938.7062    739.3996 307.5259730  +6.3947387     961.7966     1654.008     1736.498     77.36252     154.9728     310.2549      1.722     3.47     842.8812     54.74738     158.8438         9     1.026     0.665  71.99   0
       200    965.2757    737.2725 307.5150089  +6.3964960     2553.699     3833.575     4069.091     78.10285     155.5905     310.5948      1.644     3.74     841.7829     54.74738     319.2263        23     1.349     0.987  86.09   0
       201    912.2051    737.9669 307.5370269  +6.3944532      1106.88      1685.31     1453.142     77.23844     155.2202     310.3785      1.504     3.64     843.4594     54.74738     181.7753        11     1.186     0.632  73.73   0
       202   1006.8548    730.6160 307.4979613  +6.4006194     1564.144     2686.967     2913.888     77.23844     155.3437     310.3167      1.801     4.72     840.0765     54.74738     193.6099        20     1.541     0.869 -88.03   0
       203    405.4033    731.9802 307.7477039  +6.3801068     692.5953      749.569     419.2795      77.4864     154.9728     310.3785      1.071     3.19     846.0884     54.74738      132.869         6     0.782     0.490 -87.30   0
       204    808.4166    729.2693 307.5804209  +6.3946068     1339.528     1908.775     1870.234     77.36252     155.2202     310.5021      1.494     4.32     844.8585     54.74738      199.951        13     1.316     0.725  82.71   0
       205    633.2772    730.2808 307.6531245  +6.3883809     780.0388     1125.019     1125.662     78.10285     155.5905     310.7491      1.331     3.35     845.2923     54.74738     129.8073         8     1.083     0.589  81.97   0
       206    894.5148    726.7724 307.5447459  +6.3984893     1576.977     2557.708     3502.827     77.97995     155.0965     310.4712      1.837     4.24      843.376     54.74738     242.6594        17     1.319     0.883 -71.14   0
       207    868.9959    721.6624 307.5555142  +6.3997541     959.6982     1292.902     1526.946     77.23844     155.0965     310.3476      1.488     3.70       843.52     54.74738     144.9164        10     1.040     0.612 -68.79   0
       208    851.4207    717.9530 307.5629368  +6.4007035      1563.74      2055.92     1834.335      77.4864     155.3437     310.4403      1.480     4.04     843.7108     54.74738     223.7427        14     1.328     0.710 -89.01   0
       209     50.4544    717.2244 307.8956026  +6.3743689     2652.432     3754.755      3807.01      77.4864     155.4054     310.4094      1.476     3.12     843.5894     54.74738     402.6661        21     1.264     0.917 -82.24   0
       210    114.8311    716.8260 307.8688817  +6.3766820     735.3011     1485.417     1839.641     77.36252     155.0965     310.4403      2.199     3.58     843.5878     54.74738     174.9806         7     1.272     0.358  79.25   2
       211    463.1361    716.1674 307.7242554  +6.3885553     707.6635     914.7284     781.5212     77.61008     155.4054     310.5639      1.371     3.39     845.2617     54.74738     164.0775         6     0.978     0.607  80.72   0
       212    706.1593    708.7503 307.6235727  +6.3996882     525.7553     717.6182     600.1324     77.97995     155.3437      310.533      1.258     3.38     844.5093     54.74738     113.1763         5     1.082     0.309  79.12   0
       213    663.1938    705.5192 307.6415246  +6.3995967     7157.924     9527.394     9979.581      77.4864     154.9109     310.3785      1.413     3.20     844.3419     54.74738     1202.708        25     1.304     0.833 -89.01   0
       214    610.0479    705.1071 307.6636106  +6.3980028     1644.481     2613.237      3206.15     77.73357     155.2202     310.7183      1.692     4.19     844.1867     54.74738     274.5831        18     1.327     1.004  71.42   0
       215    531.2990    704.9446 307.6963214  +6.3954543     790.3741     1116.468     1499.308     77.61008     155.3437     310.8417      1.603     3.02     844.2905     54.74738     130.4468         8     0.816     0.657  44.57   0
       216    520.5928    705.0334 307.7007648  +6.3950618     963.4399     1199.538     1447.131     77.36252     155.2202     310.4094      1.448     5.12     844.3663     54.74738     138.8669        10     1.081     0.686  32.44   0
       217    126.2138    701.5195 307.8646672  +6.3833809     4318.268     5852.868     6119.976      77.4864     155.0965     310.4094      1.422     3.04     843.2086     54.74738     706.7294        22     1.260     0.844 -88.13   0
       218    637.0683    701.1248 307.6525213  +6.4005439     2497.193     3490.202      3889.49     77.97995     155.4671     310.5948      1.483     3.10     844.0748     54.74738      395.739        19     1.255     0.929 -83.68   0
       219   1000.1409    700.5649 307.5017472  +6.4128043     2522.451     3821.978     4066.621     77.73357     155.3437     310.5639      1.614     3.77      840.409     54.74738     322.4783        21     1.256     0.977 -81.98   0
       220    312.7564    701.2454 307.7872065  +6.3897118     961.6785     1297.892     1225.136     77.85686     155.3437      310.533      1.569     3.94     843.7639     54.74738     132.0778        10     1.072     0.631 -73.81   0
       221    248.4586    701.1737 307.8139116  +6.3875996     823.2579     946.2349     1218.538      77.4864     155.3437     310.4094      1.274     3.25     843.5184     54.74738     137.7789         7     0.933     0.473 -78.74   0
       222    780.0895    697.6067 307.5932388  +6.4067402     21860.65     30834.24     32110.23     77.36252     155.0347     310.3785      1.498     3.24     843.9328     54.74738     3572.351        44     1.426     1.012 -88.17   0
       223    910.1205    697.2291 307.5392461  +6.4112031     3885.639     5620.237     5573.623     77.73357     155.3437     310.5639      1.534     3.38     842.4973     54.74738     563.7294        24     1.310     0.950 -88.04   0
       224    507.7237    697.6687 307.7063551  +6.3976747     900.6715     1267.692     1725.574     77.97995     155.4671     310.5948      1.360     4.16     844.1094     54.74738     175.0568         7     1.113     0.443  86.73   0
       225    479.1261    697.8915 307.7182246  +6.3966321     1404.403     1841.231     2099.246     77.85686     155.4671     310.6256      1.302     2.85     844.2617     54.74738     259.4486        13     1.105     0.673 -87.39   0
       226    462.0106    698.9125 307.7252987  +6.3956415      559.689      654.472     414.5211      77.4864     155.0965     310.4403      1.334     4.70     844.2576     54.74738     78.51959         6     0.911     0.689 -45.83   0
       227    325.1124    697.5436 307.7821988  +6.3916515     744.5345     1062.417     841.5163     77.85686     155.2202     310.7183      1.456     3.27     843.5895     54.74738      141.382         7     1.012     0.525  79.73   0
       228    281.1565    697.8126 307.8004447  +6.3900766     663.3414     924.8488     455.3799     77.36252     155.2202     310.3476      1.406     3.61     843.5161     54.74738     103.7133         6     0.768     0.552 -52.24   0
       229    551.1041    695.9983 307.6883944  +6.3998058     502.9951     792.4247     891.3749     77.36252     155.0965      310.224      1.507     3.64     843.8065     54.74738     92.64349         5     0.656     0.583   0.11   0
       230    642.9476    691.7204 307.6503928  +6.4046217     938.9266     1700.971     2398.498     77.85686     155.3437     310.5948      2.323     6.45     843.7058     54.74738     141.0187        12     1.441     0.811  88.11   0
       231    253.5350    691.4254 307.8121294  +6.3917932     7166.174     9392.579     9611.183      77.4864     155.3437     310.5021      1.372     3.24     842.9823     54.74738     1069.678        23     1.271     0.833 -85.52   0
       232    660.6241    690.4266 307.6430945  +6.4057425     7961.268     10736.33     11195.95     77.36252     155.1584     310.4712      1.424     3.25     843.6562     54.74738     1202.834        27     1.259     0.935 -89.61   0
       233    355.7204    689.9453 307.7697412  +6.3958074      868.978     936.7014     1272.418     77.97995     155.3437     310.6256      1.167     2.40      843.147     54.74738     144.9435         7     0.715     0.628 -73.51   0
       234    920.4731    682.7329 307.5354280  +6.4175307     1442.015     1808.057     1797.183     77.97995     155.4671     310.5639      1.373     2.98     842.0591     54.74738      214.476        14     1.034     0.826  85.73   0
       235     20.4143    682.8202 307.9092307  +6.3875690     495.2382     853.9658     1072.208     77.61008     155.0965     310.5021      1.730     3.43     843.0372     54.74738     86.06879         5     0.749     0.454 -71.29   0
       236    732.3322    678.8799 307.6136969  +6.4128884     4054.831     5844.069      6058.28     77.97995     155.5905     310.5948      1.505     3.19     843.2764     54.74738     592.5894        22     1.342     0.824  86.00   0
       237    687.4125    679.2484 307.6323409  +6.4112463     1150.816     1649.508     1260.959     77.23844     155.2819     310.2858      1.499     3.54     843.2256     54.74738     173.6576        11     1.059     0.746 -82.87   0
       238    998.6646    675.2950 307.5031992  +6.4231884     9060.672     13758.21      14408.8     77.73357     155.4671     310.6256      1.660     3.51     840.4787     54.74738     1138.222        36     1.487     1.063  86.47   0
       239    937.0563    675.7883 307.5287710  +6.4209466     2572.446     3808.199     3641.704     77.23844     155.2819     310.2858      1.521     3.93     841.6496     54.74738     350.5358        22     1.409     0.906  81.21   0
       240    739.6161    676.6588 307.6107455  +6.4140469     483.6109     590.0584     1304.064     77.36252     155.2819     310.3476      1.616     3.90     843.1945     54.74738     76.75928         5     1.005     0.435  76.07   0
       241     17.8470    675.5903 307.9105392  +6.3904680     2087.928     2891.741     3293.927     77.36252     155.2819     310.2549      1.494     3.05     842.9235     54.74738     353.3747        17     1.175     0.830 -82.09   0
       242    434.3534    674.0049 307.7376164  +6.4050048     610.9397     877.9401     1011.842     77.23844     155.1584     310.2858      1.543     5.19     842.6165     54.74738     100.8287         7     1.224     0.621 -76.03   0
       243    551.2040    673.4427 307.6891050  +6.4091212     563.0362     822.0865     1238.375     77.23844     155.0347     310.3167      1.579     3.73     842.8405     54.74738     84.45306         5     1.020     0.391 -84.13   0
       244    537.1762    671.2200 307.6950052  +6.4095728     2251.543     2994.568     3333.021     77.61008     155.1584      310.533      1.409     3.14      842.804     54.74738     404.8275        18     1.249     0.814 -77.02   0
       245     75.8973    670.6064 307.8865986  +6.3944638     28594.63     40408.34     42124.13     77.61008     154.9728     310.3785      1.484     3.18     842.8326     54.74738     4756.676        50     1.410     1.064 -87.99   0
       246    409.7716    670.8699 307.7479303  +6.4054814      364.297     591.2773     587.3794     77.61008     155.3437      310.533      1.680     3.83     842.3711     54.74738     72.87305         5     1.462     0.288  77.71   0
       247    274.8322    671.1033 307.8039642  +6.4008927     482.4468     726.6642     274.9983     77.97995     155.2202     310.6874      1.298     4.07     841.9067     54.74738     94.61731         5     1.365     0.346  83.87   0
       248    506.0923    668.6947 307.7079992  +6.4095823     1460.488      2038.08     2327.938     77.85686     155.8369     310.5948      1.409     5.23     842.7572     54.74738     239.5809        14     1.364     0.709  78.94   0
       249    927.0887    667.5920 307.5331832  +6.4240007     1010.906     1557.404     1406.749     77.36252     155.0347     310.3476      1.496     5.77     841.6205     54.74738     142.1801        11     1.406     0.666 -81.22   0
       250    546.2454    665.2419 307.6914379  +6.4123422     1156.408     1583.195     1953.917     77.73357     155.3437     310.4403      1.325     3.60     842.6998     54.74738     197.0502        11     1.097     0.712 -75.65   0
       251    721.9006    662.4922 307.6185749  +6.4193081     3840.789     5328.547     5363.639     77.85686     155.8369     310.5639      1.451     3.23     842.8765     54.74738     687.2605        21     1.339     0.826  84.98   0
       252    744.0442    660.7198 307.6094369  +6.4207742     4597.835     6313.742     6645.402     77.85686     155.3437     310.5639      1.439     2.96     842.8876     54.74738     816.2152        23     1.271     0.873  87.62   0
       253    575.4048    658.8000 307.6795420  +6.4159703     3542.628     4730.413     4905.354     77.23844     154.9109     310.3476      1.388     3.45     842.5942     54.74738     557.0511        20     1.229     0.815 -84.91   0
       254    411.7065    659.4158 307.7475092  +6.4102745     1577.743     2016.722     1933.031     77.61008     155.1584     310.4403      1.250     3.38     842.1434     54.74738     289.4821        12     1.117     0.652 -81.42   0
       255    236.0480    658.3756 307.8204973  +6.4048548     1912.051     2650.742     2723.622      77.4864     155.3437     310.5021      1.483     3.01     841.3862     54.74738     355.4979        14     1.128     0.789 -77.80   0
       256   1016.9198    656.7377 307.4962330  +6.4314537      5122.19     7724.916     8080.406     77.97995     155.4054     309.4501      1.609     3.59     839.6469     54.74738       645.48        28     1.393     1.009 -88.31  16
       257    982.2981    655.6696 307.5106484  +6.4307497     8124.296     12081.05     12356.19     77.73357     155.4671     310.5948      1.600     3.54      840.279     54.74738     1088.073        33     1.438     1.036  82.93   0
       258    319.4814    657.6964 307.7858692  +6.4079147     1709.114     2165.376     1870.154     77.73357     155.6521     310.6565      1.307     3.25     841.4689     54.74738     284.3717        14     1.164     0.744 -86.13   0
       259    536.2246    656.4205 307.6958940  +6.4156511     659.2296     954.9418     1384.583      77.4864     155.1584      310.533      1.342     3.56     842.5288     54.74738     116.4525         5     0.926     0.401 -82.12   0
       260    702.3290    654.4338 307.6269719  +6.4219860     1162.194     1436.846     1801.395     77.73357     155.3437     310.6565      1.345     4.72     842.6985     54.74738     194.8483        10     1.192     0.570 -88.76   0
       261     93.4743    652.7259 307.8798979  +6.4024322     924.6336     1001.127      1394.71     78.10285     155.5905     310.6874      1.272     4.56     842.3458     54.74738     151.9745         9     1.235     0.478 -82.79   0
       262    427.4861    650.2656 307.7412611  +6.4145771     3297.069     4544.183      4922.51     77.85686     155.5288     310.6565      1.398     3.19     842.0729     54.74738       523.85        21     1.228     0.819 -80.92   0
       263    140.6601    649.4678 307.8604106  +6.4053518     27700.53     37661.35     38875.88     77.97995     155.2819     310.5948      1.444     3.10     841.8323     54.74738     4316.386        45     1.388     1.014 -86.08   0
       264    809.0170    649.7983 307.5828146  +6.4274369     1473.726     2002.916      2127.48      77.4864     154.9109     310.3476      1.373     3.69     842.4661     54.74738     247.4612        11     1.070     0.664 -89.57   0
       265    360.2507    644.0909 307.7693916  +6.4148890      926.922     1372.808      1911.13     77.85686     155.1584       310.78      1.936     4.45     841.0665     54.74738     163.8011        10     1.073     0.763  66.15   0
       266    977.2154    638.5530 307.5133278  +6.4376483     7030.481      11082.1     12196.75     77.36252     155.1584     310.3476      1.733     3.54     839.8741     54.74738     904.9266        41     1.625     1.162  58.14   0
       267     21.6144    638.4481 307.9102198  +6.4059274      1349.47      1735.16     1605.234     77.23844     155.2819     310.3167      1.435     4.11      842.735     54.74738      199.199        11     1.116     0.687 -80.43   0
       268    570.6824    634.0839 307.6823274  +6.4260176     55078.52     73847.08     76392.09     77.61008     155.5905     310.6565      1.379     3.06     842.1547     54.74738     8749.364        55     1.380     0.986 -87.55   0
       269    529.7404    634.3295 307.6993238  +6.4245560     950.4013     1151.596     1213.574     77.97995     155.3437     310.6565      1.384     4.54     842.1062     54.74738     141.8057        11     1.165     0.755 -82.09   0
       270    213.8408    635.9612 307.8304701  +6.4133683     738.7647     1008.574     1144.362     77.61008     155.4054     310.4712      1.334     3.04     840.7264     54.74738     139.4128         6     0.740     0.561 -55.92   0
       271    935.5506    634.6782 307.5307620  +6.4378694     742.5152      1098.28     1441.698     77.85686     155.4054     310.5639      1.636     3.90     840.5939     54.74738     127.0975         7     0.954     0.530 -35.19   0
       272    795.4942    633.3212 307.5889793  +6.4337914     695.4466     916.4882     717.8888     77.61008     155.5288     310.6256      1.317     2.99      842.228     54.74738     114.5403         5     0.719     0.470 -71.68   0
       273    178.1945    630.8805 307.8454445  +6.4142773     3086.358     4352.536     4732.687      77.4864     154.9109     310.3785      1.454     3.27     841.1375     54.74738     524.8226        21     1.288     0.842  84.53   0
       274    501.0540    630.8705 307.7113536  +6.4250306     730.4108      764.348     815.5426     77.73357     155.2819      310.533      1.124     3.89     841.9488     54.74738     132.9788         6     0.771     0.564 -62.53   0
       275     70.8239    625.0471 307.8902320  +6.4131030     1549.462     2171.274     2429.292      77.4864     155.3437     310.4712      1.477     3.14     841.9391     54.74738     263.8126        16     1.189     0.830  88.98   0
       276    467.9247    617.9074 307.7255459  +6.4292810        72509     97095.16     100449.9     77.73357     155.4671     310.5948      1.375     2.89     841.5527     54.74738     12984.18        66     1.426     1.005 -86.37   0
       277     11.4102    619.7550 307.9150843  +6.4133037     1890.489     2539.876     2734.927     77.36252     155.2202     310.3167      1.401     3.36     842.8476     54.74738     275.2495        18     1.208     0.851 -88.26   0
       278    653.8069    614.8672 307.6484429  +6.4367112     1114.381     1718.343     1517.893     77.36252     155.0965     310.4094      1.499     3.55      841.828     54.74738     173.6835        13     1.135     0.813 -78.57   0
       279    142.3802    613.0027 307.8609172  +6.4204633      1828.04     2309.413     2108.429      77.4864     154.9109     310.3476      1.371     3.29     841.1732     54.74738     312.8559        14     1.227     0.701  85.97   0
       280    937.5754    610.0430 307.5307393  +6.4481073     634.5823     899.7052     759.1257      77.4864     155.2819     310.4403      1.651     4.35     839.8851     54.74738     109.7696         8     1.180     0.456 -79.94   0
       281    613.8749    609.6802 307.6652013  +6.4375271      961.504      1444.17     979.1649     78.10285     155.5905     310.6565      1.499     5.04     841.7327     54.74738     159.1965        12     1.356     0.664  85.87   0
       282    421.4179    610.3884 307.7451129  +6.4308384     912.5053     1176.581     793.5897      77.4864     155.0347     310.5021      1.257     4.63     841.2986     54.74738     145.6097         9     1.192     0.559  76.76   0
       283    495.7005    608.6346 307.7143190  +6.4340327      615.888     921.2198     1146.195     77.85686     155.2202     310.7491      1.973     4.74     841.4552     54.74738     111.8034         7     1.151     0.830  83.04   0
       284     14.3282    609.0795 307.9142304  +6.4178084     810.9918      969.708     1183.958     78.10285     155.5905     310.5639      1.318     3.59     842.7812     54.74738     151.7141         7     1.085     0.456 -83.52   0
       285    313.2599    607.3120 307.7901372  +6.4285084     2484.419     3478.486     3646.524     77.73357     155.4671     310.6874      1.461     3.60     839.5627     54.74738      376.999        18     1.354     0.726 -84.66   0
       286     20.5566    607.6593 307.9116912  +6.4186028      488.851     805.9303     1222.728     77.73357     155.3437     310.6874      1.401     3.38     842.6345     54.74738     88.19238         5     1.087     0.304 -67.90   0
       287    465.5108    605.8502 307.7269510  +6.4341785     949.0149     1274.175     1492.037     77.85686     155.1584     310.7183      1.440     3.62     841.2406     54.74738     162.3687         8     1.062     0.482 -81.90   0
       288    739.9841    601.2864 307.6131014  +6.4451770     6073.319     8062.812     7981.426      77.4864     155.0965     310.5021      1.383     2.90     841.9742     54.74738     1045.952        24     1.277     0.831 -87.57   0
       289    793.5655    596.5361 307.5910041  +6.4489144     15706.61     21162.91     21852.42     77.73357     155.4054     310.5948      1.417     3.16     841.3458     54.74738     2362.562        39     1.376     0.954 -88.17   0
       290    535.8066    596.6135 307.6980623  +6.4403286     1481.044     2121.023      2442.53      77.4864     155.1584     310.4712      1.593     3.94      841.177     54.74738      243.848        14     1.307     0.698 -86.70   0
       291   1011.0052    596.8419 307.5006777  +6.4559867     1055.194     1376.482     1277.885     77.23844     155.0347     310.3167      1.372     4.07     837.8813     54.74738     148.8245        10     1.050     0.681  81.72   0
       292    617.4672    594.6005 307.6642118  +6.4438720     3446.533     4312.403     4258.058     77.11417      154.849     310.3476      1.286     3.02     841.1414     54.74738     580.9012        17     1.139     0.741 -88.51   0
       293     38.6427    595.6409 307.9045827  +6.4241684     753.0533     991.5042     797.1202     77.61008     155.3437     310.4712      1.487     4.04     842.1756     54.74738     140.9656         8     1.069     0.626 -80.52   0
       294    934.4659    590.4361 307.5326822  +6.4560993     1211.406     1755.723     2129.929     77.73357     155.3437     310.6565      1.539     2.81      839.233     54.74738     192.6542        10     1.005     0.644  74.60   0
       295    229.8432    588.5840 307.8254091  +6.4334609     1440.961     1924.077     1938.689     77.36252     155.2202     310.3785      1.377     3.43     839.2242     54.74738     260.6951        12     1.142     0.656  79.85   0
       296    193.3919    589.5027 307.8405176  +6.4318664      758.383     1030.853     1255.674     77.61008     154.9728     310.3785      1.553     4.07     839.8814     54.74738     139.5533         7     1.050     0.452  78.76   0
       297    375.7224    588.8264 307.7648121  +6.4382197     1156.346     1663.613      1537.02     77.73357     155.2819     310.5639      1.444     3.83     839.6282     54.74738     190.0372        10     0.967     0.859 -81.59   0
       298    360.4216    587.7311 307.7712037  +6.4381626     377.8094     348.0585     159.5346      77.4864     155.2819     310.5639      0.919     3.47     839.2701     54.74738        114.1         5     0.819     0.425 -68.99   0
       299    869.5972    579.7318 307.5599822  +6.4583711     2926.682     4145.789     4363.502     77.23844     154.9728     310.3785      1.484     3.25     840.0414     54.74738     498.0688        21     1.288     0.891 -83.46   0
       300    828.3793    577.1376 307.5771890  +6.4580768     2696.003     4015.085     4145.639      77.4864     155.3437     310.4712      1.516     3.30     840.3061     54.74738     472.0151        21     1.318     0.882 -85.96   0
       301    164.8397    579.2361 307.8527198  +6.4351527     671.2355     602.2972     1151.301     77.61008     155.2819     310.4403      0.953     2.91     840.1254     54.74738     129.3336         6     0.742     0.562 -48.15   0
       302    799.2814    573.0987 307.5894097  +6.4587802     2680.176      3667.95     4663.533     77.85686     155.7753     310.6874      1.440     3.09     840.4155     54.74738     411.5836        18     1.189     0.806 -83.60   0
       303    256.2692    572.4574 307.8149729  +6.4409994     8985.087     12029.03     12327.81     77.97995     155.2819     310.5639      1.424     3.25     839.0012     54.74738     1566.526        28     1.303     0.889 -87.37   0
       304    741.8033    573.3738 307.6132749  +6.4567611     753.9328     1117.443     1152.798     77.36252     155.0347     310.4403      1.427     2.80     840.7061     54.74738      162.032         5     0.893     0.387  83.44   0
       305    808.8974    568.3820 307.5855724  +6.4610461     179158.6     242006.7     251367.6     77.73357     155.2202     310.3476      1.427     3.02     840.1281     54.74738     31818.88       111     1.511     1.106 -88.64   0
       306    190.4573    567.0342 307.8424885  +6.4410445     65914.87     90727.66     95479.12     77.73357     155.3437     310.5948      1.433     3.03     839.3731     54.74738     10261.05        75     1.457     1.106 -84.57   0
       307    738.3704    569.0276 307.6148454  +6.4584416     762.2214     1002.526     1514.262     77.36252     155.0965     310.3785      1.302     4.45     840.5458     54.74738     131.9044         7     0.921     0.613 -61.46   0
       308    114.4967    563.2775 307.8741632  +6.4400615     7004.349     9668.676     10124.62     77.61008     155.5288     310.6565      1.442     3.09     840.1838     54.74738     1084.032        28     1.333     0.938 -88.36   0
       309    979.7749    559.8886 307.5148768  +6.4702103     1383.483     2114.751     2734.961     77.97995     155.1584     310.4403      1.539     3.09     837.3164     54.74738     238.3921        14     1.098     0.813 -83.65   0
       310    228.9541    558.6843 307.8267787  +6.4457751     824.2538     1239.701     1449.174     77.85685     155.3437     310.6256      1.426     3.87     838.6832     54.74738     149.2475         9     1.207     0.593  89.46   0
       311   1000.4515    558.8193 307.5063237  +6.4713357     781.5389     1046.696      1028.09     77.36252     155.4054     310.4094      1.443     4.09     836.9426     54.74738     117.5169         7     0.985     0.486  82.71   0
       312    845.5128    555.6504 307.5707868  +6.4675156     4940.282     6548.778      6679.35     77.85686     155.2202     310.6874      1.387     3.24     839.1005     54.74738     760.0531        23     1.333     0.814  84.99   0
       313    363.8834    554.0551 307.7708912  +6.4521808     19734.78     26514.79     27139.58     77.85686     155.3437     310.6874      1.385     2.93     838.4914     54.74738     3394.998        40     1.354     0.946  89.42   0
       314    454.2170    554.0013 307.7333726  +6.4552087     873.8019     983.5345     1260.901      77.4864     154.9109     310.3167      1.170     2.80     839.2617     54.74738     178.0846         8     0.878     0.601 -85.07   0
       315    165.7012    553.0165 307.8532398  +6.4460059      2191.41     2802.259     2785.335     77.85686     155.0965     310.4094      1.298     2.69     839.3489     54.74738     364.8831        15     1.146     0.721  83.82   0
       316    240.7637    550.7584 307.8221388  +6.4494409     894.9006     1188.077     1735.484     77.61008     155.3437     310.4712      1.316     3.54     838.5966     54.74738     202.0825         8     1.104     0.559 -87.53   0
       317    799.4290    549.0408 307.5901487  +6.4687175     6509.569     8717.097     9663.253      77.4864     155.1584     310.4403      1.395     3.11     839.5269     54.74738     993.2949        22     1.265     0.805 -89.71   0
       318    530.2899    548.8643 307.7019465  +6.4598585     7536.664     9902.168      10270.6     77.73357     155.5288     310.6256      1.325     2.83     839.2139     54.74738     1383.938        26     1.257     0.831 -89.43   0
       319    103.2380    549.7962 307.8792910  +6.4452513     967.6768     1351.813     1534.719     76.98969     155.0965     310.3476      1.312     3.52     840.0649     54.74738     181.2812        11     1.074     0.752 -79.55   0
       320    171.1760    549.9509 307.8510686  +6.4474541     739.5876     951.3074     1680.802      77.4864     155.4054     310.5021      1.305     2.99     839.1971     54.74738     143.5695         7     0.887     0.583  74.85   0
       321    388.5352    545.6004 307.7609344  +6.4564918     1610.628     2299.666     2648.828     77.11417     154.9728     310.3476      1.350     3.47     838.5227     54.74738     256.7501        10     1.169     0.555  84.19   0
       322    574.9321    541.9477 307.6836343  +6.4641973     2633.102     3837.586      3616.76     77.73357     155.2819      310.533      1.544     4.11     838.9286     54.74738     386.1046        19     1.357     0.875 -57.95   0
       323    177.2014    542.1893 307.8488258  +6.4508594      7647.96     9989.337      10178.8      77.4864     155.0347     310.4094      1.373     2.89     838.8882     54.74738     1347.265        25     1.252     0.885 -84.77   0
       324    816.0986    541.5027 307.5834753  +6.4723820     1643.127      2270.52     2267.567     77.85686     155.7753     310.4403      1.521     3.83      838.988     54.74738     283.2606        15     1.245     0.760  89.48   0
       325     48.8315    540.9478 307.9021844  +6.4470879     5498.887     7688.816      7666.91     77.73357     155.4054      310.533      1.474     3.24     841.4235     54.74738     842.4222        27     1.336     0.910  85.62   0
       326    272.4394    538.6287 307.8093882  +6.4555041     99330.15     134309.9     138963.5      77.4864     155.0965     310.4712      1.418     3.23     838.3687     54.74738     16097.52        76     1.439     1.050 -87.55   0
       327    608.5917    538.0125 307.6697844  +6.4669398     273.8347     413.0843      350.473      77.4864     155.1584      310.533      1.202     4.22     838.7635     54.74738     71.65729         5     1.552     0.327  62.30   0
       328    561.9464    535.8789 307.6892305  +6.4662714      1140.24      1593.55     1804.998     77.97995     155.3437     310.6256      1.320     3.63      838.681     54.74738     248.0328        10     1.096     0.713 -89.57   0
       329    256.3279    533.6972 307.8162450  +6.4570031     1704.838     2349.203     2150.675     77.73357     155.4671     310.5639      1.322     3.00     838.1167     54.74738     334.1687        13     1.118     0.688  82.76   0
       330    972.0154    531.9741 307.5190270  +6.4814783     1652.472     2314.065     2228.848     77.61008     155.2202      310.533      1.439     3.53     836.5021     54.74738     257.1733        14     1.249     0.685 -76.57   0
       331    795.6314    530.7911 307.5923333  +6.4761261     18031.48     24517.43      25520.8     77.36252     155.1584     310.4403      1.402     3.18     838.8098     54.74738     2928.167        36     1.348     0.922  88.98   0
       332    499.2387    529.3556 307.7154949  +6.4668806     45735.09     67377.94     70905.08     77.61008     155.2819     310.5021      1.587     3.12     838.4349     54.74738     6930.947        71     1.497     1.272  85.78   0
       333    649.6488    527.7634 307.6530720  +6.4725342     899.3506     1157.565     716.4529     77.61008     155.2819     310.4712      1.384     4.43     838.5032     54.74738     164.0679        10     1.181     0.617 -87.79   0
       334     47.3019    526.3273 307.9033098  +6.4530727     1377.044     1831.305     1724.315     77.61008     155.4671     310.5948      1.421     3.45     841.2406     54.74738     241.9113        14     1.165     0.804 -86.58   0
       335    721.6299    523.4810 307.6233154  +6.4766905     1489.826     2254.515     2316.475     77.73357     155.2202     310.5948      1.648     5.33      838.493     54.74738     276.1287        16     1.689     0.836  61.78   0
       336    659.2114    524.3189 307.6492147  +6.4742737     3409.781     4530.087     4545.144      77.4864     155.0965     310.4403      1.380     3.26     838.3557     54.74738     609.2924        19     1.314     0.772 -85.17   0
       337    259.3974    525.4966 307.8152444  +6.4604910     510.2595     869.1555     913.2661      77.4864     155.0347     310.2858      1.354     3.95     837.7348     54.74738     100.6036         6     0.913     0.489 -88.27   0
       338    669.2386    524.1522 307.6450552  +6.4746753     1437.514     1870.982     2084.792     77.73357     155.4054     310.4403      1.364     2.76     838.3896     54.74738     295.0193        12     1.094     0.676  85.49   0
       339    396.8870    520.1651 307.7583151  +6.4672706     1995.802     2597.164     2343.356     77.85686     155.2202     310.5948      1.358     3.03      837.598     54.74738     382.7434        15     1.229     0.665  88.18   0
       340     78.3499    521.7095 307.8905690  +6.4560157     831.6653     1368.085     1409.339     77.85686     155.1584       310.78      1.494     3.62     840.2851     54.74738     137.7011         8     0.933     0.615 -75.21   0
       341    328.4449    518.3107 307.7868053  +6.4657578     4445.878     5781.596     5859.029     77.85686     155.2202     310.6565      1.337     3.29     837.2155     54.74738      761.058        23     1.242     0.890 -83.40   0
       342    143.5129    517.0469 307.8636600  +6.4601154     29341.49     39691.62     41035.52     77.85686     155.2202     310.5948      1.412     2.96     838.6278     54.74738     4364.068        43     1.376     0.958 -83.93   0
       343    871.6953    516.7444 307.5612048  +6.4844454     1815.569     2659.548     2719.541     77.73357     155.3437     310.8109      1.422     3.40     837.2962     54.74738     317.0812        16     1.280     0.831 -86.10   0
       344    508.3056    517.5966 307.7121211  +6.4720367     2416.123      3045.32     2864.222     77.61008     155.0347     310.3167      1.261     2.54     837.9963     54.74738     487.0428        16     1.165     0.718 -89.77   0
       345    108.7190    515.2192 307.8781728  +6.4597089     2927.748     4279.366     4433.234      77.4864     155.0347      310.533      1.526     3.36     839.3683     54.74738     436.8485        21     1.288     0.842 -85.92   0
       346    345.3904    513.4570 307.7799290  +6.4683259      1218.77     1822.284     2394.846     77.23844     155.2819     310.3167      1.604     3.64     837.0015     54.74738     245.3337        10     1.101     0.623 -74.90   0
       347    969.1441    511.2182 307.5209091  +6.4899526     5522.502     7937.473     7800.441     77.36252     155.2819     310.3476      1.503     3.34     835.8188     54.74738     841.2191        26     1.331     0.935 -88.24   0
       348    211.5569    525.8401 307.8351036  +6.4587546     2084.902     2970.934     3053.488     77.61008     155.3437     310.4712      1.456     3.23     838.0016     54.74738     306.0603        15     1.165     0.750 -82.59   0
       349    542.1409    503.8866 307.6985243  +6.4788213     1610.409     2207.476     1934.117     77.85686     155.3437     310.7183      1.304     3.13     837.3677     54.74738     336.0247        12     1.085     0.629 -83.46   0
       350      7.7925    501.4524 307.9205537  +6.4620222     28323.04     38831.69     40235.82     77.36252     155.1584     307.8965      1.456     2.95     841.9221     54.74738     4613.883        46     1.379     1.039 -84.39  16
       351    440.5682    498.0317 307.7409105  +6.4778616      48733.7     65326.04     67375.54     77.36252     155.0965     310.3476      1.369     3.06     837.0327     54.74738     7276.055        53     1.384     0.958 -87.00   0
       352    648.5594    497.6536 307.6545278  +6.4849290     13881.79     18417.94     18690.34     77.73357     155.3437     310.6256      1.340     3.23     837.1666     54.74738      2256.28        35     1.319     0.942 -88.06   0
       353    205.6856    495.7425 307.8385496  +6.4709843     21561.64     31105.38        31447     77.85686     155.3437     310.7491      1.518     2.92      837.163     54.74738     3438.966        43     1.412     1.077  79.20   0
       354    982.5756    495.7333 307.5158440  +6.4967900     1125.057     1635.722     1462.571      77.4864     155.2819      310.533      1.488     4.93     835.1403     54.74738     164.4301        11     1.328     0.588 -85.19   0
       355    288.4403    497.6260 307.8041133  +6.4729648     1116.015     1745.645     2471.652      77.4864     155.1584     310.4094      2.058     4.03     836.1801     54.74738     202.5194        11     1.247     0.691  73.13   0
       356    171.3636    496.7980 307.8527702  +6.4694040     1898.542     2514.194     2601.859     76.98969     155.1584     310.4094      1.300     2.66     837.5025     54.74738     349.9119        13     1.078     0.701  82.06   0
       357    911.2822    495.2890 307.5454738  +6.4946142     786.6116     913.3051     585.9505     77.61008     155.5288     310.6565      1.472     5.06     836.0054     54.74738     111.1757         8     1.089     0.666 -65.08   0
       358    822.6047    495.2663 307.5823108  +6.4916866     1060.859     1390.527     1527.578     77.36252     155.0965     310.4094      1.395     3.76      837.131     54.74738     190.2803        10     1.117     0.674  77.50   0
       359    570.3659    494.4196 307.6871159  +6.4836676     3231.114     4087.004     4154.903     77.36252     155.1584     310.4094      1.242     2.99     836.9478     54.74738     569.3571        17     1.177     0.726 -86.14   0
       360    944.2898    491.4251 307.5318910  +6.4973019     5187.588     7144.002      7609.32     77.97995     155.1584     310.4403      1.489     3.07     835.4006     54.74738     855.2807        24     1.374     0.846 -87.50   0
       361    617.3317    489.9375 307.6677565  +6.4870778     7259.197     9738.249     9656.002     77.85686     155.2819     310.6256      1.342     2.96     836.7885     54.74738     1231.375        30     1.287     0.897 -88.77   0
       362    104.9695    490.6848 307.8805522  +6.4697125      1384.17     1767.881     1486.608     77.85685     155.1584     310.4712      1.391     3.29     839.0673     54.74738     214.1099        13     1.138     0.716 -88.90   0
       363    217.0000    489.8938 307.8340458  +6.4737761     583.0872      694.499     339.7106     77.36252     154.9728     310.2549      1.335     3.71     836.8901     54.74738      119.114         5     1.373     0.289  90.00   0
       364    515.6281    489.7052 307.7100102  +6.4837950     583.3038     973.7855     1650.749     77.97995     155.0965     310.5021      1.979     4.15     836.8754     54.74738     79.58551         5     1.032     0.477  85.16   0
       365    966.8914    483.6316 307.5227612  +6.5012674     3691.104       5029.7     4741.743     77.97995     155.1584     310.6256      1.418     3.02     834.9051     54.74738     589.9155        20     1.203     0.864 -89.46   0
       366    529.5638    481.2704 307.7045030  +6.4877405     8735.519     11507.79     12070.59     77.73357     155.3437     310.6565      1.372     3.11     836.4672     54.74738     1377.685        28     1.294     0.864 -87.27   0
       367    405.1465    482.5912 307.7561395  +6.4830577     823.1009      1087.57     1336.103     77.23844     155.2202     310.3167      1.284     4.02     836.2151     54.74738     136.5234         7     0.893     0.552  87.59   0
       368    375.5069    481.4523 307.7684891  +6.4825414     3127.132     4058.198     4510.089     77.73357     155.2819     310.8109      1.316     2.95     835.9731     54.74738     480.9376        20     1.169     0.860  89.51   0
       369    745.3470    480.9939 307.6148781  +6.4950181     662.2216     840.1396      708.666     77.36252     155.0965     310.3167      1.132     3.00     836.7632     54.74738     125.8909         7     0.812     0.611  67.05   0
       370    885.9952    476.9335 307.5565882  +6.5013551     3378.954     4679.553     5434.829     77.36252     155.0965     310.4094      1.428     3.02      835.772     54.74738     571.2155        19     1.230     0.864  85.84   0
       371    538.9755    477.7350 307.7007115  +6.4895128     933.9927     1260.353     996.8301      77.4864     155.3437      310.533      1.264     3.85     836.2764     54.74738     194.8702        11     1.247     0.577 -79.30   0
       372    234.0033    476.5044 307.8274312  +6.4798706     827.2622       971.43     986.3723     77.61008     155.0347     310.2858      1.412     2.65     836.2625     54.74738     169.0481         6     0.898     0.469 -77.55   0
       373    893.4285    471.4843 307.5536815  +6.5038510     2410.065     3415.757     3662.065     77.85686     155.0347     310.4712      1.504     3.57     835.3884     54.74738     399.5101        20     1.384     0.772  87.85   0
       374    112.3243    471.1255 307.8781526  +6.4780327      875.004     1121.627     1212.831     78.10285     155.5905     310.6874      1.313     4.01     838.4286     54.74738     168.3972         7     0.994     0.464 -85.82   0
       375    932.9536    470.2303 307.5373043  +6.5056772     1457.211     1952.442     2266.457     77.36252     155.3437     310.5021      1.396     2.80     834.7475     54.74738     269.7939        11     0.944     0.744 -64.44   0
       376    271.0440    469.4769 307.8122807  +6.4840064     601.9316     643.3102      497.765     77.73357     155.3437     310.6256      1.568     4.13     835.3201     54.74738      104.864         5     1.114     0.438  66.27   0
       377    717.3738    467.4679 307.6269484  +6.4996746     3351.613     4297.121     4372.521      77.4864     155.2202     310.5021      1.360     3.32     836.0505     54.74738     563.4119        19     1.282     0.754 -84.61   0
       378     79.1744    466.6195 307.8920728  +6.4787864     2167.486     2807.717     3293.775      77.4864     155.1584     310.5021      1.417     2.70     839.2594     54.74738     405.2354        15     1.124     0.743  88.70   0
       379    428.4661    465.8116 307.7470134  +6.4907610     1211.648     1686.366     2326.599     77.36252     155.1584     310.4712      1.617     4.23     835.3986     54.74738     181.9512        10     1.162     0.657 -83.65   0
       380    388.2711    465.6725 307.7637144  +6.4894809     4418.438     5835.779     5984.318     78.10285     155.4671     310.5639      1.312     3.21     835.3076     54.74738     771.6204        19     1.276     0.767 -87.37   0
       381    615.9955    462.1656 307.6692373  +6.4984991     11546.67     15007.24     15631.33     77.11417     155.2202     310.3785      1.341     2.78      835.463     54.74738     2211.238        27     1.254     0.845 -89.16   0
       382    778.7667    458.7534 307.6017359  +6.5053082      18042.6      24389.5     25615.14     77.61008     155.3437      310.533      1.372     3.22     835.7825     54.74738     3254.648        34     1.349     0.887 -86.65   0
       383    298.3444    459.1215 307.8012871  +6.4891911     3019.039      3836.99     3794.781     77.97995     155.3437     310.6256      1.317     2.98     834.7893     54.74738     543.9365        19     1.135     0.842 -87.54   0
       384    422.1594    458.3305 307.7498830  +6.4936397     734.8868     1082.507     859.0452     77.73357     155.3437     310.6565      1.369     2.71     834.9011     54.74738     142.2684         5     0.894     0.360 -85.47   0
       385    807.6602    455.6176 307.5898377  +6.5075605     1470.205     2017.175     2480.778      77.4864     155.2819     310.3785      1.452     2.59     835.5845     54.74738     301.0415        12     1.017     0.710  85.88   0
       386    396.6314    455.7160 307.7605743  +6.4938696     697.4742     846.7957     1282.107     77.85686     155.1584     310.4712      1.351     4.42     834.8015     54.74738      112.578         7     1.170     0.475  85.41   0
       387    381.5576    455.6606 307.7668376  +6.4933908     1887.053     2332.414     2383.566     77.85686     155.3437     310.6874      1.214     3.05     834.8301     54.74738     318.6559        12     1.032     0.670  89.09   0
       388    963.8356    453.6364 307.5250269  +6.5135501     2008.383     3015.404     3389.899     77.61008     155.1584     310.3476      1.603     3.51     833.7606     54.74738     336.0184        17     1.210     0.867  84.10   0
       389    782.7675    453.8351 307.6002376  +6.5074714     1627.734     2285.007     3065.973      77.4864     155.0965     310.3476      1.389     3.14     835.5596     54.74738       280.74        10     1.009     0.606 -88.39   0
       390    116.1421    450.8930 307.8772446  +6.4865128      5102.76     6907.592     6911.362     77.73357     155.2819     310.7183      1.381     2.97     837.8441     54.74738      869.528        24     1.223     0.965  73.92   0
       391    370.0616    451.6750 307.7717460  +6.4946536     861.9104     1115.293     1224.424     78.10284     155.3437     310.5948      1.229     2.24     834.6791     54.74738     161.3124         7     0.685     0.657  34.18   0
       392   1017.8279    448.2065 307.5027781  +6.5175778     4109.983     6890.809     7365.238     77.36252     155.2202     304.1984      1.787     3.67     832.7709     54.74738     528.1162        34     1.529     1.179  58.68  16
       393    754.2100    449.4763 307.6122456  +6.5083241     2599.504     3587.413     3370.092      77.4864     154.9109     310.4094      1.382     3.42     835.3367     54.74738     405.1828        15     1.252     0.680 -86.08   0
       394    273.9656    447.7952 307.8117924  +6.4930548     1735.507     2377.084     2806.901     77.11417     155.1584     310.3785      1.323     2.82      834.767     54.74738     310.6759        14     1.114     0.689 -85.65   0
       395    352.1541    445.3549 307.7793957  +6.4966666      3583.11     4788.183     5202.557     77.85686     155.3437     310.5639      1.376     3.05     834.4635     54.74738     689.5662        17     1.220     0.713 -89.42   0
       396    708.0778    442.9830 307.6316254  +6.5094749     1680.035     2087.817     1974.087     77.36252     155.0965     310.4712      1.294     2.74      834.994     54.74738     304.3483        11     0.995     0.659  89.18   0
       397    981.9984    441.8601 307.5178730  +6.5190129     697.9585      991.285     1921.583     77.23844     155.0965     310.3167      1.732     3.20     833.0218     54.74738     137.4514         7     0.881     0.547  48.70   0
       398    411.6049    441.3236 307.7548353  +6.5003097     562.8492     720.0687     777.1116      77.4864      154.849     310.4712      1.374     3.48     833.9309     54.74738     100.3879         5     1.031     0.339  68.78   0
       399    239.8585    441.2986 307.8261772  +6.4946002     1037.277     1278.659     1371.253     77.61008     155.3437     310.7183      1.424     3.81     835.1429     54.74738     189.4213         9     0.982     0.586  80.70   0
       400    549.5118    436.0525 307.6977253  +6.5070715     1013.211     1363.822     1197.428     77.85686     155.2202     310.7183      1.262     3.97     834.1087     54.74738     169.2371         9     1.158     0.488 -84.00   0
       401    450.4507    436.7520 307.7388517  +6.5034894     605.3744     812.9138      240.155     77.85686     155.2202     310.5639      1.323     3.44     833.7397     54.74738     100.0114         5     0.759     0.450 -69.69   0
       402    834.2677    433.0941 307.5795340  +6.5177411     1604.284     2187.204     2172.439     77.73357     155.5288     310.6256      1.345     3.25     834.2473     54.74738     285.2458        15     1.231     0.715 -84.53   0
       403    471.7583    434.0297 307.7300915  +6.5053220     1541.125     1985.189     1805.669      77.4864     155.2202     310.4712      1.240     3.16     833.5966     54.74738     265.0345        11     1.081     0.621  79.08   0
       404    819.8772    432.2094 307.5855415  +6.5176296     2350.648     2980.332     2994.061      77.4864      154.849     310.4094      1.353     2.89     834.3604     54.74738     446.0878        15     1.175     0.707 -77.73   0
       405    717.2368    430.4185 307.6282392  +6.5149660     17288.66     22760.83     23598.92      77.4864     155.1584     310.3785      1.381     2.98     834.4576     54.74738     3194.292        39     1.348     0.927  86.69   0
       406    619.4374    431.9502 307.6688147  +6.5110879     715.9115     764.5846     259.6173     77.61008     155.2202     310.4403      1.282     4.74     833.9919     54.74738     120.5181         8     1.196     0.533  71.07   0
       407    638.3085    426.4419 307.6611592  +6.5139885     3057.811     3932.149     4609.191     77.85686     155.3437     310.6874      1.329     3.39     833.8831     54.74738     530.8649        17     1.273     0.694  88.69   0
       408    632.7399    425.5039 307.6635037  +6.5141909     652.9537     770.7733     1055.416     77.61008     155.3437     310.6874      1.212     2.75     833.8337     54.74738     126.7483         6     0.867     0.439 -89.74   0
       409    711.0352    424.9302 307.6309981  +6.5170261     847.3005     1054.367      1473.32     77.73357     155.2819     310.6874      1.403     4.24      834.235     54.74738     102.8445         9     0.802     0.786  37.38   0
       410    613.4859    423.3195 307.6715748  +6.5144534     6177.598     8318.996     9341.544     77.61008     155.6521     310.7183      1.349     3.23     833.4851     54.74738     1034.585        21     1.283     0.756 -84.70   3
       411    609.6981    420.9872 307.6732260  +6.5152905     16547.16     22108.38     23453.05     77.61008     155.0965     310.3785      1.351     3.04     833.3519     54.74738      2841.15        34     1.346     0.887 -88.93   3
       412    942.4775    420.3088 307.5350067  +6.5266028     4176.338     5795.897     6146.294     77.61008     155.5905     310.6256      1.452     3.32     832.7903     54.74738     630.3394        22     1.359     0.807 -85.38   0
       413    381.5799    416.4371 307.7681390  +6.5095847     34235.69     44732.76     46263.26      77.4864     155.0965     310.3476      1.366     3.16     832.9464     54.74738     5415.625        46     1.357     0.949  89.69   0
       414    898.0078    415.9177 307.5536264  +6.5269436     1592.068     2277.509     2920.406      77.4864     154.9728     310.4712      1.476     3.25       832.97     54.74738     285.4874        14     1.198     0.718  87.45   2
       415    894.1115    411.3267 307.5553976  +6.5287101     740.9094      1273.77      1727.15     77.85686     155.5905     310.6256      1.952     5.89     832.8731     54.74738     119.5365        10     1.420     0.687  62.31   3
       416    127.5677    415.8889 307.8736714  +6.5013451     2747.244     3582.213     3618.559     77.97995     155.1584     310.5948      1.359     2.88      836.896     54.74738     421.6809        16     1.090     0.788 -85.80   0
       417    911.2730    410.5797 307.5482931  +6.5295867     5615.607     7761.061     8290.344      77.4864     155.2819      310.533      1.437     3.07     832.8311     54.74738     952.7135        27     1.298     0.941 -85.06   0
       418    592.9649    412.0666 307.6804746  +6.5184177     633.3013     730.1138     798.2022     77.73357     155.4054     310.6565      1.233     4.43     832.8242     54.74738      101.814         6     1.043     0.536 -80.08   0
       419     60.9716    411.2646 307.9014890  +6.5010310     1745.007      2429.35     2508.497     77.61008     155.3437      310.533      1.459     3.13     838.3413     54.74738     307.0856        15     1.125     0.788 -79.57   0
       420    967.4152    408.5632 307.5250372  +6.5322773     771.8997      791.814     496.9008      77.4864     155.1584     310.3785      1.225     4.01     832.0201     54.74738     122.4105         7     0.994     0.463  79.01   0
       421    239.0902    407.0322 307.8276429  +6.5087211     15826.31     21159.66     21604.88     77.97995     155.1584     310.5948      1.380     2.89     834.3408     54.74738     2754.074        33     1.307     0.919 -83.96   0
       422     74.5154    400.9816 307.8962079  +6.5057284     1044.063     1218.949      1663.15      77.4864     155.0965      310.533      1.264     3.42     837.8315     54.74738     171.7104        10     1.003     0.686  74.30   0
       423    734.2139    400.2512 307.6221912  +6.5279838     819.9779     1113.458     1606.757     77.23844     155.3437     310.3476      1.526     2.55     832.8246     54.74738     177.1357         8     0.892     0.561 -81.81   0
       424   1011.5411    399.3914 307.5070106  +6.5375236     477.1758     791.3176     975.5373     77.23844     155.2819     310.3167      1.578     4.33     830.7934     54.74738     92.77979         6     1.165     0.458  79.48   0
       425    702.0331    399.3886 307.6355885  +6.5272724     771.9357     1065.359     869.0078     77.36252     155.0347     310.4403      1.304     2.32     832.6555     54.74738     181.8903         6     0.869     0.444 -78.84   0
       426    962.4091    398.5845 307.5274483  +6.5362314     1085.878     1594.363     1169.403     77.61008     155.0965     310.4712      1.502     3.29     831.8494     54.74738     172.8525         9     0.986     0.607 -85.90   0
       427    185.0459    396.8780 307.8504324  +6.5111111     1040.021      1482.37     1503.231     77.73357     155.4054     310.5948      1.464     3.92     835.6837     54.74738     171.5826        11     1.097     0.777  62.48   0
       428    139.3870    395.6510 307.8694398  +6.5100944     5916.488     8034.928     8487.895     77.23844     155.2819     310.3476      1.400     3.03     836.7249     54.74738     1009.375        24     1.251     0.876 -86.71   0
       429    352.0056    396.5929 307.7810873  +6.5167927     1446.483     1742.121     962.7583     77.23844     155.1584     310.4403      1.323     3.29     832.4377     54.74738     278.5044        10     0.963     0.663 -82.06   0
       430    244.2024    394.4962 307.8259389  +6.5140669      1559.07     1816.469      1489.46      77.4864     155.0347     310.2858      1.245     2.81     834.0826     54.74738     334.9636        11     1.075     0.698 -82.06   0
       431    436.7492    393.8197 307.7459770  +6.5207581     966.9512     1304.481     1046.069     77.36252     155.4054     310.4094      1.294     3.09     831.3764     54.74738     166.2705         8     0.904     0.587 -79.64   0
       432    161.4142    391.7284 307.8604212  +6.5124488     2878.694     4250.521     4261.692     77.36252     155.2202     310.5021      1.511     3.20     836.4728     54.74738     457.7579        21     1.358     0.833 -87.33   0
       433    825.6131    391.7036 307.5845062  +6.5345427     946.0011     1295.141      1527.38     77.73357     155.0965     310.3785      1.421     3.14     832.7664     54.74738      154.312         9     1.041     0.571  75.61   0
       434    557.0625    390.5716 307.6961058  +6.5260991     1120.448     1681.916     1154.242      77.4864     155.3437     310.5639      1.544     4.14     831.4484     54.74738     200.5289        12     1.263     0.744 -83.26   0
       435    384.8765    386.2408 307.7677786  +6.5221608     2465.906     3287.673     3507.158     77.73357     155.3437     310.6256      1.377     3.09     831.4792     54.74738     414.1697        15     1.169     0.750 -87.80   0
       436    272.8797    386.3841 307.8142977  +6.5183716     872.2903     1189.715     1072.187      77.4864     155.0965     310.4094      1.455     3.17     833.5997     54.74738     177.6274         9     0.923     0.714  49.57   0
       437      3.6345    386.4544 307.9261377  +6.5093581     801.1834      1065.94     837.4824     77.73357     150.8327     267.7768      1.443     3.54     839.3968     54.74738     143.7711         6     0.866     0.481 -89.02  16
       438    973.6888    384.8351 307.5232191  +6.5422812      1054.84     1381.222     1380.755     77.97995     155.2819     310.5948      1.408     4.42     831.1894     54.74738      142.096        10     1.047     0.671  82.35   0
       439    318.7312    384.0164 307.7953301  +6.5208767     681.5354     959.8616     653.3208     77.36252     155.2202     310.5021      1.341     3.63     832.6292     54.74738      132.869         8     1.114     0.620  81.70   0
       440    438.6852    379.8039 307.7456409  +6.5266089     8469.294     11333.45     11775.88     77.36252     154.9728     310.3167      1.351     3.21     830.6723     54.74738     1523.795        30     1.353     0.859 -86.48   0
       441    771.3102    378.3398 307.6075099  +6.5382601     2226.864     2809.354     2961.399     77.73357     155.4671     310.6256      1.304     3.19       831.94     54.74738     362.3712        14     1.157     0.686  83.70   0
       442    779.3414    376.9395 307.6042201  +6.5391045     14449.87     19385.18     19925.67     77.85685     155.2819     310.6256      1.349     3.00     832.0098     54.74738      2392.78        33     1.354     0.858 -88.14   0
       443    538.3531    378.4519 307.7042823  +6.5304810     528.3818     426.8222     15.28527     77.97995     155.2819     310.6256      1.074     4.27     830.5458     54.74738      98.8205         6     1.084     0.479  54.22   0
       444    342.7371    375.4955 307.7856428  +6.5251940     1312.772     1704.205     1842.638     77.73357     155.4671     310.6256      1.323     3.49     831.6474     54.74738     235.7513        10     1.089     0.650  83.25   0
       445   1023.1924    372.0315 307.5030787  +6.5492046      3707.88     4902.801     5229.496     72.89424     130.2942     241.1272      1.353     3.34     829.5122     54.74738     564.3949        19     1.412     0.714 -87.67  24
       446    187.4026    367.9838 307.8504209  +6.5231183     894.8721     1109.416     605.3451      77.4864     154.9728     310.4094      1.365     3.90     835.4389     54.74738     138.0154         8     1.020     0.555 -64.27   0
       447    904.3455    366.7055 307.5526294  +6.5474711     581.3965     933.9183     635.1914     77.73357     155.3437     310.8109      1.374     2.15     831.9203     54.74738     136.0417         5     0.699     0.444 -71.51   0
       448    486.8571    363.3081 307.7261803  +6.5350213     3681.146     4891.292     4831.844     77.73357     155.2819     310.6874      1.364     2.91     829.4981     54.74738     675.2373        19     1.272     0.745 -89.74   0
       449    459.0911    363.9178 307.7376945  +6.5338461     2656.176     3446.114     3380.964     77.61008     155.5905     310.6565      1.328     2.61     829.7181     54.74738     499.5719        15     1.142     0.690 -89.27   0
       450    915.5286    363.0598 307.5481047  +6.5493464      923.715     1098.547     485.5085     77.97995     155.3437     310.6565      1.339     3.97     831.8309     54.74738     152.3786         7     0.964     0.494 -84.90   0
       451    844.6989    359.8652 307.5776365  +6.5483196     36761.62     51551.96     53788.86     77.85686     155.4054     310.5948      1.447     3.16     831.7497     54.74738     5782.133        55     1.533     0.964 -87.05   0
       452     35.0086    380.8696 307.9132927  +6.5127119     3519.391     5262.526     5628.656     77.36252     155.0347     310.4712      1.541     2.96     838.5595     54.74738     594.5334        27     1.395     1.000 -71.56   0
       453    336.9964    355.5816 307.7886933  +6.5332241      924.592     1265.141     1178.322      77.4864     154.9109     310.4094      1.401     4.03     831.0652     54.74738     211.5825         9     1.353     0.521  77.59   0
       454     62.7563    356.3997 307.9025870  +6.5237407     813.5297     956.7095     1288.542     77.11417     155.0347      310.224      1.384     5.46     837.6158     54.74738      155.135        10     1.064     0.791  41.46   0
       455    616.4513    352.3364 307.6727094  +6.5438573     3267.849     4253.294     4442.167     77.85686     155.2819     310.5639      1.331     3.00      829.156     54.74738     517.5405        16     1.145     0.709 -82.75   0
       456     24.5182    353.0331 307.9185838  +6.5238532     1308.276     1735.135     1284.307     77.73357     155.2819     310.5639      1.357     3.94     838.2073     54.74738     195.0792         9     1.037     0.623  88.61   0
       457    147.4978    351.0816 307.8675635  +6.5287649     568.1933     798.3145     821.4164     77.73357     155.7137     310.6874      1.533     4.66     836.5753     54.74738     93.51166         7     0.969     0.653  70.81   0
       458    701.1312    345.9059 307.6377447  +6.5493229     91755.91     120741.5     124876.4     77.73357     155.4671     310.6256      1.349     2.78     829.2899     54.74738      17410.4        70     1.399     0.973  89.92   0
       459    859.3610    347.1041 307.5719697  +6.5540738     1454.965     1822.333     1657.218     77.85686     155.2202     310.7183      1.359     3.30     831.2659     54.74738     253.2414         9     1.012     0.562  81.07   0
       460     80.3607    345.7567 307.8956309  +6.5287223     1638.349     2074.555     2007.995     77.61008     155.3437     310.4712      1.356     3.21     837.2986     54.74738     267.7306        14     1.178     0.750 -79.99   0
       461    563.6119    342.6514 307.6949836  +6.5461006     3062.496     4115.313      4060.61     77.23844     155.2202     310.3476      1.364     3.15     828.4859     54.74738     492.1286        18     1.219     0.774  86.86   0
       462    100.8013    341.7460 307.8872743  +6.5310605     6910.242     9216.211     9225.896     77.23844     155.0965      310.224      1.350     2.86     836.9763     54.74738     1250.763        29     1.371     0.873 -87.15   0
       463    942.3605    342.8236 307.5376301  +6.5585892     835.6681     1161.276     667.6681      77.4864     155.0965     310.3785      1.510     4.80     830.6659     54.74738      119.882         8     1.104     0.591 -66.62   0
       464    546.8531    338.8986 307.7020709  +6.5470930     8328.148     10909.07     11093.22     77.73357     155.3437     310.8109      1.333     2.95     828.2175     54.74738     1548.705        26     1.281     0.808 -85.41   0
       465    771.1821    340.0113 307.6088390  +6.5540799     599.7155      777.468     1099.915      77.4864     155.0347     310.5021      1.392     4.47     830.1605     54.74738     83.07941         6     0.820     0.692  85.69   0
       466    275.7874    336.5150 307.8147582  +6.5390565     3187.849     4081.085     3715.526      77.4864     155.2202     310.4403      1.294     2.90     832.4873     54.74738     586.8473        16     1.161     0.721  89.61   0
       467    409.7601    334.1329 307.7591826  +6.5445014     30416.81     40296.31     41788.88     77.73357     155.2819     310.6874      1.367     2.93     829.0303     54.74738     5246.598        44     1.358     0.948 -89.41   0
       468    588.4476    333.1943 307.6849814  +6.5508300     683.4668      775.355      598.243     77.23844     155.1584     310.2858      1.107     4.10     828.0322     54.74738     122.6684         7     0.997     0.481  81.64   0
       469    517.4788    332.6783 307.7144815  +6.5486847     1488.744     1669.558     1656.164     78.10285     155.5905     310.6874      1.166     3.16     827.9029     54.74738     255.3114        11     1.057     0.640 -86.92   0
       470    389.8628    332.1083 307.7675161  +6.5446750     1446.399     1868.318     2358.191     77.85686     155.4671     310.6565      1.392     3.51     829.2938     54.74738     248.5616        12     1.145     0.638  87.30   0
       471    676.6241    331.6098 307.6484022  +6.5544119     522.9998     436.1515     953.2522      77.4864     155.1584     310.4712      1.254     4.26     828.6456     54.74738      101.015         5     1.014     0.510 -41.04   0
       472    488.9952    329.5104 307.7264203  +6.5490456     1415.094     2054.858     1821.559     77.36252     155.0347     310.3167      1.526     3.44      827.749     54.74738     267.2877        16     1.272     0.803  78.83   0
       473    804.6504    326.1329 307.5953967  +6.5609191     941.2411      1368.06     1110.386     77.73357     155.2202      310.533      1.394     3.70     830.0823     54.74738     163.5966         9     1.086     0.591  86.70   0
       474    498.8269    324.4630 307.7225044  +6.5514563     10199.39     13158.73     13076.57      77.4864     155.2819      310.533      1.347     2.75     827.4413     54.74738     1952.651        28     1.270     0.849 -88.99   0
       475    386.5657    326.3448 307.7690784  +6.5469447     849.2723     1096.068     1379.399     77.73357     155.3437     310.5948      1.246     2.92      829.187     54.74738     148.8409         7     0.911     0.474  79.21   0
       476    640.4135    325.7551 307.6636408  +6.5556270     506.1504     693.7953      407.742     77.23844     155.1584     310.3476      1.024     2.89     828.0585     54.74738     99.41797         5     0.707     0.471 -74.29   0
       477    767.9638    323.0785 307.6107398  +6.5609639     3517.312     4737.399     5356.667     77.73357     155.4054     310.5948      1.398     2.73     829.4398     54.74738     649.0078        22     1.281     0.876 -88.40   0
       478    923.4653    322.8600 307.5461437  +6.5662058     930.4924     1250.594     1156.471     77.97995     155.2819     310.6256      1.429     4.15     829.8301     54.74738     160.3367        10     1.276     0.499  89.78   0
       479    715.7889    322.3547 307.6324398  +6.5595324     832.7809     1033.911      1246.47     77.36252     155.2202     310.3167      1.260     4.20      828.739     54.74738     144.9014         7     0.878     0.573  89.03   0
       480    325.3464    321.1499 307.7946842  +6.5470510     1267.562     1387.928     1116.424     77.97995     155.3437     310.6256      1.179     2.89     830.4875     54.74738      235.692         9     0.999     0.550  79.64   0
       481    437.5597    314.6536 307.7482845  +6.5534684     699.5919     877.4736     855.1742     77.73357     155.3437     310.5639      1.340     2.82     827.8685     54.74738     135.1147         7     0.945     0.464 -77.69   0
       482    160.9019    314.7189 307.8632133  +6.5442240     1300.039     1850.335     1982.222     77.73357     155.6521     310.6874      1.448     2.46     836.0657     54.74738     231.8104        11     0.944     0.686  77.09   0
       483    260.8275    314.2751 307.8217170  +6.5477395     535.6647     784.8979     825.7023     77.73357     155.2819     310.5639      1.400     3.81     832.1211     54.74738     92.38116         6     0.747     0.639  57.00   0
       484    388.7387    308.7541 307.7687635  +6.5542792     8822.176     11976.39     12204.47     77.73357     155.2202     310.6565      1.385     3.13     828.7037     54.74738     1533.755        29     1.348     0.878 -89.22   0
       485    244.4640    309.2383 307.8286833  +6.5492734     2399.927     3132.599     3546.429     77.85686     155.2819     310.6565      1.280     3.07     832.5789     54.74738     395.2619        15     1.104     0.725  87.89   0
       486    742.3608    308.1308 307.6218742  +6.5662861     1133.503     1543.855     1941.539     77.73357     155.3437     310.6874      1.419     3.55     828.5834     54.74738     200.3636        10     1.092     0.576 -87.80   0
       487    756.5939    304.4198 307.6160846  +6.5682902     63317.73      82086.7      84917.3      77.4864     155.0965     310.4094      1.346     3.17     828.5992     54.74738     10529.19        57     1.365     0.964 -87.30   0
       488    428.1627    304.0291 307.7525433  +6.5575420     2671.091     3704.657     3886.719      77.4864     155.0965     310.4712      1.385     3.04     827.6824     54.74738     471.3523        18     1.273     0.792  86.92   0
       489    574.2974    301.6177 307.6919132  +6.5633962     1423.009     1744.641     1575.804     77.73357     155.1584     310.3785      1.345     3.44     826.3387     54.74738     264.1355        12     1.204     0.634  89.27   0
       490    991.3039    301.2144 307.5186787  +6.5773873     1859.456      2633.33     2569.836     77.61008     155.0965     310.3785      1.448     3.51      827.517     54.74738     302.6802        15     1.164     0.797 -74.63   0
       491    932.3644    300.5745 307.5431872  +6.5757011     2535.537     3351.578     3446.264      77.4864     155.1584     310.3785      1.337     2.88     828.4517     54.74738     448.7001        17     1.112     0.790  84.89   0
       492    465.2134    300.5490 307.7372672  +6.5602113     1240.497     1837.811     2963.827     77.23844     155.3437     310.3476      1.823     3.44     826.6582     54.74738     215.6071        12     1.123     0.680 -81.12   0
       493    294.6183    298.9102 307.8081934  +6.5552087     754.7106     869.6674         1011     77.61008     155.0965     310.5021      1.124     4.36      830.418     54.74738     157.5885         8     1.133     0.478 -85.19   0
       494    414.8648    299.5797 307.7582164  +6.5589364     2321.167     2827.199     2705.206      77.4864     155.3437     310.4403      1.326     2.89     827.8619     54.74738     415.7834        14     1.055     0.757  87.04   0
       495    836.0325    293.7650 307.5834359  +6.5753222     1398.839     1978.304     1986.586      77.4864     155.0965     310.3476      1.459     3.02     828.3762     54.74738     269.1962        14     1.201     0.659  81.85   0
       496    191.2782    290.8902 307.8513923  +6.5550747      2776.31     3638.743     3957.748     77.61008     155.5905     310.6565      1.345     2.82     834.5261     54.74738     477.9633        17     1.181     0.768  85.33   0
       497    445.2411    291.1200 307.7458794  +6.5634396     1318.618     1884.446     2042.167     77.85686     155.3437      310.533      1.559     3.48     826.7468     54.74738     214.8782        10     1.107     0.590 -80.55   0
       498    755.0121    289.0239 307.6172544  +6.5745940     7134.965     9445.001     9987.585      77.4864     155.1584      310.533      1.369     2.87     828.0566     54.74738     1316.215        24     1.237     0.818 -85.81   0
       499    226.9304    289.3837 307.8366318  +6.5568856     748.4333     982.2225     1031.501     77.36252     155.2202     310.5021      1.450     4.72     832.9598     54.74738     131.5945         8     1.006     0.628  82.29   0
       500    771.4073    286.9294 307.6105126  +6.5760023     3018.801     3942.311     4101.687     77.36252     154.9728     310.5021      1.316     3.29     828.0673     54.74738     474.0072        17     1.240     0.765 -83.46   0
       501    345.7904    288.5248 307.7872820  +6.5612008     713.4871     940.9029     921.0911      77.4864     154.9728     310.4094      1.327     3.90     829.2083     54.74738     120.0377         7     0.851     0.694 -74.50   0
       502     87.8072    288.2290 307.8944659  +6.5527202     1321.738     2056.922      2501.73     77.36252     155.1584     310.4094      1.743     4.28     837.1675     54.74738     230.8881        16     1.224     0.959 -46.69   0
       503    474.2918    285.9548 307.7339829  +6.5665384     636.4844     774.0042     964.4398     77.85686     155.2819     310.7183      1.138     3.32     825.7806     54.74738     116.1185         5     0.779     0.411 -72.92   0
       504    359.6064    281.8643 307.7817650  +6.5644106     1777.281     2591.777     2617.278     77.36252     155.0965     310.3785      1.511     3.50     828.7345     54.74738     311.2168        17     1.242     0.892  72.88   3
       505    362.7906    280.9749 307.7804718  +6.5648838     997.4198     1247.832     1431.077      77.4864     155.1584     310.4712      1.252     3.61     828.6279     54.74738     183.1671         9     1.074     0.605 -83.48   3
       506     74.6343    282.1898 307.9001406  +6.5547736     1437.753     1912.444     1553.973     77.36252     155.0965     310.4403      1.336     3.19     837.4102     54.74738     210.0927        12     1.076     0.698 -75.08   0
       507   1009.6661    277.7116 307.5118305  +6.5876979     6350.568     9034.856     9415.158     77.85686     155.5288     310.5639      1.490     3.17      826.486     54.74738     944.0749        29     1.348     0.956 -86.97   0
       508    487.6543    277.8403 307.7287025  +6.5703328     2485.231     3373.007     3689.684     77.73357     155.3437     310.6256      1.362     3.20     825.4278     54.74738     444.2886        17     1.244     0.735 -87.34   0
       509    250.2691    273.5215 307.8274670  +6.5642122     6953.452     9237.604     10032.85     77.97995     155.5905     310.5639      1.386     2.76     831.9372     54.74738     1243.075        27     1.333     0.872 -89.79   0
       510    814.9991    271.2361 307.5929242  +6.5839263     542.3199     569.7043     937.9217     76.98969     155.1584     310.4094      1.045     3.22     827.6318     54.74738     107.0927         5     0.796     0.491 -56.30   0
       511    769.6967    266.3685 307.6119079  +6.5844342     869.0428     999.5664     780.7814     77.97995     155.1584     310.6874      1.376     4.39     827.3631     54.74738     160.4553         9     1.199     0.558 -80.49   0
       512    226.9784    266.3985 307.8373813  +6.5663763     802.8239     883.7437     436.6763      77.4864     155.0347     310.3167      1.154     3.94     833.0603     54.74738     140.7455         6     1.086     0.409  78.83   0
       513    122.0004    267.1709 307.8809669  +6.5625553     502.8219     544.5012     437.0357     77.23844     155.1584     310.4094      1.233     2.88     836.4661     54.74738     96.82965         5     0.790     0.488  56.85   0
       514    384.4228    264.1319 307.7720479  +6.5725575     2007.118     2672.473       2190.2      77.4864     155.2819     310.5639      1.335     2.97      827.565     54.74738     342.1153        16     1.160     0.821  82.28   0
       515    971.2264    263.0081 307.5282896  +6.5924967     1300.242     1825.581     2037.093      77.4864     155.1584     310.4403      1.492     3.65     826.3943     54.74738     220.3268        13     1.244     0.696 -84.76   0
       516    154.0773    260.2449 307.8678731  +6.5664851     2152.157     2867.349     2743.882     77.73357     155.4054     310.5948      1.388     3.17     835.7468     54.74738     375.3433        14     1.242     0.656 -86.69   0
       517    306.7371    260.1535 307.8044552  +6.5716128     1474.642      1806.96     1620.631     77.73357     155.2202     310.6565      1.244     2.68     829.6038     54.74738     268.6713        11     1.016     0.633  88.07   0
       518    907.5842    254.8045 307.5550041  +6.5937771     1941.998     2981.096     3225.765      77.4864     155.0347     310.4403      1.605     3.27     826.4603     54.74738     307.0806        16     1.190     0.950 -87.95   2
       519    563.9069    255.7054 307.6977616  +6.5820057     2556.875     3526.269     3636.691     77.85686     155.8369     310.5639      1.379     3.19     824.9412     54.74738      492.507        16     1.219     0.738  83.71   0
       520    727.3997    253.1595 307.6299208  +6.5884848     5720.203     7338.382     7152.373     77.11417     155.0347     310.3167      1.327     3.16     826.4863     54.74738     921.7138        20     1.211     0.761 -89.62   0
       521    965.7244    252.8443 307.5309133  +6.5965108     696.7266     806.0058     734.2178     77.73357     155.4054     310.6256      1.145     4.01     826.0914     54.74738      139.676         8     1.118     0.551  75.06   0
       522    668.3093    252.9205 307.6544790  +6.5866227     2624.675     3504.861     3312.811     77.61008     155.5288     310.6565      1.313     2.69     825.5387     54.74738     421.9324        16     1.114     0.738  84.08   0
       523    858.5204    248.9597 307.5755834  +6.5945652     420.1911     702.2417     463.1794     77.73357     155.3437     310.5639      1.914     4.75     826.4598     54.74738     85.35516         6     1.393     0.459  81.35   0
       524    383.0460    247.5181 307.7731751  +6.5793706     888.4943     1104.729     1503.441     77.85686     155.3437     310.5948      1.331     3.39     827.1224     54.74738     149.6732         9     0.933     0.630  75.76   0
       525    923.4313    245.1336 307.5487415  +6.5982944     1286.331     1877.917     1810.746     77.73357     155.3437      310.533      1.370     3.23     825.9897     54.74738      206.046        10     1.069     0.577  86.87   0
       526    226.8851    238.5541 307.8383522  +6.5778684     2849.328     3561.681     3468.486     77.85686     155.2819     310.5948      1.340     2.89     833.1783     54.74738     522.2979        16     1.193     0.729 -84.63   0
       527    869.6937    237.3591 307.5713270  +6.5997247     1865.594     2498.338     2141.995     77.97995     155.2819     310.6874      1.252     3.57     825.9018     54.74738     330.9785        13     1.257     0.588 -89.57   0
       528    760.0364    236.8556 307.6169041  +6.5962983      1887.64     2457.746     2295.079     77.73357     155.3437     310.6256      1.316     2.70     826.2967     54.74738     389.7216        14     1.157     0.649 -85.87   0
       529    248.5166    232.3213 307.8295740  +6.5811627     702.0248     918.3577     991.6203     77.97995     155.6521     310.7183      1.344     3.50     832.1029     54.74738      124.167         9     1.027     0.759 -80.25   0
       530    460.8546    228.4438 307.7414861  +6.5898345     27045.07     35448.73      36982.9     77.85686     155.3437     310.5948      1.379     2.79     824.7416     54.74738     5051.701        44     1.349     0.948 -86.61   0
       531    786.8597    227.3586 307.6060758  +6.6011085     15302.17     20317.84     21790.96     77.85686     155.3437     310.6565      1.360     2.66     826.2534     54.74738     2938.468        41     1.334     1.117 -81.76   0
       532    322.0011    230.0223 307.7991215  +6.5845607     770.1962     897.7819     545.5916      77.4864     155.0347     310.3167      1.390     2.98     828.8001     54.74738      119.514         9     0.806     0.746 -81.80   0
       533    283.9359    229.8722 307.8149409  +6.5833543     562.1245     879.9701     1021.971     77.85686     155.3437     310.6256      1.467     3.42     830.3441     54.74738      91.5271         5     0.788     0.513 -55.72   0
       534    466.5484    222.7622 307.7393103  +6.5923695     1614.308     2176.122     2411.459     77.61008     155.3437     310.5948      1.326     2.95     824.5591     54.74738     255.4852        12     1.042     0.682 -88.24   0
       535    148.9631    221.8473 307.8712842  +6.5821663     2620.835     3354.155     3693.267     77.73357     155.3437      310.533      1.284     2.54     835.6532     54.74738     505.7423        15     1.193     0.659 -84.31   0
       536    725.4401    222.7855 307.6317467  +6.6009597     772.4282     1007.099     686.9436      77.4864     155.1584     310.3476      1.205     3.46     825.3015     54.74738      167.305         5     0.988     0.350  67.60   0
       537    123.5645    220.6872 307.8818748  +6.5817975     1194.721     1577.131     1203.503     77.85686     155.2202     310.5948      1.420     3.60     836.2697     54.74738     205.4495         9     1.117     0.487 -84.69   0
       538    175.8224    220.2757 307.8601782  +6.5837112     811.2047     1033.533     965.3464      77.4864     155.2202      310.533      1.238     4.07     834.8992     54.74738     130.2549         8     0.925     0.686  68.94   0
       539    779.3970    219.3230 307.6094439  +6.6041786     768.9069     1116.486     1094.126     77.36252      154.849     310.4403      1.566     5.19     825.8286     54.74738     101.8809         8     1.252     0.607 -28.38   0
       540    923.1988    217.6656 307.5497513  +6.6096270      1643.05     2047.819     2266.108     77.23844     154.9728     310.3785      1.317     2.88     824.8697     54.74738     274.0757        12     1.045     0.669 -84.34   0
       541    621.3947    215.8338 307.6752071  +6.6003763      524.692      632.587     705.2518     77.11417     155.1584     310.3785      1.158     2.06      824.041     54.74738     109.2624         5     0.682     0.459 -70.65   0
       542    584.8433    214.1452 307.6904497  +6.5998593     5548.479     7175.423     7144.841     77.85686     155.3437     310.5948      1.309     2.78       823.97     54.74738     1086.415        22     1.243     0.777 -87.96   0
       543    547.5219    214.0683 307.7059584  +6.5986509     2541.352     3156.164     3073.682     77.97995     155.4671     310.5948      1.254     3.45     823.9511     54.74738     393.6586        17     1.157     0.745 -83.98   0
       544    389.2493    213.2233 307.7717442  +6.5937353     1748.518     2121.018     2205.657      77.4864     155.4054     310.5021      1.293     3.47     826.0869     54.74738     276.5102        13     1.162     0.687 -79.09   0
       545    305.4264    214.6272 307.8065226  +6.5903641     1183.592     1335.208      1194.89     77.36252     155.1584     310.4403      1.109     3.50     829.7523     54.74738     216.2435         8     1.072     0.494 -89.18   0
       546    945.7108    210.9276 307.5406217  +6.6131540     2952.538     3925.517     4109.856     77.85686     155.5905     310.5948      1.322     3.05      824.533     54.74738      491.085        20     1.298     0.811 -85.55   0
       547    891.9475    210.5385 307.5629729  +6.6115347     12814.81     17121.08     17905.25     77.85686     155.2819     310.5639      1.413     3.02     824.7642     54.74738     2369.262        32     1.368     0.876 -88.86   0
       548    978.5708    208.3227 307.5270552  +6.6153168     10849.37     14967.41     15405.43     77.73357     155.4054     310.6256      1.452     3.10     824.4031     54.74738     1694.801        35     1.405     0.950  89.00   0
       549    566.9119    210.5574 307.6980194  +6.6007447     1191.404     1436.767      1296.15     77.85686     155.2819     310.6256      1.356     3.09     823.8752     54.74738     241.9102        12     1.124     0.665 -73.29   0
       550    210.8330    210.9055 307.8459467  +6.5887474     803.3301     1068.146     1006.701     77.97995     155.2202     310.6874      1.352     4.50     833.9505     54.74738     136.5163         8     1.281     0.692  81.87   0
       551    319.3193    210.8304 307.8008776  +6.5923945     1277.469     1580.638     1922.826     77.73357     155.2819     310.5639      1.462     4.05     829.1275     54.74738     184.6895         9     0.943     0.681  89.12   0
       552     18.0153    207.5998 307.9261635  +6.5836752     29244.57     39865.44     41313.14      77.4864     155.0347     310.3476      1.425     2.96      839.876     54.74738     5266.305        47     1.394     1.005 -84.02   0
       553    689.9924    208.4582 307.6469520  +6.6056985     3415.492     4546.812     4975.248     77.23844     155.2202     310.3785      1.404     2.82     824.2888     54.74738     605.4138        17     1.192     0.726 -88.42   0
       554    264.3946    208.5073 307.8237744  +6.5915233     1457.832     1940.183     1956.386      77.4864     155.0347     310.4094      1.444     4.00     831.9113     54.74738     218.5321        13     1.280     0.698 -81.16   0
       555    498.6466    203.3049 307.7266241  +6.6014698     2405.526     3164.245      3399.27     77.73357     155.2819     310.7183      1.365     3.31     823.9762     54.74738      436.438        18     1.270     0.792  87.97   0
       556    830.4638    199.9922 307.5888697  +6.6138520     2341.229     2792.259     3196.285     77.36252     155.0965     310.4403      1.270     3.31     824.8233     54.74738     362.5773        15     1.201     0.732  85.26   0
       557    630.1594    200.4832 307.6720774  +6.6070048     29.31764    -265.2724    -374.0956     77.85686     155.4054      310.533     -3.405     4.67     823.7601     54.74738     80.03802         6     1.026     0.603 -66.00   0
       558    510.5458    199.3994 307.7218107  +6.6034778      3151.58     4000.162     3934.519     77.11417     155.0347     310.1931      1.368     3.23     823.7911     54.74738     503.5999        18     1.199     0.780 -88.59   0
       559    882.8715    199.0101 307.5671273  +6.6159936     2273.998     3161.285     3232.087     77.36252     154.9728     310.4094      1.356     3.04     824.3541     54.74738     393.2612        17     1.123     0.828  86.07   0
       560    345.1682    196.0571 307.7906324  +6.5993545     6934.891     12333.09     13510.83     77.73357     155.3437      310.533      1.925     6.12     827.6693     54.74738     1051.804        37     1.947     0.877 -81.51   0
       561    742.1014    196.5914 307.6256967  +6.6123265     46156.77     61041.86     62640.56     77.61008     154.9728     310.3785      1.365     2.91     824.6932     54.74738     9200.352        49     1.373     0.918 -88.83   0
       562    975.9089    195.2967 307.5285940  +6.6206065     3140.846     4480.853     4184.568     77.85686     155.8369     310.5948      1.505     3.11       823.84     54.74738     537.7415        23     1.322     0.908 -85.11   0
       563   1014.2248    193.9563 307.5127183  +6.6224274     1804.448     2543.852     2671.639     77.36252     155.3437     310.4712      1.501     3.52     823.7966     54.74738     304.8767        15     1.240     0.724 -88.32   0
       564    910.0229    193.6511 307.5560242  +6.6191052     8330.171     11382.91     11466.11     77.36252     155.3437     310.4712      1.417     2.93     823.9467     54.74738     1575.456        30     1.348     0.890 -86.87   0
       565    453.4984    192.9299 307.7457286  +6.6042514     5839.287     7879.053     7779.066     77.73357     155.4671     310.6256      1.363     3.18     824.3721     54.74738      922.764        24     1.314     0.793  87.92   0
       566    319.6475    191.5672 307.8013856  +6.6003580     531.1245     656.7834     391.8738     77.61008     155.3437      310.533      1.237     3.93     829.4232     54.74738     92.79913         5     0.938     0.495   1.93   0
       567    227.9902    189.3003 307.8395420  +6.5982390     839.0099     924.0529     698.5238     77.61008     154.9728     310.3785      1.020     2.35     833.8109     54.74738     159.2356         7     0.704     0.647 -12.16   0
       568    110.8138    184.3461 307.8883901  +6.5963746     5635.729      7410.84     7542.337     77.23844     155.2819     310.3476      1.367     3.07     836.4785     54.74738     968.5398        22     1.231     0.814 -88.65   0
       569    930.4653    182.7100 307.5478942  +6.6242990     789.0198     1219.577     1713.222     77.73357     155.5288     310.5948      1.119     4.42     823.3201     54.74738     138.2598         9     1.195     0.492  85.73   0
       570    281.1526    181.0135 307.8177321  +6.6034323     39212.27     53170.93     55472.05     77.23844     155.2202     310.3476      1.390     2.88     832.3661     54.74738      6850.77        52     1.377     1.005 -87.69   0
       571    256.4092    182.1056 307.8279756  +6.6021567      7785.97     10436.21     10650.51      77.4864     154.9728     310.3785      1.375     3.02     833.0823     54.74738     1185.386        26     1.272     0.867 -86.33   0
       572    607.4053    182.2620 307.6821391  +6.6137716     825.4263     1273.284     1346.298     77.23844     155.0965     310.3785      1.711     4.34     823.2857     54.74738     133.2355         7     0.976     0.587 -69.12   0
       573    195.6254    181.0081 307.8532660  +6.6005829     470.0276      928.734     1412.315      77.4864     155.1584     310.4403      2.249     4.37     834.5994     54.74738     99.48792         5     1.153     0.472 -84.21   0
       574    710.4521    180.1766 307.6393936  +6.6180535     1100.426     1463.141     1080.703     77.36252     155.3437     310.4712      1.370     4.30     823.9207     54.74738     180.8039         8     1.059     0.497 -88.28   0
       575    405.2274    176.4155 307.7663359  +6.6094630     59622.72     77985.52     80993.95      77.4864     155.1584     310.5021      1.364     2.89     825.0308     54.74738     11102.98        62     1.392     0.989 -89.44   0
       576    161.1294    177.7992 307.8677054  +6.6007567     4529.276     6176.868     6115.615     77.23844     154.9109     310.4094      1.373     2.85       835.27     54.74738     832.0129        24     1.297     0.847  85.60   0
       577    422.6423    176.9871 307.7590813  +6.6098066     1647.595     2059.269     1729.748     77.23844     155.1584     310.3476      1.298     3.55      824.538     54.74738     256.0911        13     1.265     0.615 -86.06   0
       578    309.2102    174.1730 307.8063038  +6.6071913     21368.21     28576.39     29881.17      77.4864     155.1584     310.4712      1.385     2.86     830.7112     54.74738     3826.642        45     1.360     1.004 -86.71   2
       579    316.6064    174.1229 307.8032326  +6.6074583     2537.464     3614.073     4256.709      77.4864      154.849     310.4403      1.586     2.93     830.0153     54.74738     406.1868        19     1.189     0.865  83.98   2
       580    575.5574    175.1875 307.6956075  +6.6156343     705.0181     1043.959     1209.695     77.23844     155.1584     310.3476      1.518     3.42     822.9121     54.74738     115.5725         7     0.947     0.486  82.71   0
       581    542.4137    174.8330 307.7093901  +6.6146793     553.3323     934.0656     832.5831      77.4864     155.0965     310.5021      1.834     4.64     822.7425     54.74738     134.8519         6     1.504     0.596 -51.10   0
       582    792.7874    173.0070 307.6054223  +6.6237441      1328.07     1951.863     2365.595      77.4864     155.1584     310.5021      1.434     4.00     823.7117     54.74738       258.33        11     1.235     0.597 -83.41   0
       583    744.5204    172.4756 307.6254949  +6.6223629     38836.26     50428.95     51810.77     78.10285     155.5905     310.7183      1.338     3.34     823.8021     54.74738     6129.799        49     1.380     0.920 -88.21   0
       584    692.6241    174.0977 307.6470036  +6.6199715     1066.157       1301.5     858.5211     77.97995     155.0965     310.4712      1.407     3.97     823.6967     54.74738      188.317         7     0.941     0.480  85.49   0
       585     31.9592    172.6992 307.9215413  +6.5985491     710.1253     748.4423     987.3439     77.85686     155.2202     310.8109      1.366     4.46      840.057     54.74738     111.9053         7     1.135     0.563  88.32   0
       586     61.2741    170.0663 307.9094505  +6.6006154     10461.15     14023.75     14166.37     77.97995     155.4054     310.5639      1.378     3.04     838.6226     54.74738      1658.45        30     1.313     0.909 -87.22   0
       587     95.0933    167.9888 307.8954697  +6.6026025     1635.088     2001.805     1682.357     77.61008     155.0347     310.3785      1.288     2.85     836.8644     54.74738     315.0946        14     1.155     0.685 -84.96   0
       588   1002.8126    166.7874 307.5183626  +6.6332667      1133.55     1599.186     1659.088     77.73357     155.0347      310.533      1.388     3.95     822.6271     54.74738     162.1914        10     1.068     0.640 -74.95   0
       589    970.6018    165.8434 307.5317779  +6.6325908     585.1348     695.0776      749.306     77.23844     155.0347     310.2858      1.303     3.90     822.5838     54.74738     102.5967         5     0.889     0.489  88.43   0
       590    729.2765    160.0479 307.6322427  +6.6269881     625.5432     799.6098     847.3729     77.73357     155.4054     310.5639      1.352     3.32     823.4231     54.74738     122.8232         5     0.796     0.401  73.22   0
       591    578.3344    157.2476 307.6950522  +6.6231330     910.0163      1067.55     1237.276     77.73357     155.2819     310.6256      1.306     3.72     822.4693     54.74738     162.8963         9     1.017     0.585  86.02   0
       592   1004.0010    152.9036 307.5183300  +6.6390380     2339.815     3375.423     4129.322     77.36252     154.9728      310.224      1.586     3.48      822.183     54.74738      346.959        18     1.291     0.849  75.18   0
       593    586.8841    150.6991 307.6917183  +6.6261206     1274.989     1702.495      1845.91     77.85686     155.8369     310.6874      1.476     3.11     822.4235     54.74738     251.1385        10     0.977     0.728 -84.79   0
       594    595.3706    148.9152 307.6882517  +6.6271389     2259.127     3087.497     3080.886     77.85686     155.0965     310.4712      1.345     3.10     822.4502     54.74738     410.6616        17     1.256     0.762 -85.52   0
       595    339.2779    148.8115 307.7946596  +6.6186631     1187.285     1546.302     1951.972      77.4864     154.9728     310.4403      1.470     3.37      828.579     54.74738     211.0934        11     1.192     0.612 -82.30   0
       596    280.0611    147.2674 307.8193148  +6.6173275     36008.89     47971.76     50096.81     77.85686     155.2819     310.5948      1.406     2.86     833.3824     54.74738     6572.521        53     1.384     1.023 -88.30   0
       597     25.3131    145.9371 307.9252003  +6.6093752     5089.047     6794.257     6802.716     77.85686     155.5288     310.6256      1.436     3.15     840.7242     54.74738     852.8885        23     1.388     0.820 -85.99   0
       598    711.7164    143.6716 307.6400845  +6.6331664     9461.336     12195.03     12363.38     78.10285     155.6521     310.6256      1.307     2.93     822.9993     54.74738      1772.72        25     1.255     0.810 -89.19   0
       599    189.0298    144.8469 307.8572174  +6.6152914     1153.829     1673.656     1514.553      77.4864     155.4054     310.5021      1.370     3.38      834.893     54.74738     202.8984         8     0.891     0.700  31.45   0
       600    265.5524    142.0756 307.8255167  +6.6189873     945.7285     1323.519     695.3506     77.73357     155.4054     310.5948      1.391     3.65     833.7194     54.74738     194.9443         9     1.084     0.581  77.66   0
       601    122.4656    141.0618 307.8850000  +6.6146327      5645.14     7734.683     8195.528     77.85686     155.3437     310.5948      1.437     3.28     835.8621     54.74738     844.6371        25     1.293     0.894 -88.18   0
       602    584.1887    138.8972 307.6932320  +6.6309034     1014.139     1562.915     1192.746     77.61008     155.0347     310.4094      1.457     3.50     822.1409     54.74738     153.1364         9     1.014     0.709 -83.96   0
       603    650.4290    137.4507 307.6657572  +6.6337005     1018.064     1229.687     707.6913      77.4864     155.4671     310.5021      1.267     3.98     822.6976     54.74738     154.0602        11     1.110     0.681 -89.18   0
       604    461.5482    138.0590 307.7442169  +6.6271722     1477.769     1919.365     1548.974     77.85686     155.3437     310.5948      1.265     3.86     823.3209     54.74738     245.1315         9     1.165     0.488 -84.67   0
       605    393.1333    137.0759 307.7726757  +6.6253013     4533.729     6598.796     7246.574     77.97995     155.4054     310.5639      1.505     3.57     825.7603     54.74738     733.0737        25     1.408     0.881  82.93   0
       606    357.5606    135.7886 307.7874989  +6.6246484     3727.073     5091.214     5253.456     77.23844     155.1584     310.3476      1.386     3.26     827.6275     54.74738     617.4733        20     1.281     0.762 -86.29   0
       607    569.7385    135.4517 307.6993511  +6.6318457      822.241     1394.717     1655.893     77.85686     155.2819     310.5948      1.858     5.01     821.9465     54.74738      124.663         9     1.317     0.538 -62.79   0
       608    112.0768    135.8243 307.8894918  +6.6164481      2053.34     2745.018     2838.108      77.4864     155.2202     310.5639      1.411     3.17     835.9537     54.74738     369.9615        17     1.208     0.918  81.16   0
       609    940.9198    134.7078 307.5451460  +6.6444629      547.915     888.7275     1374.877     77.61008     155.5905     310.6565      1.593     4.39     821.7784     54.74738     101.7232         5     0.867     0.632  80.58   0
       610    673.5354    133.3141 307.6562942  +6.6361754     734.9688     888.9962      464.162     77.97995     155.5288     310.6256      1.194     4.02     822.8313     54.74738     118.6483         7     0.981     0.471  78.98   0
       611   1004.4292    129.5801 307.5189270  +6.6486813     1682.458     1862.583     1548.375      77.4864     155.1584     310.4712      1.296     3.06     821.6536     54.74738     267.3603        12     1.014     0.751 -74.12   0
       612    730.2659    129.2186 307.6328586  +6.6397487     698.9002      772.015     582.3059      77.4864     155.3437     310.5021      1.230     3.42     822.5325     54.74738     123.3236         8     0.919     0.617 -86.61   0
       613    209.4603    124.8228 307.8493996  +6.6242395     6432.395     8738.326     9160.193      77.4864     155.2819     310.5021      1.347     3.08     834.8245     54.74738     971.3164        26     1.254     0.875 -88.25   0
       614     92.2498    124.6488 307.8981041  +6.6203996     2563.249     3619.925     3802.206     77.85686     155.2202      310.533      1.436     3.47     836.2977     54.74738     450.7457        19     1.428     0.901  70.52   0
       615    671.2587    123.4494 307.6575690  +6.6401724     7225.669     9362.476     9220.083     77.85686     155.3437     310.6565      1.363     3.28     822.5942     54.74738      1350.87        26     1.308     0.820  89.14   0
       616    819.4861    123.1584 307.5959881  +6.6452090     1175.204      1844.27     1678.074     77.85686     155.2819     310.5948      1.456     4.38     822.1768     54.74738     190.2561        10     1.291     0.481  83.48   0
       617    623.4373    120.7597 307.6775290  +6.6396950     10973.57     14583.87      15171.1     77.61008     155.3437     310.4712      1.342     3.09     822.0687     54.74738     1902.066        31     1.307     0.888 -86.33   0
       618    258.1395    121.2592 307.8292934  +6.6273339     1031.816     1525.109     1704.864     77.85686     155.3437     310.6256      1.624     4.61     834.1009     54.74738     136.6131        10     1.183     0.590  68.93   0
       619    561.5295    119.9066 307.7032806  +6.6379906     774.6078     937.9096     1021.572     77.85686     155.4054     310.5948      1.331     3.90     821.5862     54.74738     146.6005         8     1.090     0.497  87.58   0
       620     22.0049    119.7609 307.9274529  +6.6200709     1021.399       1704.1     1523.628     76.98969     155.0965     310.3476      1.633     4.72     840.9998     54.74738     180.2282        12     1.397     0.589 -68.47   0
       621    350.5595    116.5825 307.7910500  +6.6323442     4224.476     6330.958     6472.556      77.4864     155.1584     310.4094      1.609     3.45     828.9168     54.74738     676.2738        30     1.704     0.886 -65.58   0
       622    996.5867    115.4267 307.5226560  +6.6542652     911.9449     1297.946     1357.246     77.61008     155.1584      310.533      1.627     4.58     821.3102     54.74738     133.0145         8     1.215     0.490 -87.45   0
       623    532.1910    115.7353 307.7156102  +6.6387375     2157.263     2772.221     2928.227     77.36252     155.1584     310.4712      1.353     3.33     821.5279     54.74738     380.7916        15     1.254     0.721  79.93   0
       624    626.9578    112.2314 307.6763506  +6.6433328     62995.47     82610.34     85367.68     77.36252     155.2202     310.4403      1.356     2.78     821.9042     54.74738     12298.59        58     1.385     0.944 -87.00   0
       625    306.0405    106.1838 307.8098954  +6.6351541     4304.956     6048.385     6655.261     77.36252     155.2202     310.3785      1.481     3.02     832.4739     54.74738      734.943        24     1.355     0.878 -87.47   0
       626    501.4485    102.4851 307.7288264  +6.6431856     611.3922     734.9864     814.9671     77.85686     155.3437     310.5948      1.211     1.06     821.4216     54.74738     113.3808         4     0.529     0.467 -46.13   2
       627    705.9178    100.4810 307.6439331  +6.6508051     1197.914     1290.497     1045.049     77.85686     155.5905     310.6874      1.302     4.13     821.8712     54.74738     228.9512         9     1.052     0.603  89.96   0
       628    677.4142     99.2884 307.6558167  +6.6503515      1651.55      2158.49     1478.434     77.61008     155.1584     310.5021      1.351     3.43     822.0562     54.74738     254.1224        13     1.175     0.683  89.65   0
       629      3.6213     89.4696 307.9361073  +6.6319615     731041.6      1439708      1521332      77.4864     150.6419     267.6693      2.023     4.19     841.6801     54.74738     61264.45       293     2.074     1.570 -87.45  28
       630    691.3314     96.2075 307.6501365  +6.6520853     3780.331     4960.705     4347.046     77.36252     155.0347     310.5021      1.317     3.15     821.8787     54.74738     620.4966        21     1.223     0.813  85.63   0
       631    433.0887     87.3470 307.7577362  +6.6471612     4837.358     6231.403     6023.083     77.85686     155.2202     310.7183      1.360     3.14      824.054     54.74738     889.6868        20     1.295     0.737  87.24   0
       632    905.6135     82.5142 307.5615522  +6.6648422     4456.402     6026.046     6376.124      77.4864     155.1584     310.5021      1.422     2.93     820.7554     54.74738     770.6388        22     1.300     0.798  87.53   0
       633    887.7247     83.3355 307.5689583  +6.6639107     2456.661     3007.516     3017.924     77.97995     155.3437     310.5639      1.302     3.40     820.9472     54.74738     413.5956        15     1.204     0.702 -86.15   0
       634    597.7920     81.2439 307.6895031  +6.6551571     2066.634     2661.465     2453.994     77.36252     155.1584     310.3476      1.257     2.75     821.1249     54.74738       409.12        16     1.237     0.713 -79.49   0
       635    585.5764     82.8380 307.6945258  +6.6540931     929.8351     1164.453     1237.363      77.4864     155.0965     310.3785      1.287     2.60      821.112     54.74738     176.1357         6     0.763     0.493  86.70   0
       636    243.5219     80.5371 307.8367301  +6.6436580     1059.779      1455.66     1867.313     78.10285     155.4054     310.5948      1.449     3.99     834.4067     54.74738     171.4988        12     1.175     0.734 -80.79   0
       637    617.9807     80.8628 307.6811270  +6.6559850      562.314     724.3239     509.9695      77.4864     155.3437     310.4712      1.660     3.26     821.2177     54.74738     101.5925         5     0.955     0.386  61.58   0
       638    396.4305     79.0350 307.7732459  +6.6493726     2272.594     2869.875     2571.174      77.4864     155.0965     310.3785      1.325     2.85      826.876     54.74738     381.4052        17     1.176     0.775  83.82   0
       639    144.3088     76.1683 307.8780993  +6.6421518     3887.583      5280.78     5384.421     77.97995     155.1584     310.6256      1.391     2.85     834.7474     54.74738     658.6376        22     1.287     0.854  69.31   0
       640     26.1992     74.0839 307.9272428  +6.6390676     14080.78     19626.63     20665.91     77.11417      154.849     310.2858      1.428     2.92     839.0226     54.74738     2420.806        43     1.396     1.062  83.37   0
       641    292.5833     74.5509 307.8165453  +6.6477648     1587.186     2104.748     2344.343     77.36252     155.4054     310.3476      1.318     3.33     833.5262     54.74738     303.3622        12     1.159     0.653 -85.75   0
       642    553.2513     73.6031 307.7082657  +6.6568315     833.0734     1116.067     843.4075     77.23844     155.0965     310.1931      1.272     3.79     820.9635     54.74738     154.5654         9     1.180     0.537  79.79   0
       643    566.1229     73.4372 307.7029228  +6.6573278     801.8505     807.8702     704.6758     77.73357     155.4054     310.5948      1.231     3.31     820.9785     54.74738     178.9678         5     0.981     0.323 -86.40   0
       644    947.2520     71.9905 307.5445998  +6.6705653     613.7692     778.4911     910.9943     77.23844     155.2202     310.3476      1.298     3.15     819.8982     54.74738      103.393         7     0.714     0.686  -4.95   0
       645    155.6823     72.2717 307.8735043  +6.6441400     651.2536     898.4298     725.5762     78.10285     155.6521     310.6256      1.482     2.73     834.5615     54.74738     112.6982         6     0.687     0.649  35.54   0
       646    773.0992     68.6524 307.6170778  +6.6661739     3695.363     4945.519     4750.162     77.73357     155.3437     310.8109      1.358     2.85     820.6678     54.74738     697.0441        19     1.252     0.764 -85.80   0
       647    828.0302     68.2164 307.5942665  +6.6681749     6890.603     9224.734     10022.23      77.4864     155.0965      310.533      1.350     2.68     820.6314     54.74738     1294.329        24     1.287     0.818 -87.60   0
       648    418.0082     69.2266 307.7646079  +6.6541401     1206.678     1351.175      1410.01      77.4864     155.1584     310.4403      1.287     2.63     825.3416     54.74738     240.0865        11     0.963     0.683 -83.22   0
       649    894.8274     68.6511 307.5664953  +6.6702083      633.317     866.9939     586.6503      77.4864     155.4671      310.533      1.391     3.22     820.4837     54.74738     97.92181         6     0.734     0.624 -76.65   0
       650     97.9790     69.3065 307.8975792  +6.6434378     664.7924     815.9576     613.0875     77.73357     155.1584     310.4094      1.279     3.60        835.1     54.74738     106.6534         5     0.803     0.550 -87.56   0
       651     66.5024     65.7889 307.9107755  +6.6438387     3656.594     4864.739     4924.464     77.61008     155.0347     310.4094      1.342     2.86     836.4896     54.74738     546.9965        20     1.216     0.799 -89.16   0
       652    535.4885     66.5826 307.7158809  +6.6591394     1395.131     1762.098     1590.583     77.61008     155.0965     310.4712      1.193     2.42     820.9688     54.74738     223.6926        10     0.908     0.636  74.90   0
       653     50.8704     66.4373 307.9172487  +6.6430487     1005.084     1305.872     1198.728     77.73357     155.3437     310.6565      1.449     3.50     837.2396     54.74738     186.6113        10     1.201     0.519  68.47   0
       654    427.8730     65.1683 307.7606446  +6.6561439     1190.582     1707.643     1981.176     77.73357     155.3437     310.6256      1.348     2.98     824.7667     54.74738     220.4431        11     1.128     0.611 -80.75   0
       655    590.4033     62.1839 307.6932092  +6.6627804     1651.622     1962.329     1761.264      77.4864     154.9728     310.4403      1.216     2.72     820.8962     54.74738     316.4336        13     0.944     0.769  76.78   0
       656      8.9360     61.2408 307.9348464  +6.6437926     3001.431     4242.053     4343.132     77.85686     155.2819     310.6874      1.468     3.15     838.7457     54.74738     534.8847        19     1.282     0.793 -84.92   0
       657    767.6417     56.2102 307.6197600  +6.6711296     2309.135     3021.086      3155.61     77.23844     155.1584     310.3476      1.350     3.12      820.285     54.74738     394.3267        17     1.293     0.707 -85.08   0
       658     81.4279     56.8094 307.9048751  +6.6480442     853.0813     1454.653     1686.109      77.4864     155.1584     310.4712      1.769     3.67     835.6158     54.74738     153.2238         8     1.105     0.456  79.04   0
       659    659.4562     56.2700 307.6647129  +6.6675152     567.0327     787.7313     730.5009     77.97995     155.2819     310.5639      1.218     4.26     820.8832     54.74738     102.0649         6     1.086     0.476 -81.32   0
       660    408.3292     56.3352 307.7690606  +6.6591400     1267.215     1583.098     1668.689     77.85686     155.4054     310.5948      1.301     2.80     826.5073     54.74738     267.0488         9     1.029     0.541  80.10   0
       661    105.6051     55.1687 307.8948846  +6.6495289     1054.327     1489.976     1678.088     77.23844     155.2202     310.3785      1.410     3.93     834.8699     54.74738     150.4224         9     1.060     0.605 -80.79   0
       662    494.5277     55.4804 307.7332718  +6.6623609     2413.069       2291.2     2218.317     78.10285     155.5905     310.6256      0.795     0.82     821.0943     54.74738     949.6577         5     0.616     0.414 -37.85   0
       663     94.2715     50.1836 307.8997608  +6.6512084     10896.88     15008.22     15445.71     77.36252     155.2819     310.5021      1.409     2.92     835.0347     54.74738     1827.636        35     1.373     0.932  88.76   0
       664    423.3058     49.7873 307.7630564  +6.6623417     2849.809     3575.036     3413.954     77.61008     155.0965     310.4403      1.282     3.08     825.4295     54.74738     515.1472        15     1.157     0.704 -84.08   0
       665    244.6368     49.3033 307.8373126  +6.6565895     653.7701     898.4152     1444.045     77.85686     155.2202     310.7491      1.373     4.13     833.9473     54.74738     110.1736         7     1.047     0.465  82.56   0
       666    260.9776     44.1426 307.8306955  +6.6592649     1694.933     2412.948     3193.641      77.4864     155.3437     310.4094      1.501     3.31     833.8223     54.74738      346.734        12     1.144     0.672 -82.61   0
       667    637.0773     41.9799 307.6744886  +6.6726718     21100.87     28149.22     29362.97      77.4864     155.0965     310.5639      1.357     2.86     820.5728     54.74738     3913.548        40     1.351     0.912  89.64   0
       668    666.6417     43.7028 307.6621461  +6.6729421     557.8315     874.6031      878.666     77.85686     155.2202     310.8109      1.336     2.80     820.5776     54.74738      99.4679         5     0.717     0.456  74.61   0
       669    946.4097     41.5068 307.5459633  +6.6831226     636.9172     1042.834     955.5438      77.4864     154.9728     310.4403      1.588     3.91     818.7121     54.74738     117.3633         5     1.116     0.393  73.58   0
       670    536.8400     38.0710 307.7162711  +6.6709551     6194.023     8117.854     8171.156     77.73357     155.3437     310.6565      1.325     2.85     820.8411     54.74738     1116.698        23     1.291     0.788 -86.44   0
       671    254.9377     38.2571 307.8334023  +6.6614932     2438.588     3459.458     4507.303     77.97995     155.2819     310.6256      1.445     2.96     833.7788     54.74738     465.1525        18     1.182     0.857  86.03   0
       672    692.9288     36.5968 307.6514596  +6.6767483     674.0124     844.8107     1165.573     77.36252     154.9728     310.4403      1.250     4.14     820.2531     54.74738      138.506         6     0.924     0.534 -87.10   0
       673    623.4395     32.4485 307.6804735  +6.6761538     3709.463     5931.642     7217.073     77.73357     155.4054     310.4712      1.874     5.25     820.4266     54.74738     747.4702        28     2.014     0.786  71.10   0
       674    442.3810     33.7345 307.7556666  +6.6696037     26603.52     35521.99     36923.02      77.4864     155.3437     310.5021      1.342     3.06     824.2278     54.74738     4578.997        40     1.358     0.906 -87.62   0
       675    262.9686     34.2128 307.8302007  +6.6634306     10948.33     14720.35     15364.84     77.36252     155.0965      310.533      1.386     2.77     833.7333     54.74738     2037.781        31     1.311     0.890  85.07   0
       676      4.3553     36.1134 307.9375930  +6.6540127     1400.634     2104.146     2259.069     77.85686      154.849     276.7598      1.579     3.25     836.5244     54.74738     231.1938        13     1.101     0.762 -82.28  16
       677    920.1882     33.4221 307.5571284  +6.6855924     2242.638     3138.631     2881.307      77.4864     155.1584     310.5021      1.428     3.08     819.1563     54.74738     372.6234        20     1.309     0.864 -76.40   0
       678    527.6292     33.9264 307.7202369  +6.6723599     573.3834      666.784     1286.141     77.73357     155.3437     310.5639      1.121     4.47     820.8602     54.74738     130.4191         8     1.179     0.482 -88.69   0
       679    322.8975     34.4407 307.8052914  +6.6653338     1257.957     1838.228     1672.483     77.85686     155.2202     310.8109      1.574     2.93     832.8767     54.74738     235.8647        11     1.068     0.686  89.48   0
       680     28.3502     33.7030 307.9277040  +6.6558098     2845.027     3950.524     3759.722     77.73357     155.2819     310.7491      1.449     3.02      835.934     54.74738     461.9086        19     1.181     0.881  84.32   0
       681    555.4988     33.1514 307.7086820  +6.6736063     746.8682     899.6149     870.7493     77.85686     155.2819       310.78      1.176     4.05      820.743     54.74738       165.09         7     0.990     0.485 -81.85   0
       682    250.9126     30.7248 307.8353269  +6.6644686     3535.288     4785.138     5178.967     77.85686     155.6521     310.6874      1.379     2.98     833.7012     54.74738     625.9922        19     1.159     0.885 -87.79   0
       683    303.9119     28.9558 307.8133639  +6.6669655     1145.871     1809.102     1745.432     77.85686     155.2202     310.6256      1.592     4.39     833.3962     54.74738     192.7089        12     1.351     0.682  87.95   0
       684     65.9704     25.6452 307.9123430  +6.6603932     517.5618     605.1376    -99.24297      77.4864     155.4054     310.4712      1.277     3.07     834.9999     54.74738     102.3092         5     0.765     0.597  85.19   0
       685    692.2531     23.0835 307.6521908  +6.6823047     2154.554     2869.581      2825.75     77.85686     155.3437     310.7183      1.337     3.40     819.8768     54.74738     387.9747        14     1.253     0.629 -89.53   0
       686    940.9086     23.7638 307.5488392  +6.6902657     1168.703     1401.062     1812.475     77.97995     155.2819     310.6256      1.228     2.81      818.221     54.74738     185.2405        10     0.908     0.693 -87.50   0
       687    257.5695     18.4547 307.8329716  +6.6697560     953.8643     1331.317     1612.926     77.73357     155.4054     310.5639      1.545     3.91     833.5784     54.74738     166.2916        11     1.039     0.785 -52.81   0
       688    203.5471     18.7995 307.8554075  +6.6678120     749.0925     1220.528     1223.657     77.11417     154.9728     310.1621      1.772     3.53     833.4424     54.74738     153.0488         8     1.006     0.603  76.20   0
       689    751.8650   1018.1393 307.5942976  +6.2734711     1214.905     2122.088     2339.248     77.85686     155.2819      302.142      2.010     5.31     850.0525     54.74738     149.9643        17     1.241     1.026  73.68  16
       690    959.1107   1012.2087 307.5084421  +6.2827822     5444.856     10516.24     10622.05      77.4864     155.0347     310.3476      1.997     4.59     847.3345     54.74738     588.2258        41     1.619     1.335  84.37   0
       691    624.4695   1015.4267 307.6472842  +6.2703654     511.3454     625.7952     322.0585      77.4864     155.2202      310.533      1.662     5.34     853.6293     54.74738     72.54218         5     1.037     0.776   7.49   0
       692    713.3562   1013.0329 307.6104570  +6.2743025      955.846     1608.793     2507.357      77.4864     155.2819     310.4403      1.976     5.75     850.2441     54.74738     112.5624        11     0.984     0.947  49.56   1
       693    243.5285   1012.5939 307.8055459  +6.2588680     1505.752     2279.612     2019.307      77.4864     154.9109     310.5021      1.633     4.14     852.4496     54.74738     236.5292        17     1.319     0.890 -82.60   0
       694    718.8227   1010.3407 307.6082767  +6.2755953     2727.729     4694.698     5776.438      77.4864     155.2819     310.4712      2.000     4.10     850.1811     54.74738     309.2537        27     1.458     1.124 -84.92   0
       695    441.9459   1011.5548 307.7231983  +6.2659007     914.7282     1399.194     1686.907     77.85686     155.3437     310.6256      1.498     6.01     853.8277     54.74738     135.7724        11     1.434     0.709  89.78   0
       696    734.4390   1009.5381 307.6018193  +6.2764444     964.5935     1494.356     1300.183     77.85686     155.3437     310.6256      1.660     5.53     850.0488     54.74738      118.324        11     1.232     0.862 -84.46   0
       697    365.6052   1007.7853 307.7550209  +6.2649177     1975.199     2857.026     3047.782      77.4864     155.0347     310.4403      1.581     3.67     853.6175     54.74738     243.4902        17     1.204     0.891 -81.49   0
       698    975.5484   1005.1255 307.5018518  +6.2862503     546.3705     727.7092     657.4344     77.85686     155.4054     310.6256      1.451     4.83     846.4111     54.74738     88.94348         7     1.002     0.661 -66.94   0
       699    703.5596   1004.0115 307.6148248  +6.2777022     477.8488     672.7747     1163.109     77.23844     155.1584     310.3476      1.479     4.14     850.2971     54.74738     74.19476         5     1.102     0.444 -26.64   0
       700    547.7146    998.2736 307.6797252  +6.2748987     4173.647     6525.817     6619.604     77.97995     155.6521     310.5948      1.742     3.90     853.9388     54.74738     556.9983        27     1.502     0.999 -85.85   1
       701    518.0652    999.5593 307.6919931  +6.2733829     1249.835     1677.414     1784.778     77.85686     155.2819     310.6874      1.591     5.07     853.8906     54.74738      137.624        15     1.143     0.967  83.10   0
