#   1 NUMBER                 Running object number                                     
#   2 X_IMAGE                Object position along x                                    [pixel]
#   3 Y_IMAGE                Object position along y                                    [pixel]
#   4 ALPHA_J2000            Right ascension of barycenter (J2000)                      [deg]
#   5 DELTA_J2000            Declination of barycenter (J2000)                          [deg]
#   6 FLUX_APER              Flux vector within fixed circular aperture(s)              [count]
#   9 FLUXERR_APER           RMS error vector for aperture flux(es)                     [count]
#  12 FLUX_RADIUS            Fraction-of-light radii                                    [pixel]
#  13 FWHM_IMAGE             FWHM assuming a gaussian core                              [pixel]
#  14 BACKGROUND             Background at centroid position                            [count]
#  15 THRESHOLD              Detection threshold above background                       [count]
#  16 FLUX_MAX               Peak flux above background                                 [count]
#  17 ISOAREA_IMAGE          Isophotal area above Analysis threshold                    [pixel**2]
#  18 A_IMAGE                Profile RMS along major axis                               [pixel]
#  19 B_IMAGE                Profile RMS along minor axis                               [pixel]
#  20 THETA_IMAGE            Position angle (CCW/x)                                     [deg]
#  21 FLAGS                  Extraction flags                                          
         1    612.4688     17.8481 307.6805571  +6.6765324     3636.514     5117.271     5509.232     80.50974      160.573     321.1779      1.463     3.17     890.1198     56.61283     548.0424        20     1.343     0.831 -69.89   2
         2    431.6643     19.7162 307.7556118  +6.6696999     25971.22     35846.32     36892.29     80.63703     160.7645     321.2418      1.482     3.23     894.7588     56.61283     3874.788        44     1.422     0.980 -60.08   0
         3    252.2782     20.1247 307.8301243  +6.6635062     10374.13     14552.07     14691.08     80.76412      160.892     321.2418      1.474     3.25     906.9536     56.61283     1490.016        34     1.406     0.934 -57.89   0
         4    240.2597     16.7238 307.8352324  +6.6645059     3463.082     4641.321     4668.248     80.63703     160.7007      321.146      1.379     3.17     907.0007     56.61283     531.0807        18     1.234     0.793 -66.29   0
         5    293.3149     14.8695 307.8132535  +6.6670547     1143.064     1445.172     1411.159     80.63703      160.892     321.2099      1.326     3.92     906.6477     56.61283     156.7485        11     0.980     0.785 -54.20   0
         6    930.2881      9.9691 307.5487751  +6.6904119     1106.218       1453.6     1281.824     80.63703     160.4452     321.1141      1.356     3.03     885.2735     56.61283     195.2842        10     1.003     0.737 -65.85   0
         7    681.3884      9.4039 307.6522075  +6.6823255     2030.828     2704.857     3065.775     80.12666     160.3173     321.0502      1.433     3.05     888.9454     56.61283     351.9501        17     1.274     0.783 -72.15   0
         8     86.3264      9.9100 307.8994135  +6.6621387     762.4928     831.0043     913.0391     80.50974      160.892     321.2099      1.163     4.55      905.457     56.61283     133.3889         7     1.211     0.508 -68.90   0
         9    246.9847      4.6456 307.8328472  +6.6697175     834.0701     1104.368     1119.541     79.99857     160.4452     289.6453      1.434     4.95     907.1896     56.61283     132.2939         9     1.298     0.534 -60.28  16
        10    192.7022      4.7312 307.8553960  +6.6678567     899.2919     1156.385     949.9787     80.50974     160.7645     290.8115      1.490     4.27     906.3621     56.61283     125.9126        10     0.987     0.729 -50.21  16
        11    169.6934      2.3597 307.8650352  +6.6680615     12078.41     15142.05     15285.24     80.12666     142.3585     258.1942      1.340     3.19      905.774     56.61283     1926.053        24     1.218     0.859 -45.73  24
        12    914.8530      1.3371 307.5554783  +6.6934598     1812.364     1981.793     2111.088     70.01705     127.6189      241.699      0.887     1.57     885.1306     56.61283     641.5789         8     0.791     0.533  12.94  24
        13    513.6000      1.3691 307.7221899  +6.6800214     1743.732     1820.487     2091.531     69.57623     127.7796     242.0382      0.925     1.98     891.7862     56.61283     480.6115         8     0.797     0.572  -8.07  24
        14    740.1522   1004.0857 307.5943258  +6.2736951      1543.98     2145.369     2586.622     80.50974      160.573     321.1779      1.459     3.90     920.3885     56.61283     208.6589        13     1.176     0.707 -51.69   0
        15    573.2039   1019.6060 307.6631107  +6.2617035     179432.8     245880.5       254165     79.87026     160.3173     298.2975      1.466     3.15     924.5162     56.61283     29365.29        84     1.509     1.034 -55.31  19
        16    574.9469   1012.4445 307.6626283  +6.2647181     84649.91     115800.2       121587     80.50974     160.6369     321.1779      1.451     3.32     924.2983     56.61283     13163.62        78     1.513     1.050 -50.32   3
        17    390.7415   1022.4458 307.7387604  +6.2544171     805.1371     846.0461     738.9756     80.50974     144.6455     261.1957      1.193     3.55     925.2274     56.61283      139.613         8     1.001     0.588 -58.46  24
        18    207.1557   1022.3615 307.8149729  +6.2482891      4329.55     5733.492      5749.28     80.25456     145.8459     262.4883      1.427     3.37     925.4191     56.61283     735.2069        18     1.259     0.768 -53.87  24
        19    612.2496   1002.5560 307.6474753  +6.2700486     543.1135     466.0984    -10.52737     80.50974     160.5091     321.2099      1.110     3.46     923.9684     56.61283     87.24475         5     0.739     0.469 -16.60   0
        20    947.5621    998.4987 307.5084065  +6.2829272     7399.042     10786.69      10829.5     80.50974     160.5091     321.4014      1.621     3.47     916.3112     56.61283     932.3016        33     1.416     1.079 -54.05   0
        21    701.9939    999.2210 307.6103307  +6.2744275     1166.403     1439.022     2404.202     80.12666     160.3813     320.9863      1.244     3.10     920.9942     56.61283     204.3328         9     0.959     0.608 -54.66   0
        22    232.1041    998.2910 307.8054297  +6.2590630     1524.912     1921.059     1856.987     80.50974     161.1468      321.146      1.330     3.62     925.2971     56.61283     263.1821        14     1.228     0.705 -57.07   0
        23    707.3696    996.5010 307.6081904  +6.2757300     3090.168     4308.063      4631.02     80.50974     160.3813     321.2418      1.523     3.38     920.8488     56.61283     479.2466        17     1.222     0.790 -60.18   0
        24    430.3633    997.5844 307.7231508  +6.2660081     948.0684     1211.735     1116.932     80.12666     160.4452     320.9224      1.304     3.67     924.8149     56.61283     136.9156         7     0.921     0.526 -62.55   0
        25    723.1027    995.7232 307.6016850  +6.2765771     1177.671     1546.723     1647.225     80.12666      160.892     321.2418      1.395     3.89     920.5099     56.61283     188.6011        12     1.163     0.684 -59.85   0
        26    301.1774    995.4312 307.7768524  +6.2625630      408.388     812.1377     647.8464     79.99857     160.4452     320.9863      1.907     3.61     925.3683     56.61283     77.50018         5     1.008     0.373 -84.98   0
        27    354.1041    993.7913 307.7549363  +6.2650162     2001.916     2633.285     2673.214     80.25456     160.2533     320.9863      1.339     3.45     925.3495     56.61283     379.2534        13     1.304     0.612 -62.15   0
        28    963.9300    991.8955 307.5018328  +6.2861989     656.9297     888.0523     385.3256     80.38226     160.7007     321.1779      1.467     5.05     915.1929     56.61283     99.78607         8     1.073     0.673 -75.28   0
        29    201.8969    992.2502 307.8181735  +6.2605417     529.6689     700.3202     634.2089     80.38226      160.573     321.3376      1.407     3.87     924.6249     56.61283     105.4148         5     0.869     0.494 -53.21   0
        30    506.8192    985.1497 307.6918302  +6.2737034     1219.166     1736.369     1865.206     79.99857     160.7007     320.9863      1.441     5.27     924.1639     56.61283     199.8661        14     1.561     0.643 -60.20   0
        31    740.7766    983.5938 307.5947555  +6.2821749     9052.361     12636.53     12873.29     79.99857     160.3813     321.0502      1.463     3.26     919.9507     56.61283     1329.519        30     1.389     0.895 -60.17   0
        32    536.2488    984.1052 307.6796479  +6.2751204     4910.425      6575.85     6785.316     80.38226     160.5091     321.3376      1.419     3.24     923.7219     56.61283     772.2816        23     1.454     0.741 -63.50   0
        33    286.5685    982.7446 307.7833453  +6.2673093     17172.97     24009.18     25859.12     80.38226     160.7007      321.146      1.515     3.39      925.243     56.61283     2932.642        50     1.776     0.995 -42.99   0
        34    802.1192    982.9935 307.5693089  +6.2844726     1283.419     1823.646     1295.652     80.12666     160.1893     320.9863      1.501     3.66     919.2588     56.61283     207.0585        13     1.216     0.717 -68.61   0
        35    410.8425    983.4261 307.7317320  +6.2711979     1152.656     1511.533     1330.444     80.12666     160.6369     321.0182      1.330     2.98     924.7432     56.61283     177.2246         9     1.001     0.584 -63.25   0
        36    112.6719    983.0443 307.8555238  +6.2613422     611.6676     618.7485     658.2228     80.38225     160.6369     321.2099      1.283     5.39     923.7197     56.61283     105.0157         7     1.276     0.642 -81.65   0
        37    257.9348    980.4203 307.7953105  +6.2673073      1092.66     1438.349     1235.377     80.12666     160.6369     321.0182      1.358     3.73     925.0026     56.61283     161.5839        11     1.115     0.657 -71.20   0
        38    902.1678    977.0915 307.5279708  +6.2902494     9722.088     14168.28     14835.26     80.63703     160.4452     321.2099      1.525     3.24     916.5591     56.61283     1552.202        36     1.398     1.063 -57.28   0
        39    533.4731    976.3386 307.6810618  +6.2782334     9932.244      13397.2     13786.93     80.63703     160.6369     321.2099      1.422     3.12     923.5818     56.61283     1554.848        31     1.370     0.883 -58.99   0
        40     31.8984    976.1987 307.8892858  +6.2614504     569.7335     794.8874     702.6283     79.99857     160.3173     320.8585      1.485     4.46     924.4991     56.61283     109.3525         5     1.128     0.502 -59.29   0
        41    875.7304    973.2328 307.5390762  +6.2909599     13671.44      19973.9     21123.47     80.38226     160.6369     321.2099      1.575     3.35     916.8188     56.61283     1825.795        46     1.509     1.104 -52.80   0
        42    997.4866    972.6614 307.4885463  +6.2952578     5188.707     7713.172     7846.531     80.63703     160.8283     321.2099      1.599     3.44     912.7576     56.61283     721.0525        30     1.410     1.037 -59.26   0
        43    588.5826    973.5562 307.6582769  +6.2812273     1485.528     1972.788     2292.685     79.99857     160.5091     320.9543      1.377     3.73     923.1434     56.61283     248.2335        13     1.233     0.648 -53.97   0
        44    519.8522    972.1787 307.6868566  +6.2794943     4952.362     6533.939     7856.157     79.99857     160.6369     320.9863      1.396     3.13     923.6635     56.61283     859.7135        21     1.232     0.811 -57.95   0
        45    629.4473    971.6957 307.6413745  +6.2833630     1487.105     1914.729      1684.52     80.38226     160.5091     321.3376      1.281     3.10     922.3157     56.61283     272.7902        11     1.051     0.698 -69.62   0
        46     54.9336    970.5927 307.8799133  +6.2645396     1090.135     1196.992     966.6072     79.99857     160.3813     321.0182      1.275     3.43     924.2052     56.61283     169.5833        12     1.130     0.700 -45.76   0
        47    784.8080    970.3811 307.5769196  +6.2891005     578.2059     607.0657     947.3116     80.12666     160.3173     321.0182      1.261     2.41     918.9446     56.61283     103.3508         5     0.706     0.455 -18.29   0
        48    473.0045    968.6952 307.7064227  +6.2793626      2609.16     3509.756     3256.255     80.25456     160.3173     320.9543      1.385     3.61     924.1622     56.61283      474.285        14     1.274     0.632 -52.82   0
        49    907.5214    960.8407 307.5262937  +6.2971364      49044.3     70251.03     72907.53     80.38226     160.6369     321.2099      1.536     3.25     915.8234     56.61283     7359.851        63     1.492     1.131 -58.36   0
        50    214.7895    959.1222 307.8139411  +6.2746494     1880.616     2599.283     2494.033     80.12666     160.2533     321.0182      1.431     4.35     924.0538     56.61283     333.2249        17     1.557     0.637 -51.74   0
        51    613.8353    957.2178 307.6483432  +6.2888169     910.7505     1285.857     1232.809     79.99857     160.4452     320.9543      1.445     3.38     922.2769     56.61283     156.9768         8     1.018     0.505 -53.27   0
        52    102.7500    957.9009 307.8604932  +6.2713871     635.4989     896.1117     995.1711     80.50974     160.6369     321.3376      1.517     4.06     923.6243     56.61283     135.9694         6     1.041     0.453 -60.05   0
        53    753.5831    952.5683 307.5904817  +6.2954101     7674.862     10732.33     11380.94     80.12666     160.3813     321.0502      1.543     3.22     918.9778     56.61283     1167.875        34     1.667     0.944 -64.54   0
        54    805.3612    954.6454 307.5689154  +6.2962828     2833.145     3650.355      3932.34     80.25456     160.6369     321.0821      1.383     3.17     917.9139     56.61283     427.2708        17     1.231     0.746 -61.08   0
        55    540.0712    951.8152 307.6791488  +6.2885774     1001.025     1487.776     1172.455     79.99857      160.573     321.0821      1.510     4.40     922.9512     56.61283     160.3071         9     1.166     0.544 -46.21   0
        56    223.0158    951.4683 307.8107847  +6.2780852     1760.473     2197.263     2130.279     79.99857      160.573     321.0821      1.376     3.32     923.9077     56.61283     255.4877        12     1.100     0.682 -48.21   0
        57    187.8333    950.7263 307.8254153  +6.2772092      1038.74     1531.329     1936.883     80.38226      160.573     321.1779      1.736     4.28     923.6495     56.61283      160.595        12     1.268     0.702 -51.14   0
        58     48.0087    949.3606 307.8835066  +6.2730706     3134.248     4322.168     4899.164     79.87025     160.4452     320.9224      1.415     3.27     924.2421     56.61283     508.9047        18     1.266     0.756 -56.66   0
        59    941.7995    947.6025 307.5125066  +6.3037448     7543.279     11166.57     11058.76     79.87026     160.1893     320.9224      1.545     3.20     914.1068     56.61283     1031.442        31     1.432     0.970 -58.80   0
        60    197.7665    943.7488 307.8215275  +6.2804232     720.5805     1042.044     1569.094     80.38226     160.7007     321.0821      1.690     3.44     923.5837     56.61283     133.9358         8     1.099     0.552 -48.28   0
        61    624.2733    942.0765 307.6445195  +6.2954164     950.4883      1254.58     934.1315     80.76411      160.892     321.2099      1.333     3.63     921.4728     56.61283     163.7991         9     1.004     0.677 -44.76   0
        62    915.7191    939.1415 307.5236186  +6.3063674     2319.031     3261.881     2948.593     80.50974     160.7007     321.1779      1.509     3.38     914.6384     56.61283     314.5801        17     1.199     0.856 -56.85   0
        63    775.2809    935.7645 307.5820383  +6.3030718     1686.906     2253.086     2480.948     80.38226     160.7007     321.1779      1.471     3.79     917.8901     56.61283     253.9417        15     1.199     0.835 -58.06   0
        64    248.5545    935.2643 307.8007301  +6.2856318     5180.312     7222.282     7273.525     80.50974      160.573     321.1779      1.443     3.18     923.9636     56.61283     786.2683        25     1.373     0.824 -58.64   0
        65    636.3123    935.1407 307.6397548  +6.2986824     5418.037      6864.55     6626.249     80.50974     160.7007     321.2737      1.312     2.96     920.9193     56.61283      885.437        21     1.235     0.781 -50.80   0
        66    986.0360    934.4660 307.4945813  +6.3106430      799.076     1312.274     1850.062     80.38226     160.6369     321.2418      1.981     5.35     911.6758     56.61283     117.6717         8     1.180     0.685 -35.09   0
        67    458.2780    933.6609 307.7137175  +6.2933307     1340.128     1700.877     1606.727     80.63703     160.7007      321.146      1.311     3.32     923.5748     56.61283     261.6785        11     1.204     0.588 -41.52   0
        68     17.2967    932.6118 307.8968231  +6.2789504     2430.941     3447.651     3860.614     80.25456     160.3813     320.9863      1.416     3.37     924.6241     56.61283     401.5089        17     1.286     0.711 -60.56   0
        69    867.9196    931.4540 307.5437219  +6.3079453     1074.161     1375.073      1251.09     80.50974     160.6369     321.2418      1.413     3.24     916.2023     56.61283     192.8333        11     0.967     0.830 -46.43   0
        70    959.7215    929.5533 307.5056714  +6.3117934     609.4025     809.9904      838.837     80.50974     160.7007      321.146      1.297     3.81     912.5088     56.61283     103.8221         5     0.980     0.425 -80.69   0
        71    992.4769    927.3920 307.4921444  +6.3137779     904.5845     1807.628     2028.815     80.12666     160.1253     320.9863      2.238     6.52     911.1824     56.61283       111.03        14     1.622     0.735 -73.46   0
        72    938.9784    928.9171 307.5143049  +6.3113641     815.1835     932.6434     756.1863     80.25456     160.3173     321.0502      1.342     3.94     913.2634     56.61283     125.8178         6     0.762     0.585  43.68   0
        73    561.1142    927.4841 307.6712322  +6.2993258     1852.772     2629.486     2362.627     80.25456     160.8283     321.2099      1.411     3.59     922.0813     56.61283     323.7094        16     1.325     0.722 -58.47   0
        74    284.5734    928.8028 307.7859953  +6.2895086      909.682     1295.463     1365.934     79.99857     160.3813     320.9863      1.323     2.87     924.6572     56.61283     180.0451         7     0.911     0.479 -80.95   0
        75    600.3173    924.1752 307.6550678  +6.3020042     1303.891     1857.489     1568.842     80.38226     160.3813     321.1779      1.343     3.07     921.4219     56.61283     259.7899         9     1.043     0.550 -56.13   0
        76     50.0555    924.3916 307.8835022  +6.2834460      828.312     1137.616     1742.285     79.87025     160.5091     320.8904      1.471     3.23     924.1084     56.61283     164.1554         9     0.986     0.619 -54.11   0
        77     44.6422    923.8392 307.8857681  +6.2834919     509.7958     751.5408      672.073     80.25456     160.7007     321.0502      1.351     2.25      924.175     56.61283     121.1066         5     0.731     0.421  67.40   0
        78    280.2543    921.7343 307.7880271  +6.2922813     1900.512      2649.58     3060.652     80.50974      160.573      321.146      1.518     3.54     924.4298     56.61283     316.9849        14     1.107     0.816 -40.77   0
        79    547.8082    920.0109 307.6770081  +6.3019650      663.968     883.7636     333.9257     79.99857     160.3813     321.1141      1.506     3.91     922.0245     56.61283     81.85083         6     0.944     0.464 -51.37   0
        80    746.9074    918.0898 307.5944124  +6.3094195     1156.865     1616.002      1590.11     80.50974     161.1468     321.2099      1.371     4.28     918.1444     56.61283       190.85         9     1.031     0.608 -57.22   0
        81    884.5684    914.4896 307.5373792  +6.3155040      8152.15     11091.74     11364.42     80.63703     160.4452      321.146      1.472     3.11     914.9408     56.61283     1234.726        32     1.401     0.970 -62.82   0
        82    122.3947    916.3854 307.8537425  +6.2891844     607.2918     687.2053     1135.766     80.12666     160.3173     321.0182      1.254     3.40     923.3419     56.61283     100.5229         5     1.052     0.318 -68.29   0
        83    420.3876    911.5338 307.7301943  +6.3011941     2587.747      3197.57     3252.598     79.99857     160.4452     321.0821      1.352     3.12     923.7388     56.61283     450.8906        16     1.237     0.743 -57.88   0
        84     94.0821    913.0933 307.8656076  +6.2895911     633.6548     655.6831     189.8098     80.25456      160.892     321.2737      1.379     3.93     923.4168     56.61283     92.78009         6     0.965     0.457 -39.69   0
        85    589.0168    911.4887 307.6601866  +6.3068628     638.8544     862.9948     779.7112     80.25456     160.3813     321.0502      1.288     3.76     921.2039     56.61283     98.38849         6     1.190     0.340 -49.79   0
        86    322.0976    909.8962 307.7710555  +6.2985726     11205.52     14988.83     15139.59     80.50974     161.2104     321.0182      1.394     3.15     924.4027     56.61283     2085.205        33     1.335     0.891 -60.75   0
        87    242.1954    908.8127 307.8042638  +6.2963369      8362.86      11128.7     11131.25     80.12666     160.3813     321.0502      1.357     3.05     923.5419     56.61283     1422.792        25     1.292     0.819 -59.64   0
        88    160.9415    906.9487 307.8380592  +6.2943758     403.9264     737.4674     609.2982     80.50974     160.6369     321.1779      1.912     3.77     923.2094     56.61283     104.7162         5     1.235     0.330 -63.48   0
        89    754.8718    903.1606 307.5916077  +6.3158485     794.7261     925.6489     1092.402     80.38225     160.6369     321.2418      1.282     4.40     917.3848     56.61283     139.0863         8     1.081     0.510 -55.29   0
        90    570.2596    903.3746 307.6682473  +6.3095842     1385.857     1840.247     1580.293     80.12666     160.6369     321.0182      1.294     3.22     921.1793     56.61283     241.6207        12     1.110     0.673 -55.91   0
        91    900.1147    899.6684 307.5314222  +6.3221410     1150.693     1362.066     1793.121     80.63703      160.892     321.2099      1.408     3.83     913.9727     56.61283     198.9103        11     1.158     0.771 -82.32   0
        92    132.6894    899.3481 307.8500451  +6.2965632     726.9814     945.0837     1158.356     80.50974     160.4452     321.2737      1.308     3.59     923.2103     56.61283     141.3788         7     1.068     0.414 -60.08   0
        93    856.8093    898.6183 307.5494374  +6.3211289     865.0842     1262.926     1297.803     80.25456     160.3813     321.0182      1.326     4.29     915.1896     56.61283     126.6782         8     1.033     0.598 -60.32   0
        94    204.3054    898.7210 307.8203349  +6.2992295      666.386     834.9785      767.112     80.25456      160.892     321.2099      1.183     4.54     923.2045     56.61283     115.9573         8     1.213     0.483 -44.56   0
        95    398.8917    897.8703 307.7395795  +6.3061134     646.0005      770.221     848.6851     80.50974     160.7645     321.2099      1.055     2.78     923.5901     56.61283     136.6796         6     0.886     0.447 -56.03   0
        96    967.6644    895.1519 307.5035277  +6.3262592      852.855     1301.739     1464.494     80.38226     160.5091     321.2099      1.692     3.72     911.2693     56.61283     168.4095         8     1.089     0.611 -83.03   0
        97    829.5669    893.7171 307.5609128  +6.3222423     621.9863     767.8154     712.7908     80.50974     160.5091      321.146      1.599     4.86      915.508     56.61283     92.45801         6     1.303     0.514 -35.73   0
        98    736.6870    892.7007 307.5995094  +6.3195584     1904.418     2646.823      2045.85     80.50974     161.0832     321.2418      1.472     3.53     917.4252     56.61283     292.5747        17     1.302     0.831 -57.96   0
        99    560.4202    893.1411 307.6726771  +6.3134790     899.3466     1201.197     1197.362     80.12666     160.5091     320.9863      1.460     3.45     920.9512     56.61283     160.2621        10     1.078     0.647 -68.49   0
       100    612.5897    888.6271 307.6511695  +6.3170889      886.119     1005.086     615.3116     80.12666     160.4452     321.0502      1.355     3.69     920.2963     56.61283     156.0681         9     0.899     0.878 -54.10   0
       101    600.8954    889.0153 307.6560116  +6.3165372     906.2123     1141.615     796.8304     80.25456     160.3813     320.9863      1.308     2.88     920.4655     56.61283     193.4352         8     0.847     0.679 -36.05   0
       102    521.7179    888.3927 307.6889053  +6.3141428     1315.504     1838.718     2193.348     80.12666     160.2533     321.0182      1.394     3.14     921.3953     56.61283     225.9899        10     1.087     0.586 -52.52   0
       103    655.0978    885.8699 307.6336137  +6.3196495     2891.779     3727.196      3569.74     80.38226     160.8283     321.1779      1.370     3.14     919.1634     56.61283     536.0095        18     1.267     0.742 -52.64   0
       104    736.8543    884.5292 307.5997147  +6.3229372     380.8416      513.313     565.3723     80.38226     160.5091      321.146      1.020     4.29     917.1011     56.61283     87.48145         5     0.921     0.570 -45.11   0
       105    816.1014    882.3141 307.5668866  +6.3264997      1079.13     1188.255     1327.183     80.50974     161.0832     321.2418      1.292     3.88     915.4655     56.61283     158.4126        11     1.106     0.669 -53.32   0
       106    968.0432    888.3954 307.5035972  +6.3290609      1367.67      2010.26     2306.784     79.87025     160.3173     320.8904      1.482     3.25     911.0866     56.61283      219.175        10     0.974     0.720 -42.56   0
       107     69.2346    881.3574 307.8769969  +6.3018549     2318.475     3270.763     2809.792     80.25456     160.6369     321.0182      1.419     3.17     923.3785     56.61283     369.8853        15     1.244     0.698 -68.22   0
       108     51.3308    882.1482 307.8844028  +6.3009260     3123.115      5478.57     5233.455     80.38226     160.5091     321.1141      1.760     6.96     923.5845     56.61283     954.0842        21     1.645     0.826 -33.84   0
       109    933.1605    881.1523 307.5183234  +6.3308872     880.6823     1359.412     1192.588     80.38226     160.6369     320.9863      1.585     3.57      912.473     56.61283     147.7405         7     1.022     0.486 -65.67   0
       110    195.2904    880.7852 307.8246838  +6.3063301     2626.628     3644.743     3861.577     80.25456     160.4452     321.0182      1.420     3.41     923.1489     56.61283     456.4512        18     1.348     0.734 -56.24   0
       111    229.2477    877.7002 307.8106905  +6.3087445     931.9639     1051.721     1273.385     80.50974     160.5091     321.4014      1.194     4.42     923.2072     56.61283     164.0126         8     1.158     0.484 -62.66   0
       112    787.2170    875.9256 307.5790939  +6.3281719     965.0269     1644.509     1759.589     79.99857     160.3813     321.0502      1.839     5.25     915.9129     56.61283     155.7938        11     1.396     0.557 -56.98   0
       113    649.7944    875.0933 307.6361783  +6.3239206     8267.488     10837.88     11270.89     80.12666     160.3173     320.9543      1.349     3.20     919.0123     56.61283     1366.055        25     1.275     0.847 -56.57   0
       114    334.2513    876.8962 307.7671239  +6.3126024      1065.25     1486.257     1597.987     80.38226      160.573     321.4014      1.426     2.99     923.7926     56.61283     210.0511         8     1.006     0.489 -40.73   0
       115      9.8479    873.0762 307.9019315  +6.3032743     1439.071     1763.256       1468.4     80.38226     160.7007      321.146      1.393     3.61     923.8973     56.61283     227.5903        12     1.221     0.652 -46.82   0
       116    887.5549    871.3555 307.5375876  +6.3334093     3312.453     4665.948      4758.33     80.50974     160.6369      321.146      1.463     2.97     913.3728     56.61283     512.9867        22     1.318     0.855 -59.89   0
       117    762.0652    872.3530 307.5896568  +6.3288061     535.5329     465.6956      241.081     80.38225      160.573     321.2099      1.371     4.70     916.1934     56.61283     114.6082         5     1.070     0.586 -76.05   0
       118     22.9211    871.6425 307.8965527  +6.3043062     1163.535     1593.635     1665.633     80.38226     160.6369     321.1779      1.511     3.94     923.7496     56.61283     205.2912        11     1.301     0.572 -58.05   0
       119    332.8120    868.1736 307.7680159  +6.3161546     19123.12     25467.18     26508.09     80.12666     160.4452     321.1141      1.362     3.19     923.6258     56.61283     3420.693        38     1.375     0.875 -58.33   0
       120     67.5275    869.0697 307.8781215  +6.3068695     1537.674     1918.295     1785.673     80.63703     160.7645     321.1779      1.400     3.42     923.2554     56.61283     271.3855        15     1.261     0.732 -58.94   0
       121    203.8592    867.7076 307.8215685  +6.3120162     1413.525     1817.041     1380.484     80.38226      160.573     321.3056      1.383     4.04     923.1216     56.61283     227.8016        13     1.275     0.658 -64.14   0
       122    383.1979    867.2408 307.7471286  +6.3182303     706.1663     758.1733     735.0729     79.87026     160.3813     320.9224      1.257     3.37     923.0418     56.61283     116.3105         5     0.936     0.351 -44.36   0
       123    662.2743    860.0982 307.6315014  +6.3305280     538.4399     657.5702     774.5137     79.99857     160.7007      321.146      1.209     3.46     918.2413     56.61283     118.0225         5     1.015     0.341 -46.40   2
       124    664.1084    855.2059 307.6309045  +6.3326089     962.0763     1442.924     1527.273     80.12666     160.3173     320.9543      1.690     4.33     917.9681     56.61283     182.0674        11     1.289     0.706 -67.20   2
       125    410.3523    859.1728 307.7361269  +6.3224715     1274.738     1591.503      1475.33     80.12666     160.7007     321.1141      1.252     2.81     922.3164     56.61283     243.3552         9     1.027     0.534 -70.01   0
       126     96.1832    858.7357 307.8665747  +6.3120992     1953.552      2776.63     3045.933     79.99857      160.573     321.0502      1.439     3.34     922.8118     56.61283     347.5349        16     1.152     1.024 -59.38   0
       127    491.1010    855.8231 307.7027145  +6.3265613     737.6257     1021.649     1230.452     80.63703     160.3813     320.9863      1.540     4.03     921.3399     56.61283     165.6191         8     1.236     0.583 -38.22   0
       128    877.9587    853.0613 307.5421862  +6.3406408     2273.184     3339.841     3602.548     80.50974     160.6369     321.2099      1.468     3.31     913.0837     56.61283     386.8179        16     1.223     0.791 -72.07   0
       129    848.5945    852.6970 307.5543906  +6.3398108     2394.072     3053.911     2578.431     80.25456     160.3173     320.9543      1.340     3.28     913.8259     56.61283     387.1979        15     1.167     0.736 -51.93   0
       130     79.7593    852.3677 307.8736087  +6.3141752     2819.836     3974.935     4540.032     80.12666     160.5091     321.0502      1.468     3.23     922.7924     56.61283     471.6299        18     1.275     0.844 -58.35   0
       131    812.0564    851.9353 307.5695868  +6.3389049     3517.547     4620.076      5315.16     80.63703      160.573     321.1779      1.386     3.26     914.7915     56.61283     598.1652        18     1.233     0.761 -52.52   0
       132    547.8992    843.4092 307.6795510  +6.3335885     390576.1     518407.8     535688.5     80.25456     160.2533     320.9863      1.396     7.56     919.7328     56.61283     64068.67       142     1.513     1.058 -57.94   4
       133    442.6306    849.9620 307.7230363  +6.3273560     667.0781     959.1805     1107.907     80.12666     160.3813     321.0182      1.708     3.46     921.7407     56.61283     133.6907         5     1.004     0.344 -47.84   0
       134    232.2028    849.7742 307.8104074  +6.3203711     553.5942     1217.416     1731.791     79.99857     160.3173     320.9863      1.881     3.76     923.1136     56.61283      74.2193         5     1.193     0.340  12.28   0
       135    392.1613    845.9001 307.7441273  +6.3273402     9029.382     12274.92     12428.34     80.50974     160.5091     321.4014      1.390     3.39     922.2976     56.61283     1577.171        30     1.411     0.809 -58.39   0
       136    635.7773    846.5627 307.6429583  +6.3352288     1453.775     1983.089     1929.936     80.12666     160.3813     320.9543      1.413     3.37     918.3931     56.61283     231.5582        11     1.112     0.611 -55.96   0
       137    335.3413    844.3492 307.7677702  +6.3260738     14716.19     19688.15     20535.02     80.50974     160.6369     321.1779      1.372     3.12     923.0875     56.61283     2469.977        34     1.384     0.853 -57.75   0
       138    234.7908    842.5703 307.8095764  +6.3234317      566.722     1287.135     2793.105     79.99857     160.4452     320.9863      5.532     7.66     923.1011     56.61283     80.63953        10     1.504     1.092 -53.35   0
       139    886.2743    839.6339 307.5391844  +6.3464612     6065.338      8319.72      9524.17     80.38226     160.6369      321.146      1.449     3.07     912.5447     56.61283     1039.845        25     1.323     0.845 -53.22   0
       140    725.3840    837.5736 307.6060562  +6.3419367     967.5049     1259.495     1177.422     80.12666     160.4452     321.1141      1.213     4.04     915.7631     56.61283     172.0556         7     1.110     0.421 -62.08   0
       141    737.8221    835.8766 307.6009489  +6.3430530      438.087     646.4928     1280.128     80.12666     160.5091     321.1141      1.433     3.42     915.4171     56.61283     99.83472         5     1.515     0.223 -63.58   0
       142   1019.6856    833.7867 307.4839866  +6.3533254     5227.715     7527.631     8086.007     80.12666     160.4452     297.4712      1.520     3.16     907.8436     56.61283     727.9532        26     1.331     0.942 -60.50  16
       143    628.6110    834.7076 307.6463329  +6.3398826     3964.792     5210.791     5720.915     80.25456     160.3173     321.0182      1.374     3.23     918.1239     56.61283     641.9913        18     1.289     0.684 -60.86   0
       144    653.7706    840.7990 307.6356816  +6.3382101     4096.134     5361.667     5259.836     79.87025     160.4452     320.9863      1.374     3.36     917.6356     56.61283     660.4246        17     1.218     0.746 -50.22   0
       145    817.2292    833.8000 307.5680485  +6.3465638     1884.029      2549.82     2916.251     79.74174     160.3813     320.9543      1.445     3.89     914.1837     56.61283      308.083        16     1.268     0.803 -50.51   0
       146    618.9738    833.5424 307.6503734  +6.3400411     1225.936     1487.813     1822.429     80.12666     160.6369     321.0182      1.219     3.10     918.3847     56.61283     227.0349         9     1.011     0.595 -43.79   3
       147    621.4029    829.2738 307.6495086  +6.3418845     2514.214     3721.374     4186.876     79.99857     160.1253     321.0502      1.508     4.07     918.1379     56.61283     444.3773        18     1.532     0.636 -54.75   3
       148    171.7189    834.2349 307.8360438  +6.3247528     651.7505     1088.467      1051.08     80.38226     160.6369     321.1779      1.761     3.97      922.959     56.61283     103.3671         6     0.807     0.558 -39.59   0
       149    944.0409    832.6927 307.5154321  +6.3512543     897.0107     1316.051     1299.209     80.63703      160.573     321.2737      1.654     3.93     910.5446     56.61283     133.5997         9     0.990     0.631 -56.30   0
       150    905.0621    827.4420 307.5317928  +6.3521212     3583.854     4850.625     4710.074     80.50974      160.573     321.2737      1.457     3.40     911.6008     56.61283     517.7146        22     1.307     0.864 -56.28   0
       151    315.1256    828.1258 307.7767111  +6.3320920     1114.308     1381.062     1209.544     80.76411      160.892     321.2737      1.411     4.17     923.0177     56.61283     210.5457         9     1.256     0.449 -52.10   0
       152    363.2053    823.3502 307.7569104  +6.3356770     3131.866     4219.902     5090.377     79.87026     160.4452     320.7945      1.429     3.23     922.1374     56.61283     508.6221        17     1.281     0.705 -60.23   0
       153    331.7169    815.6693 307.7702433  +6.3377908     635.4189     700.4578     503.3479     80.76412      160.892     321.2099      1.442     4.79     922.5031     56.61283     113.4742         7     1.489     0.437 -62.44   0
       154    499.5008    813.2429 307.7006623  +6.3444194     3537.626     4681.255     4966.617     80.50974     160.5091     321.4014      1.381     3.25     920.0892     56.61283     534.8717        18     1.348     0.748 -67.34   0
       155    844.0801    812.1627 307.5576266  +6.3563925     1077.688     1604.097      1327.75     80.38225     160.7007      321.146      1.312     4.20     913.0104     56.61283     186.7644         9     1.177     0.520 -47.82   0
       156    564.7882    810.5829 307.6736446  +6.3477045     666.3041     746.8788     850.2393     80.12666     160.3173     321.0821      1.119     4.02     918.8664     56.61283      132.141         6     1.040     0.444 -56.38   0
       157    546.3605    809.1984 307.6813425  +6.3476588     6916.502     9187.224      9563.09     79.61303     160.3813     320.8585      1.342     3.04     919.2684     56.61283     1149.364        25     1.301     0.836 -49.07   0
       158    258.1239    809.2894 307.8010136  +6.3379533     923.8008     1424.584     1129.453     80.50974      160.892     321.2418      1.439     4.48     923.1025     56.61283      170.748         8     1.179     0.484 -56.70   0
       159    553.1906    808.6301 307.6785257  +6.3481222     1540.381     2078.296     2648.709     79.99857     160.4452     320.9863      1.411     4.10      919.105     56.61283     251.2616        10     1.089     0.602 -62.94   0
       160    464.1127    808.1642 307.7155267  +6.3453298     1911.905     2139.078     2692.269     80.50974     160.5091     321.1779      1.270     3.10      920.425     56.61283     328.3041        13     1.132     0.657 -59.42   0
       161    882.0825    807.0215 307.5420201  +6.3597836     1491.859     2008.914     1853.228     80.25456     160.3173     321.0821      1.486     4.70     911.8143     56.61283     216.7939        15     1.339     0.751 -71.64   0
       162    245.2713    807.3983 307.8064137  +6.3383021     430.1755     859.4528      1631.61     79.99857     160.1893     321.0182      2.988     6.17     923.0018     56.61283     76.91193         7     1.088     0.982 -55.43   0
       163    681.9066    806.3796 307.6251577  +6.3533594     847.5237     1103.645     1000.583     80.38226     160.4452     320.9863      1.322     4.42     915.3522     56.61283     147.1352         9     1.096     0.546 -59.72   0
       164    517.0222    803.0718 307.6937303  +6.3492050     23010.37     30690.95     31325.72     80.12666     160.4452     321.1779      1.379     3.27     919.6086     56.61283     4087.869        39     1.378     0.890 -59.34   0
       165    358.0829    804.6418 307.7596687  +6.3432277     862.4398     1273.873     1340.176     80.50974     160.6369     321.1141      1.492     4.61     921.6809     56.61283     148.7459         8     1.351     0.447 -63.14   0
       166    930.6418    801.4022 307.5220458  +6.3637239     4431.319     6176.616     6229.558     79.87026     160.3173     320.8904      1.436     3.34      909.788     56.61283     679.7446        21     1.287     0.847 -54.51   0
       167    105.9577    807.4292 307.8642529  +6.3336061      1559.09     2155.293      2355.17     80.12666      160.573     321.0502      1.405     3.23     921.8939     56.61283     284.3242        11     1.106     0.593 -55.04   0
       168    402.6356    799.0203 307.7413603  +6.3470429     536.8647     623.0203     429.6236     79.99857     160.4452     320.9543      1.348     4.89     920.8506     56.61283     82.88409         6     1.245     0.545 -64.97   0
       169     50.8116    798.8447 307.8874387  +6.3352940     617.5471     1084.231      851.293     79.99857     160.5091     320.8904      1.657     4.50     921.5795     56.61283     87.17682         7     1.099     0.524 -67.17   0
       170    684.6946    795.5397 307.6243648  +6.3579274      535.177     753.7998     453.1537     80.38226     160.6369     321.2737      1.193     4.08     914.9376     56.61283     95.24408         6     1.089     0.437 -56.28   0
       171     27.3173    793.6171 307.8973699  +6.3366609     1636.172     2356.547      2682.69     80.12666     160.3173     321.1141      1.465     4.05     921.4666     56.61283     280.0674        16     1.485     0.639 -59.52   0
       172    309.5994    791.7985 307.7802324  +6.3469018     3824.479      4921.96     4575.634     79.87026     160.1893     320.8585      1.353     3.03     922.5153     56.61283     623.3764        19     1.227     0.822 -60.97   0
       173    775.1760    787.6531 307.5870606  +6.3642081     64186.66     85493.06     88493.65     79.99857     160.6369     320.9863      1.396     3.15     913.5181     56.61283     11621.72        58     1.406     0.980 -59.66   0
       174      9.6076    789.7262 307.9048543  +6.3376708      2437.58     3562.385     3127.237     80.12666     160.1893     321.0502      1.499     3.31     921.3506     56.61283     418.7728        20     1.436     0.828 -52.83  16
       175    713.8576    789.5020 307.6124590  +6.3613950     712.7913     1121.874     1274.887     80.25456     160.6369     321.3695      1.763     4.15     914.3999     56.61283     131.2792         7     1.109     0.444 -49.27   0
       176    232.5574    785.1237 307.8124452  +6.3470696     6087.658     9158.324     11831.01     80.38226     160.6369     321.2099      1.866     3.62     922.6737     56.61283     1060.484        37     2.031     0.985 -63.94   0
       177    418.7758    786.2428 307.7350900  +6.3528586     1040.121     1438.244     1608.223     80.12666     160.5091     321.0182      1.459     3.42     920.3109     56.61283     181.2123         8     1.014     0.499 -56.98   0
       178    900.4527    782.8887 307.5352026  +6.3703588     10092.36      13351.6     13809.66     80.50974     160.4452     321.3056      1.380     2.98     910.4596     56.61283      1713.81        27     1.330     0.824 -62.02   0
       179    703.4197    782.2788 307.6170360  +6.3640276     25146.74     33631.55     35032.59     80.12666     160.3173      321.146      1.389     3.09     914.3019     56.61283     4207.671        45     1.412     0.925 -59.46   3
       180    697.1362    778.7328 307.6197644  +6.3652813     103972.3     136855.8     141821.6     80.50974     160.6369     321.2418      1.373     3.27      914.279     56.61283     18905.89        70     1.439     0.958 -58.29   2
       181    341.9976    779.5500 307.7671943  +6.3530453     23987.05     32043.46      33230.8     79.87025     160.2533     320.7625      1.388     3.37        921.4     56.61283     3924.715        40     1.411     0.872 -58.99   0
       182    201.4081    781.4357 307.8255028  +6.3475451     648.8466     1001.346     1240.149     79.99857     160.4452     320.9224      1.848     5.39     922.4806     56.61283     96.08783         8     1.344     0.609 -39.00   0
       183    403.8674    777.4422 307.7415769  +6.3559913     25812.32     34219.84     35478.87     80.50974      160.573     321.2418      1.388     3.34     920.3123     56.61283     4275.107        41     1.391     0.896 -57.07   0
       184    391.2656    779.6161 307.7467359  +6.3546712     1842.821     2496.239      2333.92     79.99857     160.5091     321.0502      1.378     3.61     920.5717     56.61283     290.9827        14     1.152     0.732 -59.33   0
       185    630.9221    778.7031 307.6472587  +6.3630783     939.7261     1326.893     2000.281     80.25456     160.8283     321.2418      1.423     4.22     915.9806     56.61283     142.5804        10     1.044     0.626 -58.39   0
       186    941.0391    776.3243 307.5185703  +6.3744230     2351.177     3381.082     3422.177     80.38225     160.6369     321.2418      1.421     3.76     909.0071     56.61283     396.0878        18     1.366     0.770 -74.20   0
       187    231.9833    763.9146 307.8134004  +6.3558050     734571.9      1513838      1652749     80.12666     160.3813     321.1141      2.133     6.36     922.3921     56.61283      62747.1       500     2.331     1.911 -62.86   4
       188    897.3739    774.3322 307.5367684  +6.3737882     8043.509     10568.15     10821.28     80.12666     160.5091     321.0821      1.384     3.05     910.3142     56.61283     1278.667        25     1.278     0.838 -61.93   0
       189    870.0098    775.3602 307.5480963  +6.3724503     965.0286     1261.768     894.1119     79.87025     160.4452     320.9224      1.413     4.04     911.3002     56.61283     143.5881         8     0.978     0.590 -60.10   0
       190    426.5873    771.1713 307.7323551  +6.3593419     1815.893     2197.857      2311.96     79.99857     160.4452     321.0821      1.338     3.26     919.8138     56.61283     308.0949        13     1.115     0.734 -62.11   0
       191    151.9762    770.5606 307.8463942  +6.3503724     890.6921     1104.209     559.9558     80.12666     160.3813     320.9543      1.401     3.27     921.9172     56.61283     158.9902         9     0.975     0.625 -55.73   0
       192   1020.6131    765.9192 307.4858775  +6.3813721     772.5325     843.9815     889.1019     80.12666     160.1253     286.4766      1.328     5.07     907.4701     56.61283     109.5875         8     1.255     0.578 -69.47  16
       193    590.9584    765.3000 307.6643038  +6.3672732     1034.171     1251.911     914.6833     80.50974     160.5091     321.4014      1.298     3.16     916.5178     56.61283     216.1398         8     1.022     0.508 -53.83   0
       194    117.1306    764.3661 307.8610713  +6.3517574     1307.901     1898.855     2234.701     80.38226     160.6369     321.2418      1.387     3.84     921.4551     56.61283     238.0411        10     1.080     0.626 -74.01   0
       195    637.9739    773.3295 307.6445116  +6.3655325     7500.114     10026.27     10528.19     80.12666     160.5091     321.1141      1.382     3.30     915.5344     56.61283      1238.45        25     1.307     0.821 -57.34   0
       196    672.9993    763.4416 307.6303011  +6.3707860     2904.152     3859.761     4096.444     79.87025     160.3173     320.8265      1.381     3.38     914.0083     56.61283     462.5333        17     1.262     0.697 -62.20   0
       197    142.2852    764.2089 307.8506326  +6.3526683     1171.099     1767.653     1416.889     80.12666     160.3173     321.0182      1.541     3.28     921.6612     56.61283     223.7819        11     1.123     0.588 -52.27   0
       198    949.6472    761.9738 307.5154776  +6.3806341     868.6367     1108.552     1194.081     80.12666     160.7007     321.0502      1.305     4.93     908.5646     56.61283     132.6786         8     1.202     0.573 -62.31   0
       199    406.8314    760.1027 307.7409313  +6.3632482     62242.18     83576.55      86533.4     80.63703     160.4452     321.2737      1.399     3.20      919.865     56.61283     10871.18        61     1.451     0.957 -55.80   0
       200    524.5710    759.1499 307.6920763  +6.3675885     8163.993     10578.37     11080.82     80.12666     160.7645     321.0821      1.329     3.07     917.3715     56.61283     1376.535        23     1.335     0.737 -59.00   0
       201    441.3667    757.7764 307.7266704  +6.3653667     5144.416     7187.507     7745.502     79.99857     160.4452     320.9863      1.445     3.00     919.1949     56.61283      930.507        24     1.341     0.805 -61.29   0
       202    769.7735    755.7496 307.5903765  +6.3771971     13431.46     17698.82     18231.08     80.12666     160.7007     321.1141      1.372     3.18     912.5708     56.61283      2027.34        32     1.324     0.858 -56.51   0
       203    437.9511    751.1442 307.7283123  +6.3679899       2571.4     3698.262     4155.838     80.50974     160.6369     321.2418      1.407     3.56     919.0544     56.61283     461.5348        15     1.247     0.679 -56.98   0
       204    791.7162    749.6915 307.5814688  +6.3804312      1420.67     1758.658     1830.816     80.25456     160.9558     321.3056      1.326     3.67     911.8668     56.61283     228.6605        12     1.184     0.621 -63.09   0
       205    127.5731    747.7043 307.8572994  +6.3589863     13560.39     18414.82      19956.5     80.63703     160.3813     321.0821      1.426     3.05     921.2612     56.61283     2234.493        35     1.373     0.908 -59.28   0
       206    135.6896    747.9451 307.8539213  +6.3591598     3575.816     5046.702     5165.134     80.50974     160.4452     321.3056      1.457     3.08     921.2897     56.61283     562.5414        21     1.216     0.956 -54.06   0
       207    915.2874    744.3658 307.5303362  +6.3867561     7510.831     9886.966     9917.388     80.50974     160.5091     321.1779      1.392     3.14     908.8981     56.61283     1276.204        27     1.376     0.826 -58.18   0
       208    119.6761    745.0323 307.8606686  +6.3598236     3438.141     4948.377     6118.267     80.38225     160.6369     321.1141      1.533     3.17     921.1862     56.61283     590.7443        22     1.333     0.834 -54.11   0
       209    964.2815    744.4104 307.5099903  +6.3883724     1636.865     2140.985     2977.517     80.12666     160.3173     321.0182      1.439     3.78     908.0482     56.61283     273.7172        12     1.241     0.654 -53.53   0
       210    670.9484    741.9060 307.6318775  +6.3796072     1969.587     2713.131     3171.442     80.38226      160.573     321.4333      1.373     3.80     913.3846     56.61283     298.5331        15     1.319     0.651 -56.17   0
       211    557.6185    741.2523 307.6789573  +6.3760835     2715.448     3393.311     3766.581     79.99857     160.7007     320.9543      1.318     3.27     915.8041     56.61283     435.1961        16     1.213     0.717 -57.72   0
       212    405.3878    740.6836 307.7421860  +6.3712158     1254.893     1911.829     2062.411     80.12666     160.4452     321.0182      1.538     4.52     919.4413     56.61283     242.3928        15     1.513     0.748 -71.86   0
       213    689.1298    739.6301 307.6244045  +6.3811549     600.0196     631.5802     669.8335     80.38226     160.6369      321.146      1.084     3.12      913.166     56.61283     131.7717         7     0.837     0.605  36.50   0
       214    119.8171    738.4909 307.8608315  +6.3625284     2350.967     3265.584     3974.674     80.25456     160.3813     321.0821      1.527     3.38      921.078     56.61283     358.1722        16     1.267     0.731 -73.69   0
       215    969.8013    735.6584 307.5079919  +6.3921694     2163.633     2749.402     2891.525     79.87026     160.2533     320.8904      1.383     3.56     907.8481     56.61283     309.2604        19     1.267     0.861 -55.96   0
       216    939.0021    735.8245 307.5207756  +6.3910733     3540.423      4634.84     4718.178     80.12666     160.3173     320.9863      1.387     3.23     908.1636     56.61283     614.1387        16     1.222     0.714 -57.35   0
       217    909.4896    736.2764 307.5330153  +6.3899020     3476.054     4547.194     4481.766     80.50974      160.892     321.2418      1.352     3.09     908.8774     56.61283     580.0245        17     1.172     0.802 -60.94   0
       218    661.8658    735.4407 307.6358665  +6.3819721     1709.458     2318.712     2538.226     80.50974      160.573     321.2737      1.399     3.66     913.4507     56.61283     269.4741        14     1.323     0.628 -49.91   0
       219    808.9392    733.8821 307.5748485  +6.3875327     1226.866     1540.844     1882.271     80.63703     160.6369     321.1779      1.312     4.32     910.9851     56.61283     215.8828        11     1.293     0.607 -59.06   0
       220    884.4678    731.5934 307.5435627  +6.3909999     692.6655     822.6823     1076.495     79.99857     160.3813     320.9863      1.246     3.63     909.5576     56.61283     139.1657         6     0.942     0.403 -69.80   0
       221    234.8020    729.9081 307.8133795  +6.3699369     2085.149     3734.125     5960.883     79.87025     160.3173     320.8904      3.214     6.27     921.7407     56.61283     338.3931        25     1.985     0.950 -70.20   2
       222    673.3109    722.9936 307.6315330  +6.3874931     1250.584     1753.425     2741.447     79.99857     160.3173     320.9543      2.208     4.55      912.716     56.61283     195.6917        11     1.279     0.568 -66.92   2
       223    927.4170    725.9631 307.5259173  +6.3947576      1261.19     1654.009     1496.785     79.99857     160.5091     320.9224      1.368     2.98     908.0982     56.61283     210.2867        12     1.073     0.672 -52.87   0
       224    254.6096    725.8373 307.8052927  +6.3722827     829.2583     825.3085      859.491     79.87025     160.4452     320.8585      1.235     4.54     921.4687     56.61283     141.1915         8     1.306     0.449 -50.35   0
       225    901.1647    725.0203 307.5368501  +6.3942706     1257.537     1855.584     2103.432     79.99857     160.4452     320.9863      1.587     3.87     908.8819     56.61283     228.8848        12     1.158     0.795 -62.63   0
       226    149.8277    725.6630 307.8488050  +6.3688329     939.3573     1138.347     966.3434     80.12666     160.6369      321.146      1.317     3.71     920.8658     56.61283     152.7632         9     0.933     0.646 -64.46   0
       227    953.9421    723.6071 307.5149818  +6.3966152     2849.796     3681.507     3970.467     79.87025     160.5091     320.8904      1.403     3.37     907.7314     56.61283     471.0926        21     1.275     0.816 -58.87   0
       228    995.5590    717.0297 307.4979211  +6.4007184     1903.208     2533.895     2561.009     80.12666     160.5091     321.0502      1.445     3.23      907.129     56.61283     292.6249        14     1.136     0.752 -65.04   0
       229    394.8411    717.5641 307.7473454  +6.3804053      711.812     1017.297     984.3296     80.25456     160.6369     321.0182      1.594     5.52     918.9036     56.61283     126.1831         8     1.589     0.541 -48.44   0
       230    797.0350    715.4941 307.5804097  +6.3947255     1317.335     1753.413      1948.97     80.63703     160.5091     321.2737      1.446     3.43     910.8521     56.61283     230.5345        11     1.205     0.604 -54.97   0
       231    622.0685    716.9132 307.6530155  +6.3882883     732.8161     1159.629     1362.627     80.63703      160.892     321.2099      1.363     2.84     914.0984     56.61283     137.6588         7     0.869     0.509 -42.12   0
       232    883.3390    712.7947 307.5446628  +6.3987223     1783.477     2638.806     2895.297     79.87026     160.5091     320.9543      1.598     3.40     909.1864     56.61283     300.3723        16     1.185     0.828 -49.87   0
       233    240.8369    712.5859 307.8114592  +6.3772899     715.0029     1369.292     1949.135     80.12666     160.4452     320.9543      2.231     6.03     921.0518     56.61283      95.4624        11     1.250     0.819  59.85   0
       234    857.7174    708.3832 307.5554504  +6.3996878     936.7259     1564.843      1948.83     80.12666     160.3173     321.1141      2.026     4.35     909.7612     56.61283     181.1853         8     1.201     0.557 -72.60   0
       235    643.7368    706.9994 307.6443517  +6.3931059     672.2119     890.7808      1400.38     79.74174     160.4452     320.9224      1.337     3.80     913.0782     56.61283     125.5059         5     0.872     0.476 -48.88   0
       236    840.3115    704.1737 307.5628197  +6.4008442     1844.042     2469.728     2273.223     80.63703     160.3813     321.0502      1.390     3.39     909.9692     56.61283      353.441        15     1.247     0.740 -47.01   0
       237     39.3066    703.1025 307.8954576  +6.3744266     2775.463     3928.247     3993.006     80.50974     161.2104     321.0821      1.526     3.16     920.3536     56.61283     479.0547        25     1.522     0.868 -48.23   0
       238    103.0520    702.0966 307.8690241  +6.3769871     1003.809     1881.315     2203.838     80.38226     160.6369     321.4333      2.093     7.01     920.6171     56.61283     141.1252        18     1.656     0.832  79.36   0
       239    451.8945    702.0463 307.7241788  +6.3887244     514.6312     796.7167     528.0793     80.38226      160.573     321.3056      1.526     3.66     917.1294     56.61283     93.60822         5     0.989     0.389 -30.52   0
       240    557.1558    698.0856 307.6806039  +6.3938868     612.1312     676.1385     772.0646     80.50974     160.5091      321.146      1.323     4.09     914.6827     56.61283     110.1078         6     1.157     0.413 -61.64   0
       241    694.7903    695.1192 307.6235519  +6.3997180     584.5482     473.9886     416.8629     80.12666     160.2533     321.0182      1.117     3.61     911.5967     56.61283     119.7941         5     0.766     0.660 -72.25   0
       242    651.9035    691.6055 307.6414788  +6.3997337     7360.603     9647.175      9685.47     80.25456     160.3173     320.9543      1.375     3.41      912.338     56.61283     1153.826        24     1.316     0.790 -56.12   0
       243    598.7257    690.9774 307.6635818  +6.3982130     1581.704     2139.507     2167.494     80.12666     160.4452     321.1141      1.331     3.73     913.7067     56.61283     245.2667        12     1.218     0.605 -60.68   0
       244    520.0047    691.5284 307.6962516  +6.3953489     883.6943      1097.64     472.8514     80.12666     160.2533     321.0502      1.352     3.76     915.2795     56.61283     139.3191         8     1.128     0.498 -62.66   0
       245    509.4780    691.3270 307.7006295  +6.3950794     1014.464     1250.097     888.5686     80.76412      160.892     321.2099      1.156     3.68     915.4767     56.61283     183.2079        10     1.068     0.689 -40.06   0
       246    115.0248    687.4989 307.8645468  +6.3834155     4226.235     5819.034     5699.188     80.63703     160.3813     321.0182      1.476     3.67     920.3525     56.61283     634.8458        25     1.321     0.962 -63.82   0
       247    988.9305    686.8848 307.5016850  +6.4129411     2920.174     4023.369     4077.065     80.63703      160.892     321.2099      1.436     3.12     906.4877     56.61283     488.7959        17     1.176     0.779 -58.10   0
       248    625.8435    687.1729 307.6524494  +6.4006913     2395.099     3104.415     3388.485     80.12666     160.7007     321.0821      1.350     3.42     912.8912     56.61283     369.9543        14     1.171     0.692 -60.87   0
       249    301.3917    687.6909 307.7871568  +6.3896001     761.8355     848.6162     655.0524     80.12666     160.3173     320.9543      1.139     2.75     919.7992     56.61283     132.5869         5     0.725     0.440 -68.43   0
       250    237.1693    687.4229 307.8138326  +6.3875535     827.8505     1072.698     1205.779     79.87026     160.3813     321.0182      1.447     3.43     920.0617     56.61283     180.9997         7     1.034     0.496 -49.47   0
       251    861.9498    686.0063 307.5544446  +6.4090663     2429.777     2343.993      2092.08     79.99857     160.4452     320.7625      0.438     1.81     909.2516     56.61283     1892.489         5     0.324     0.323  34.10   0
       252    768.7789    683.7604 307.5932100  +6.4068807     23302.21     30696.81     31714.29     80.12666     160.4452     320.9543      1.363     3.19     910.4728     56.61283     3698.276        39     1.350     0.879 -57.19   0
       253    467.7880    684.0684 307.7181856  +6.3966783     1713.723      2390.68     2358.872     79.99857     160.4452     321.0821      1.510     3.85     916.1313     56.61283     255.2183        14     1.276     0.681 -66.13   0
       254    898.7957    683.5073 307.5392280  +6.4113280     4229.466     5551.762     6147.862     80.12666     160.3173     320.9224      1.370     3.23     908.0514     56.61283     663.4327        23     1.287     0.814 -55.76   0
       255    496.2948    683.9045 307.7063539  +6.3977015     1050.607     1233.023     1113.331     80.50974     161.2741     321.0821      1.430     4.75     915.5278     56.61283      165.122         9     1.059     0.605 -64.68   0
       256    313.7429    683.3927 307.7821734  +6.3917890     759.1344     1083.282     801.7209     79.87026     160.5091     320.9224      1.523     5.40     919.4167     56.61283     116.5913         9     1.195     0.687 -51.29   0
       257    269.9224    683.6605 307.8003599  +6.3902069     634.8673     780.6778     598.8021     80.63703     160.7007      321.146      1.285     4.00     919.9056     56.61283     103.8305         7     1.033     0.510 -65.23   0
       258    540.1857    682.0527 307.6881909  +6.3999365     472.8274     351.3842     198.2355     79.87025      160.573     320.9224      1.196     3.94     914.6559     56.61283     85.54224         6     0.929     0.478 -52.23   0
       259     76.9311    679.8234 307.8806238  +6.3853020     503.4921      991.081     598.3914     80.12666     160.5091      321.146      1.340     3.76     920.3607     56.61283     88.78986         5     1.783     0.228 -51.56   0
       260    649.3148    676.5605 307.6430602  +6.4058575     8185.609     10948.54     11629.84     80.50974      160.573      321.146      1.422     3.10     911.9161     56.61283     1431.379        27     1.381     0.794 -58.22   0
       261    242.3036    677.3324 307.8120418  +6.3918912     7177.658     9527.554      9701.85     80.50974     160.7007     321.1779      1.393     3.18     919.6719     56.61283     1121.754        24     1.329     0.797 -59.98   0
       262    631.8593    677.7695 307.6502680  +6.4047743     980.8735      1154.76     1070.676     80.25456     160.6369      321.146      1.282     2.75     912.4053     56.61283     171.8257         8     0.922     0.569 -60.44   0
       263    344.7605    676.3003 307.7695334  +6.3957579     746.6938     922.8699     842.1697     80.50974     160.5091     321.4014      1.182     3.14     918.7001     56.61283     144.5107         6     0.766     0.523 -56.34   0
       264    909.2577    669.2949 307.5353607  +6.4175441     1453.255     2079.635     1556.239     80.38226     160.6369     321.3376      1.308     3.31     907.3536     56.61283     245.1564        11     1.112     0.600 -56.55   0
       265     30.3693    668.8832 307.9003274  +6.3882505     458.4154     575.2509     473.4724     80.50974     160.4452     321.0502      1.281     3.47     920.2361     56.61283     83.56561         5     0.792     0.440 -72.46   0
       266    721.0498    665.0076 307.6136607  +6.4130261     4099.703     5732.344     6339.782     79.99857     160.3813     320.8265      1.455     3.19      910.358     56.61283      667.248        24     1.370     0.844 -65.15   0
       267    676.0052    665.5487 307.6323476  +6.4112961     1158.857     1503.256     1446.643     79.87025     160.5091     320.8265      1.341     3.80     910.9641     56.61283     201.8725        11     1.144     0.616 -54.33   0
       268    987.3591    661.6121 307.5031855  +6.4233213     10315.22     13825.52     14177.93     79.87026     160.4452     320.8585      1.421     3.09     905.8687     56.61283     1685.609        28     1.274     0.902 -57.21   0
       269    925.7554    662.0662 307.5287525  +6.4210787     2877.003     3522.124     3841.082     80.50974      160.573     321.2099      1.344     3.28     906.5721     56.61283     436.0394        16     1.199     0.727 -58.44   0
       270      6.6626    661.2705 307.9104287  +6.3905945     2239.012     3244.114     3931.916     80.50974     160.6369     310.8246      1.590     3.44     920.1042     56.61283     357.7529        19     1.292     1.045 -65.95  16
       271    728.2848    662.5637 307.6107385  +6.4142769     450.8564     482.1415     1460.153     80.50974     160.6369      321.146      0.841     3.39     910.2407     56.61283      109.188         5     0.757     0.438 -22.10   0
       272    540.2792    659.7249 307.6889047  +6.4091564     798.8199      1129.31     730.3291     80.76412      160.892     321.2737      1.656     5.13     914.0825     56.61283     121.8243        10     1.266     0.826 -82.38   0
       273    525.9301    657.5314 307.6949371  +6.4095811     2460.651     3041.997     3101.006     80.50974     160.7645      321.146      1.293     3.41     914.2654     56.61283     386.6731        11     1.104     0.583 -60.06   0
       274     64.7237    656.3399 307.8864876  +6.3945846     29384.11     39845.22     41259.93     80.63703     160.7007      321.146      1.424     3.10     920.0171     56.61283     4659.675        43     1.410     0.932 -58.26   0
       275    915.5419    653.8030 307.5332713  +6.4241489     1124.508     1500.299     1183.016     79.87026     160.5091     320.9224      1.279     3.37     906.6447     56.61283     210.6264        12     1.217     0.631 -56.87   0
       276    494.5032    654.7666 307.7080804  +6.4096692      1613.25     2084.421     1756.326     80.63703     160.5091     321.2737      1.300     2.80     914.7178     56.61283     292.9136        12     1.003     0.694 -43.14   0
       277    534.8847    651.3175 307.6914281  +6.4124461     955.4285     1130.768     1260.127     80.25456      160.892     321.2418      1.307     3.22     913.9069     56.61283      213.712         9     1.080     0.520 -64.12   0
       278    710.7331    648.6119 307.6184965  +6.4194492     3999.887     5377.001     5778.879     79.99857     160.4452     321.0821      1.398     3.38     910.2396     56.61283     632.9745        18     1.218     0.742 -56.99   0
       279    732.7516    646.9456 307.6094090  +6.4208733      4757.27     6160.566     6000.351     80.50974     160.6369     321.2737      1.322     3.12     909.9789     56.61283     813.8646        20     1.254     0.732 -56.46   0
       280    564.2435    644.8243 307.6794555  +6.4161099     3826.752     5196.469     5172.621     79.99857      160.573     320.9863      1.399     3.15     913.0125     56.61283     709.2946        19     1.257     0.756 -55.14   0
       281    400.3800    645.4644 307.7474788  +6.4103530     1537.852     1839.415     2059.524     80.12666     160.6369     321.0182      1.274     2.93     916.2324     56.61283     290.7509        13     1.080     0.780 -51.51   0
       282    224.8374    644.2507 307.8204127  +6.4049597     1977.551     2880.344      3384.57     80.25456      160.573     321.1141      1.533     3.16     918.6937     56.61283     347.8984        15     1.255     0.684 -66.10   0
       283   1005.6104    643.1437 307.4962259  +6.4315537     5769.625     7845.659     7336.163     79.87025      160.573     320.8585      1.377     3.05     905.1611     56.61283     893.8138        22     1.263     0.814 -53.49   0
       284    308.3496    643.8093 307.7857500  +6.4079473     1563.724     2073.922     1983.388     79.99857     160.5091     320.8585      1.363     2.93     917.8164     56.61283     244.2976        13     1.104     0.694 -67.29   0
       285    970.9547    641.9690 307.5106571  +6.4308828     9264.849      12410.7     12555.62     80.12666     160.7007     321.0502      1.394     3.19     905.4558     56.61283     1633.387        27     1.355     0.841 -56.52   0
       286    524.7161    642.9565 307.6959325  +6.4155567      762.671     1059.791      957.585     80.50974     160.6369      321.146      1.487     3.77     913.8532     56.61283     119.7241         5     0.815     0.502 -40.05   0
       287   1020.4665    640.6633 307.4901396  +6.4330730     777.1634     920.3791     723.7721     80.50974     160.6369       288.51      1.230     4.23     904.9799     56.61283      130.187         7     1.158     0.440 -50.08  16
       288    690.8792    640.4916 307.6270144  +6.4221372       1107.1     1549.351     1370.987     80.25456      160.892     321.2418      1.401     4.18     910.2886     56.61283     184.5924         9     1.183     0.578 -54.65   0
       289     82.6119    638.5076 307.8796638  +6.4025474     1047.864     1315.758     1331.354     80.25456     160.3813     320.9863      1.609     4.71     919.7287     56.61283     154.9714        13     1.327     0.743 -52.22   0
       290    416.3848    636.1281 307.7411479  +6.4147437     3199.165     4360.798     4527.197     79.99857     160.5091     321.0502      1.448     3.31     915.6548     56.61283      520.722        19     1.398     0.728 -63.55   0
       291    129.4391    635.2873 307.8603286  +6.4054522     27693.89     37350.38     37551.06     80.50974      160.573     321.2099      1.423     3.11     919.2509     56.61283     4298.134        44     1.423     0.932 -60.75   0
       292    797.9332    635.8255 307.5827150  +6.4276424     1368.866     1874.953     2439.958     80.12666     160.5091     321.0821      1.384     3.50     909.0325     56.61283     229.2933        12     1.175     0.651 -55.32   0
       293    633.8797    635.9745 307.6508364  +6.4220945     617.7603     784.6738     109.8067     80.25456     160.4452      321.146      1.397     3.71     910.9827     56.61283     104.3961         6     0.907     0.470 -55.09   0
       294    348.6651    630.6694 307.7694529  +6.4147247     640.7791     966.8546     854.0356     80.50974     160.7007     321.1779      1.505     3.51     916.2508     56.61283     113.9904         6     0.863     0.488 -45.52   0
       295    965.8417    624.9219 307.5133525  +6.4377493     7849.882     11513.36     12158.17     80.38225     160.6369     321.2418      1.540     3.13     905.0036     56.61283     1276.127        32     1.283     1.124 -75.16   0
       296   1021.2432    620.0738 307.4905078  +6.4415982     106187.8     142462.1     145946.2     80.38226     156.8247     278.4154      1.415     3.11     904.4274     56.61283     17478.07        65     1.424     0.978 -60.50  24
       297     10.6467    624.0512 307.9100354  +6.4060918     1322.348      1822.37     1840.838     80.63703     160.5091     321.2418      1.465     3.26     919.4911     56.61283     210.7243        12     1.090     0.710 -58.50   0
       298    559.4753    620.1468 307.6822671  +6.4261368     55305.04     73714.57     76353.98     80.50974     160.6369     321.1779      1.390     3.09     912.3644     56.61283     8331.772        58     1.409     0.959 -57.37   0
       299    923.7773    622.0759 307.5309167  +6.4375207     758.6901     810.7321     667.3861     80.12666     160.5091     321.0821      1.135     2.83     905.3688     56.61283     165.8184         6     0.864     0.467 -53.33   0
       300    203.0538    621.4517 307.8302291  +6.4136386     830.0027     1108.892      1724.68     80.63703      160.573     321.2099      1.607     5.18     918.1974     56.61283     101.8009         8     0.898     0.844 -22.21   0
       301    784.0773    620.1655 307.5889956  +6.4336438     657.8124     928.3147     620.5508     80.38225     160.7007     321.1779      1.407     3.95     908.8182     56.61283     131.5939         7     0.935     0.610 -73.25   0
       302    518.5983    620.0793 307.6992442  +6.4247952     768.2133     918.4302     422.1502     79.87025     160.0612     320.9543      1.338     4.80     913.3074     56.61283     127.9337         9     1.231     0.530 -72.47   0
       303    166.9773    616.9246 307.8453627  +6.4142944     3169.282     4365.205     4768.387     80.12666     160.5091     321.0821      1.438     3.37     918.3571     56.61283     509.1707        18     1.261     0.795 -54.10   0
       304    970.0276    616.8599 307.5118848  +6.4412169     695.1413     1066.033      956.249     80.12666     160.7007     321.1141      1.480     4.45     904.7387     56.61283      116.803         7     0.890     0.639 -51.18   0
       305    489.4697    617.0434 307.7114426  +6.4250722     692.8231     861.9476     556.8085     80.38226     160.6369     321.2418      1.325     3.76     913.7896     56.61283     120.3859         6     0.830     0.489 -81.61   0
       306     59.6615    611.0322 307.8901239  +6.4131160     1469.976     1948.116     2389.564     80.25456     160.7007     321.1141      1.364     3.21     919.2623     56.61283     233.1947        13     1.182     0.655 -60.45   0
       307    456.7368    603.9119 307.7254784  +6.4293954     70333.62     95045.09     98107.88     80.38226     160.8283     321.2099      1.398     3.19     913.8757     56.61283     11378.96        69     1.450     0.999 -59.11   0
       308      1.1776    604.8194 307.9146189  +6.4137112     1041.269     1279.322     1320.198     67.48098     124.9388     239.0108      1.095     2.63     919.2845     56.61283     311.8558         6     0.917     0.367  82.59  24
       309    642.6554    601.1575 307.6483645  +6.4367605     1032.375     1447.168     1773.095     80.38226     160.6369     321.2099      1.400     4.48     909.8892     56.61283     157.2383        10     1.108     0.596 -52.63   0
       310    131.2205    599.0092 307.8608167  +6.4204869     1781.926     2316.719     1419.297     80.12666     160.3813     320.9863      1.368     3.04      918.524     56.61283     337.0197        14     1.164     0.737 -64.31   0
       311    926.0212    596.9802 307.5308275  +6.4479550     766.7344     972.9958     911.0201     80.25456      160.573     321.1141      1.245     3.13     904.5079     56.61283     134.9035         7     0.863     0.536 -42.77   0
       312    410.4173    596.6771 307.7449574  +6.4308284      996.768     1378.845      931.494     79.99857     160.3813     321.0821      1.465     3.62     914.2639     56.61283     180.1987         8     1.070     0.512 -49.82   0
       313      3.2748    594.9644 307.9140820  +6.4178498     875.6021     1371.488     2013.371     80.38226     152.7162     271.8925      1.675     5.68      919.373     56.61283     159.7357        11     1.541     0.732 -54.91  24
       314    602.7884    595.3765 307.6651150  +6.4378123     822.4773     1154.382     1153.697     80.12666     160.4452     321.1141      1.376     4.40     910.1931     56.61283     139.5095         8     1.091     0.505 -57.83   0
       315    302.0460    593.2997 307.7900740  +6.4285851     2490.445     3379.157     3812.158     80.50974     160.5091     321.4014      1.467     3.54      915.639     56.61283     345.1229        22     1.408     0.845 -64.17   0
       316    484.7800    594.7659 307.7141414  +6.4341109     629.9434     861.2005     1000.485     79.99857     160.4452     320.9863      1.306     3.44     913.0677     56.61283     108.6281         5     0.982     0.348 -41.83   0
       317    454.4797    592.0908 307.7268144  +6.4341993      988.908     1348.402      1544.55     80.25456     160.8283     321.2418      1.480     3.33     913.4634     56.61283     154.5726         9     0.959     0.762 -59.85   0
       318      9.7289    593.4970 307.9114517  +6.4186728     687.3638     810.1906     1043.016     80.38226     160.7645     321.2099      1.208     3.00     919.3541     56.61283     157.9309         5     0.891     0.498  -3.12   0
       319    728.8292    587.5074 307.6130375  +6.4452780     6088.652     8022.464     7829.212     80.63703     160.3813     321.0821      1.392     3.20     909.1147     56.61283     1007.193        23     1.281     0.811 -57.01   0
       320    782.3024    582.7538 307.5909907  +6.4490278        16274      21159.8      21454.6     80.50974     160.5091     321.3376      1.329     2.97      908.038     56.61283     3015.096        31     1.327     0.818 -56.26   0
       321    999.7617    583.0314 307.5006717  +6.4561730      1084.45     1424.567     621.0948     80.12666     160.3813     321.0182      1.339     4.80     903.0154     56.61283     175.9836        12     1.339     0.655 -63.36   0
       322    524.7192    582.5129 307.6979689  +6.4405073     1418.715     2162.168     2666.558     80.25456      160.892     321.3056      1.755     4.40     911.7922     56.61283     192.6893        14     1.338     0.665 -68.87   0
       323   1022.1193    581.7577 307.4914293  +6.4574443     2329.182     2815.939     3340.357     80.50974     148.4941     266.1743      1.318     3.27     902.6666     56.61283     394.1053        14     1.091     0.729 -48.88  24
       324    617.8581    581.2166 307.6593338  +6.4441619     541.5039     542.2964     507.0582     79.87025      160.573     320.9224      1.485     4.56     909.6666     56.61283     114.4307         5     1.137     0.671 -70.96   0
       325    606.1956    580.7269 307.6641936  +6.4439736     3388.765     4400.914     3987.806     80.12666     160.1893     321.0502      1.341     3.11      909.799     56.61283     587.8024        18     1.197     0.766 -52.66   0
       326     27.2701    581.1816 307.9045852  +6.4243470      738.699      1389.06     1458.797     80.12666     160.5091     321.1141      1.961     6.17      919.283     56.61283     99.80725        10     1.301     0.824 -80.65   0
       327    923.4780    576.8827 307.5325586  +6.4561663     1194.166     1672.971     2446.248     80.63703      160.892     321.2737      1.576     3.36      903.958     56.61283     198.5986        11     1.056     0.660 -49.95   0
       328    364.6740    574.3822 307.7647057  +6.4384965     1032.271     1354.603     1436.107     79.99857     160.4452     321.0821      1.297     4.23     913.5844     56.61283     160.5355         7     0.980     0.521 -61.41   0
       329    218.6796    574.4921 307.8253284  +6.4335477     1475.036     2019.301     2268.304     80.25456      160.892     321.2418      1.470     3.21     916.2274     56.61283     240.2547        14     1.143     0.731 -47.05   0
       330    182.4211    575.1721 307.8403621  +6.4320482     872.5215     1337.415     1658.716     79.87026     160.3813      321.146      1.627     3.52     917.2575     56.61283     135.4625         6     0.990     0.445 -34.79   0
       331    858.3640    566.0200 307.5599652  +6.4584766     3175.246     4046.402     4444.768     79.99857     160.4452     320.9863      1.287     2.98     905.5826     56.61283     546.3826        15     1.188     0.666 -54.00   0
       332    154.0093    565.5404 307.8524861  +6.4350685     787.1403     1104.756     745.3165     79.87025     160.5091     320.8904      1.361     3.94     917.7834     56.61283     139.5513         7     0.860     0.623 -67.74   0
       333    817.2195    563.3761 307.5771413  +6.4581936     2929.767     3745.815     3703.297     80.25456     160.4452     321.1141      1.319     3.18     906.7271     56.61283     483.9335        14     1.144     0.678 -58.07   0
       334    787.9695    559.3231 307.5894251  +6.4588893     2892.351     3870.292     4924.244     80.38225     160.7007     321.1779      1.405     3.51     907.4019     56.61283     467.0356        17     1.262     0.745 -42.72   0
       335    730.5914    559.7068 307.6132411  +6.4568128     670.9619     1031.558     1335.003     80.12666     160.2533     320.9863      1.304     3.97     908.5494     56.61283     110.7095         6     0.856     0.526 -48.05   0
       336    245.1712    558.3049 307.8148747  +6.4411198      8751.85     12110.85     12414.38     80.63703     160.3813     321.1141      1.439     3.33     915.0715     56.61283     1407.965        28     1.407     0.827 -57.47   0
       337    797.7267    554.6440 307.5855302  +6.4611469     185330.1     241503.6     250284.7     80.38226     160.7007     321.2099      1.356     3.08     907.1025     56.61283     29074.73       106     1.456     1.038 -59.38   0
       338    849.0331    556.8003 307.5641501  +6.4619708     574.3733     663.5682     717.3287     79.74174     160.4452     320.9224      1.273     3.14     905.5742     56.61283     111.2719         5     0.803     0.483 -57.03   0
       339    179.3662    552.8870 307.8423845  +6.4411442     65700.98     91014.27     94585.48     80.50974     160.5091     321.1779      1.449     3.19     916.8683     56.61283     10640.68        62     1.468     1.017 -59.63   0
       340    727.7651    554.7877 307.6145803  +6.4587488     562.0897     867.9114      748.265     79.99857     160.4452     321.0182      1.237     3.38     908.4714     56.61283     93.88513         5     0.939     0.351 -45.58   0
       341    103.3564    549.1463 307.8740751  +6.4401315     7079.941     9881.662     10776.37     80.50974     160.6369     321.1779      1.460     3.11     917.9497     56.61283     1105.322        29     1.352     0.883 -53.34   0
       342    968.5490    546.4742 307.5148613  +6.4702228     1493.965     1968.454     2043.652     80.50974     160.7007     321.2099      1.332     3.01     901.8886     56.61283     262.4575        11     1.052     0.639 -56.34   0
       343    989.4655    545.3356 307.5062127  +6.4713905     822.6848     1049.594      822.149     80.50974     160.6369     321.1779      1.451     4.18     901.3965     56.61283     151.1826        10     1.150     0.618 -42.91   0
       344    217.6589    544.5791 307.8267638  +6.4458609     899.3348     1159.237     1588.444     80.12666     160.5091     321.0182      1.504     4.28     915.0129     56.61283     127.5445         9     1.017     0.628 -77.85   0
       345    834.3115    541.8608 307.5707662  +6.4676460     5222.909     6871.799     6805.912     80.50974     160.7645     321.2099      1.325     3.13      905.608     56.61283     935.0751        17     1.241     0.690 -59.59   0
       346    442.9787    540.1593 307.7333427  +6.4552502     990.3925     1347.356     1672.599     80.12666     160.4452     320.9863      1.393     3.01     911.6887     56.61283      176.118         9     0.921     0.646 -24.49   0
       347    154.5762    538.9068 307.8531519  +6.4460813     2150.817     2763.544     3042.087     80.63703     160.4452     321.0182      1.373     3.51     917.2708     56.61283     333.0717        15     1.281     0.662 -60.01   0
       348    788.2828    535.2290 307.5901052  +6.4688457     6603.828     8576.032     8954.209     80.38226     160.3813     321.1141      1.324     3.08     906.7324     56.61283     1112.435        22     1.247     0.779 -55.63   0
       349    519.0765    534.9363 307.7019162  +6.4599573     7339.732     9786.063     10106.22     80.76412     160.6369      321.146      1.415     3.26     909.9946     56.61283     1246.842        28     1.373     0.837 -57.02   0
       350    229.9285    536.6192 307.8219377  +6.4495589     1075.053     1340.297      996.848     80.12666     160.5091     321.1141      1.331     3.65     914.3801     56.61283     159.3704         8     1.105     0.499 -67.47   0
       351    159.8237    536.3965 307.8510578  +6.4472940     674.2051     854.4874     1882.167     80.12666     160.3173     321.0182      1.762     3.91     917.0883     56.61283     132.8657         6     1.156     0.379 -61.19   0
       352     92.0076    536.2272 307.8792252  +6.4450823     950.8396     915.5814     1135.618     80.12666     160.4452     320.9863      1.290     4.06      917.934     56.61283     180.6611        10     1.153     0.597 -57.88   0
       353    377.1910    531.5114 307.7609553  +6.4566130     1634.081     2364.867     2439.656     80.12666     160.3173     320.9543      1.526     4.01     911.8566     56.61283     256.6849        14     1.200     0.827 -67.92   0
       354    166.1119    528.0471 307.8487290  +6.4509519     7392.509     10167.82     11005.61     80.50974     160.5091     321.2418      1.420     3.16     916.5215     56.61283     1180.515        25     1.319     0.837 -59.01   0
       355    563.8332    527.9909 307.6835631  +6.4643238     2478.515     3765.739     3279.335     79.99857     160.4452     321.0182      1.508     4.08     909.0028     56.61283     390.9318        19     1.472     0.715 -46.69   0
       356    261.3317    524.5250 307.8093056  +6.4556064     98040.59     134973.4       139921     80.63703     160.7645     321.1779      1.489     3.16     913.3977     56.61283      15574.4        75     1.499     1.055 -59.07   0
       357     37.8107    526.6732 307.9020548  +6.4472015     5512.612     7947.792      7943.08     79.99857     160.2533     321.0502      1.505     3.32     918.7665     56.61283     804.1896        29     1.434     0.928 -64.68   0
       358    352.7255    540.0063 307.7708285  +6.4522853     18966.09     26301.54     27437.68     80.12666     160.1893     321.0182      1.435     3.21     912.2708     56.61283     3090.579        39     1.415     0.940 -58.19   0
       359    804.9445    527.5135 307.5834449  +6.4725874     1595.584     2025.051      2167.41     80.50974      160.573     321.3056      1.389     3.98     906.1134     56.61283     220.9691        11     1.060     0.658 -62.82   0
       360    550.7667    521.8898 307.6891953  +6.4664046     958.1184     1343.575     1583.052     80.63703     160.5091     321.1779      1.520     3.55     909.0178     56.61283     158.9251        10     1.068     0.618 -67.41   0
       361    244.9500    519.4819 307.8162791  +6.4571377     1760.015     2453.313     3210.159     80.50974     160.6369     321.2099      1.496     3.88     913.4537     56.61283     261.6416        15     1.294     0.777 -67.45   0
       362    960.8578    518.4947 307.5189948  +6.4815161     1919.864     2517.628     3354.015     80.38226     160.6369     321.3376      1.405     3.43     901.0106     56.61283     321.5114        11     1.125     0.554 -63.69   0
       363    784.4965    517.0349 307.5922895  +6.4762296     18621.94     24508.67     24540.55     80.63703     160.5091     321.3376      1.360     2.97     906.1218     56.61283     2985.633        39     1.319     0.909 -58.45   0
       364    488.1015    515.3349 307.7154410  +6.4670104     44135.74     67001.17     70319.51     80.50974     160.7007     321.2099      1.632     3.25      909.863     56.61283     6191.479        66     1.527     1.241 -48.27   0
       365    638.4558    514.0375 307.6530424  +6.4725823     981.8069     1492.721      1674.55     80.50974     160.7007     321.2099      1.709     4.50      907.683     56.61283     152.0211         8     1.011     0.570 -46.44   0
       366    200.5064    511.5689 307.8350032  +6.4589102     2181.427     2963.817     3716.291     80.63703     160.4452      321.146      1.548     4.70     914.5283     56.61283     331.2744        16     1.488     0.647 -55.69   0
       367     36.0149    512.0908 307.9032945  +6.4531602     1519.676       1925.9     2010.842     80.25456     160.4452     321.0182      1.299     3.57      918.503     56.61283     231.6017        13     1.145     0.774 -52.29   0
       368    648.0344    510.5173 307.6491829  +6.4743560     3402.433     4652.528      4540.62     80.50974     160.6369     321.1141      1.437     3.59     907.5471     56.61283     504.5129        18     1.276     0.762 -62.03   0
       369     86.7934    511.7267 307.8822201  +6.4550200     711.7713     879.9707     676.9045     80.12666     160.1893     321.0821      1.387     5.07     917.7894     56.61283     108.4868         9     1.284     0.566 -56.83   0
       370    710.2170    509.5411 307.6233907  +6.4768395     1723.197     2527.671     2566.531     80.12666     160.5091     320.9224      1.596     4.25     906.8658     56.61283     261.4511        14     1.289     0.779 -48.50   0
       371    658.1246    510.4128 307.6449958  +6.4747369     1530.881     2104.556     2451.588     79.99857     160.3173     320.9863      1.400     3.83     907.4872     56.61283     250.2443        12     1.243     0.585 -47.50   0
       372     67.1822    507.8274 307.8904961  +6.4559694     717.8238     1237.722     1786.193     80.12666     160.4452     321.0821      1.796     3.56      918.014     56.61283     131.9979         7     1.088     0.486 -50.63   0
       373    385.7680    506.1444 307.7582498  +6.4673719     2002.737     2803.764     3004.795     80.38226     160.6369     321.1141      1.393     3.28     910.5263     56.61283      332.942        15     1.223     0.682 -57.75   0
       374    317.3167    504.3355 307.7867382  +6.4658208     4322.256     5862.919     5982.166     80.63703     160.8283     321.2099      1.435     3.23     911.1936     56.61283     622.2359        20     1.239     0.828 -59.92   0
       375     63.7502    505.8211 307.8919893  +6.4566820     483.1728     810.1212     1240.333     79.99857     160.7007     321.0502      1.869     3.42     918.0249     56.61283     87.68933         5     0.969     0.349 -43.46   0
       376    860.2917    503.2439 307.5612741  +6.4844547     1852.324     2437.547     2320.131     80.50974      160.573     321.3056      1.321     2.91      903.371     56.61283     359.8227        14     1.241     0.631 -56.57   0
       377    497.2943    503.7501 307.7120140  +6.4721006     2375.162     3295.332     3257.045     80.38226     160.5091     321.3056      1.440     3.21     909.3293     56.61283     400.9912        16     1.209     0.726 -57.30   0
       378    132.4378    502.8578 307.8635654  +6.4602168     28987.03     40121.65     41035.79     80.50974     160.7007     321.1779      1.456     3.24     916.5037     56.61283     4365.004        44     1.437     0.949 -57.21   0
       379     97.5669    501.1348 307.8781048  +6.4597546     3082.897     4403.806     4076.957     80.38226     160.6369      321.146      1.459     3.15     917.5299     56.61283     454.0972        22     1.376     0.842 -64.86   0
       380    334.5068    499.3868 307.7797665  +6.4684407     1176.943     1403.198     1434.629     80.25456     160.3813     320.9863      1.298     3.14     910.6065     56.61283     186.0848         9     0.953     0.655 -54.93   0
       381    957.9766    497.4870 307.5208967  +6.4900919     6025.957     7951.438     8068.519     80.50974     160.4452     321.0182      1.383     3.29     900.3251     56.61283     989.7845        25     1.304     0.815 -54.46   0
       382    531.0052    490.0466 307.6984758  +6.4788870     1492.882     2117.807     2492.894     79.87026     160.4452     320.8585      1.504     3.67     908.3532     56.61283     230.2985        13     1.179     0.668 -67.29   0
       383    429.4486    484.0130 307.7408564  +6.4779729     46805.14     65000.51     67340.04     79.87025      160.573     320.8904      1.456     3.24     909.1942     56.61283      6774.48        58     1.470     0.993 -59.20   0
       384    637.5193    483.7168 307.6544525  +6.4850671     13733.64     18160.49     18733.13     80.38226      160.892     321.2418      1.384     3.08      906.563     56.61283      2185.02        34     1.364     0.897 -58.84   0
       385    277.3827    484.4364 307.8039949  +6.4726935     1098.282     1538.701     2043.499     79.99857     160.4452     320.9543      1.578     4.08     910.9999     56.61283     175.4195        14     1.343     0.719 -52.63   0
       386    194.6258    481.5125 307.8384620  +6.4711191     21256.79        30979     31431.63     80.63703     160.4452     321.0502      1.608     3.32     913.6096     56.61283     3057.146        44     1.405     1.170 -61.72   0
       387    971.3184    482.0866 307.5158725  +6.4968943     1367.346      1545.85     1620.798     80.25456      160.892     321.2737      1.268     3.06     899.2661     56.61283     254.1016        10     1.021     0.613 -49.15   0
       388    900.0069    481.5633 307.5455079  +6.4947305     842.6531     921.0146     659.1681     79.74174     160.3813     320.9543      1.233     3.77     901.6089     56.61283     133.0522         8     1.137     0.482 -64.00   0
       389    811.6839    481.6844 307.5821868  +6.4917307     1158.967     1543.351     1327.324     80.25456     160.7645     321.2737      1.301     3.35      904.317     56.61283     197.9835         8     0.927     0.587 -62.05   0
       390    559.3193    480.4348 307.6870407  +6.4838032     3202.907     4206.341     3754.989     80.38226     160.7007     321.2099      1.391     3.40     907.5043     56.61283     530.3052        19     1.314     0.750 -61.54   0
       391    933.1040    477.6621 307.5318927  +6.4974456     5635.443     7261.305     7537.872     80.25456     160.7007     321.2418      1.354     3.30      900.597     56.61283     978.7809        22     1.233     0.785 -56.71   0
       392    606.2297    476.1124 307.6677038  +6.4871586      7387.72     10043.36     10887.93     80.63703     160.3813     321.0821      1.423     3.23     906.2798     56.61283     1174.574        27     1.344     0.856 -52.99   0
       393     93.9922    476.4740 307.8804243  +6.4698137     1264.739     1706.644     1487.929     80.12666     160.1893     321.0502      1.412     2.87     917.2101     56.61283     214.3147        10     0.991     0.617 -61.73   0
       394    160.2455    482.6212 307.8527022  +6.4695053     1862.871     2668.824     1751.146     80.12666     160.6369     321.0182      1.528     3.83     914.7695     56.61283     277.3905        18     1.353     0.807 -56.42   0
       395    505.1646    475.1901 307.7097086  +6.4841536     598.8881     835.9372     992.3207     79.99857     160.3813     320.9543      1.491     3.83     907.9445     56.61283     77.32343         5     0.993     0.424  45.59   0
       396    955.7746    469.9505 307.5227358  +6.5013854     4143.022      5327.42     5498.338     80.12666     160.7007     321.0821      1.366     3.20     899.3762     56.61283     661.9395        19     1.184     0.803 -64.68   0
       397    394.0919    469.2512 307.7560385  +6.4828801     739.1081     1049.326     2103.491     80.38226     160.5091     321.3695      1.529     4.92     908.7321     56.61283     132.8195         8     1.200     0.571 -44.85   0
       398    518.4279    467.3739 307.7044638  +6.4878245      8394.62     11430.35     12030.51     79.99857     160.4452     321.0182      1.440     3.23      907.171     56.61283     1344.623        25     1.369     0.812 -58.02   0
       399    364.4636    467.5491 307.7684008  +6.4825884     2927.029     4184.394     4643.103     80.50974      160.573     321.2099      1.505     3.30     908.9253     56.61283     425.5062        17     1.263     0.742 -59.64   0
       400    734.0023    467.6430 307.6149222  +6.4949302     679.0615     845.5266     645.2078     79.87025     160.2533     320.8585      1.187     4.20     904.5415     56.61283     113.6826         7     1.136     0.442 -53.75   0
       401     87.6215    467.5244 307.8833730  +6.4732934     668.4885     931.5547     911.6666     80.12666     160.4452     321.1141      1.826     4.74     916.9573     56.61283     124.6697         7     1.276     0.500 -54.57   0
       402    874.9809    463.1309 307.5565213  +6.5015038     3746.734     4926.587     5322.326     80.12666     160.5091     321.1141      1.324     3.03     901.6912     56.61283     635.9559        17     1.138     0.739 -55.18   0
       403    527.7774    464.2656 307.7006856  +6.4894209     711.7889     1036.918     1585.628     80.12666     160.6369     321.0821      1.361     3.87     906.8413     56.61283     111.8303         6     0.783     0.549 -51.45   0
       404    222.9202    462.4285 307.8273571  +6.4799478     679.1284     932.0175     812.5463     80.38226      160.573      321.146      1.392     4.86     912.0425     56.61283     114.9799         7     1.088     0.615 -64.03   0
       405    882.3412    457.7424 307.5536454  +6.5039739     2571.553      3248.59     3355.843     80.50974      160.573     321.2099      1.339     3.06     901.3486     56.61283     438.6413        16     1.210     0.712 -58.07   0
       406    921.7726    456.8217 307.5372990  +6.5056703     1484.359     1856.416     1805.047     79.99857     160.4452      321.146      1.314     3.01     900.1379     56.61283     288.8099        14     1.188     0.713 -58.29   0
       407    101.6413    456.5352 307.8779229  +6.4783013      942.575      1136.43     1141.023     80.50974      160.573     321.2418      1.354     4.08      916.133     56.61283     122.6393        10     1.094     0.652 -55.87   0
       408    706.2286    453.4581 307.6269348  +6.4998567     3374.922     4483.346     4491.025     80.12666     160.7007     321.0821      1.371     3.24     904.3425     56.61283     603.3502        19     1.226     0.782 -51.05   0
       409    377.2751    451.6184 307.7636181  +6.4895943     4040.433       5706.8     5681.139     79.99857     160.3813     321.1141      1.483     3.37     908.2403     56.61283     648.7137        21     1.310     0.847 -66.68   0
       410     68.0460    452.5506 307.8920096  +6.4788153     2011.573     2704.502     3414.726     80.50974     160.5091     321.2099      1.415     3.50      916.844     56.61283     285.4819        16     1.308     0.696 -51.03   0
       411    417.4810    451.8103 307.7469136  +6.4908642     1219.058     1629.062     2029.882     80.12666     160.3173     321.0182      1.417     3.51     907.7717     56.61283     169.5961        10     1.046     0.630 -49.11   0
       412    767.6962    444.8304 307.6016957  +6.5054736      19039.9     24925.81     25630.95     80.63703     160.3813     321.2418      1.344     2.99     903.3619     56.61283     2946.868        39     1.338     0.910 -56.15   2
       413    771.7292    440.0195 307.6001824  +6.5075944      1677.45      2415.99     2410.816     80.12666     160.5091     321.1141      1.420     3.42     903.1222     56.61283     262.1586        15     1.193     0.812 -62.64   3
       414    287.3945    445.1151 307.8011661  +6.4892609     2964.202     4008.862     3970.983     79.99857     160.3173     320.9224      1.371     3.44     909.5212     56.61283     444.2583        15     1.249     0.670 -57.48   0
       415    604.9420    448.2937 307.6691759  +6.4985987     11208.85     15160.61     15979.28     80.38226     160.6369     321.3695      1.411     3.34     904.8918     56.61283     1866.647        29     1.341     0.852 -59.01   0
       416    897.4146    442.3069 307.5479034  +6.5108489     618.8184     786.7234     1064.932     80.25456     160.3813     321.0182      1.590     3.35     900.3931     56.61283       106.65         5     1.112     0.291 -68.29   0
       417    796.6380    442.0374 307.5897690  +6.5075939     1391.594     2019.081     1958.829     80.25456     160.5091     321.0502      1.447     3.36     902.9808     56.61283     204.1972        11     1.097     0.644 -55.14   0
       418    370.5788    441.5543 307.7667390  +6.4935238     1810.908     2454.155     2643.432     80.12666     160.6369     321.0182      1.468     4.50     907.9604     56.61283     274.3295        15     1.477     0.627 -56.22   0
       419    385.9786    441.9040 307.7603314  +6.4938963     625.0103     581.3455     314.6452     80.38226     160.4452     320.9863      1.129     4.21      907.748     56.61283     153.1008         7     0.944     0.535 -53.96   0
       420    952.8716    439.9168 307.5249500  +6.5136864     2372.681     3058.272     3068.227     80.76412     160.9558     321.2099      1.335     3.37     898.3033     56.61283     407.7134        16     1.209     0.770 -43.24   0
       421    701.0502    438.6714 307.6295833  +6.5057873     611.0235     774.8026     955.0308     80.50974     160.6369     321.2099      1.349     3.19     903.7168     56.61283      116.731         6     0.840     0.603 -37.15   0
       422    105.0793    436.7138 307.8771663  +6.4865988     5015.724     6982.302      7386.24     80.38226     160.9558     321.2737      1.461     3.19     915.1536     56.61283     802.1715        25     1.369     0.859 -58.75   0
       423    359.0980    437.7133 307.7716369  +6.4947240     845.4528     1021.025     1335.552     80.50974     161.0832     321.2099      1.351     4.30     908.0021     56.61283     146.6207         8     1.115     0.473 -52.37   0
       424    743.3100    435.8423 307.6121265  +6.5083685     2632.385     3394.589     3666.345     80.50974     160.6369     321.2099      1.351     3.14      903.236     56.61283     470.4465        16     1.181     0.748 -51.18   0
       425   1006.9126    434.4900 307.5026864  +6.5177293      4540.23     6959.154     7143.386     80.25456     161.0832     321.3056      1.673     3.81     895.8942     56.61283      496.116        30     1.448     1.131 -33.61   0
       426    262.9440    433.7488 307.8117048  +6.4931312     1630.257     2421.302     2405.649     80.50974     160.6369      321.146      1.516     3.71     909.9165     56.61283     283.3816        15     1.345     0.682 -57.60   0
       427    341.1068    431.4812 307.7793194  +6.4966925      3471.24     4630.143     4387.015     80.25456      160.892     321.2418      1.429     3.43     908.1044     56.61283      524.642        19     1.240     0.777 -52.24   0
       428    696.9741    429.3130 307.6315913  +6.5095140     1898.447     2435.084     2761.679     80.63703     160.4452     321.1141      1.379     3.89      903.243     56.61283     330.4491        12     1.191     0.586 -55.66   0
       429    971.0036    428.5143 307.5178018  +6.5189983     849.1758     1039.852     1359.701     79.99857     160.2533     320.8904      1.337     3.92      897.141     56.61283     159.9808         9     0.922     0.835  43.94   0
       430    229.0359    427.3916 307.8260021  +6.4946158     1071.929     1295.478     1348.668     79.99857     160.4452     320.9543      1.324     3.51     910.6647     56.61283      145.124        11     1.044     0.690 -46.91   0
       431    538.4468    422.0005 307.6976794  +6.5072249     1169.695      1657.35     2118.097     79.74174     160.3173     320.7306      1.436     3.76     903.6951     56.61283     194.6045        12     1.281     0.713 -39.97   0
       432    460.5204    420.2998 307.7301019  +6.5053148     1519.373     2084.281     1771.436     80.25456      160.892     321.2099      1.428     3.56     904.4314     56.61283     232.7852        14     1.030     0.951 -60.24   0
       433    823.1810    419.5348 307.5795012  +6.5177698     1713.031     2050.793     2235.083     80.12666     160.6369     321.0502      1.290     3.09     901.5997     56.61283     304.6548        12     1.045     0.663 -58.03   0
       434    808.7850    418.4694 307.5855164  +6.5177286     2274.665     2912.817     2847.626     79.99857      160.573     321.0821      1.391     3.34     901.7537     56.61283     376.9013        17     1.274     0.708 -50.36   0
       435    608.4013    418.5778 307.6687403  +6.5109810     878.0385     1232.267     804.5323     80.12666     160.3173     320.8904      1.503     4.52     903.4309     56.61283      125.958        10     1.202     0.620 -45.83   0
       436    974.5536    418.3274 307.5166693  +6.5233219     520.9187     799.9651     767.0222     80.38226     160.7007     321.1779      1.805     3.44     896.5378     56.61283     96.16083         5     0.753     0.455 -70.53   0
       437    706.1062    416.5565 307.6282278  +6.5150853        17309      22766.8     23665.14     80.50974     160.6369     321.3056      1.376     3.32     902.6223     56.61283     2913.654        35     1.322     0.923 -55.46   0
       438    627.2877    412.6019 307.6610974  +6.5140801     3019.399     3847.625     4450.167     79.87026     160.2533     320.8904      1.294     3.24     902.9702     56.61283     509.8683        14     1.075     0.721 -49.16   0
       439    995.6971    412.6946 307.5080763  +6.5263523     537.7219     731.9612     732.7756     80.50974     161.2104     321.0182      1.353     4.04     895.5536     56.61283     79.90289         6     0.920     0.507 -46.32   0
       440    602.3366    409.6442 307.6715603  +6.5144656     6097.228     7978.117     8570.697     80.50974      160.573     321.2099      1.379     3.09     903.0229     56.61283     1003.067        22     1.321     0.787 -49.39   3
       441    598.6334    407.0895 307.6731844  +6.5153961     16179.97     22024.74      22704.6     80.63703     160.5091     321.1779      1.397     3.10     902.8907     56.61283     2613.396        33     1.357     0.911 -56.48   3
       442    931.4235    406.5388 307.5349794  +6.5267490     4510.187     5717.452     5653.929     80.12666      160.573     321.0821      1.315     3.03     897.8822     56.61283      792.318        18     1.244     0.727 -55.12   0
       443    370.5392    402.4021 307.7680777  +6.5096838      32108.5     44504.63     45778.55     79.87026     160.3813     320.8904      1.466     3.16     906.1971     56.61283     4777.956        45     1.434     0.970 -58.24   0
       444    407.9168    403.4531 307.7525183  +6.5105043     547.7541     768.4139     136.4837     80.50974     160.6369     321.3056      1.433     4.18     905.5744     56.61283     103.6861         6     1.039     0.481 -60.29   0
       445    887.1482    402.2279 307.5535142  +6.5270505     1617.029     2233.587     2858.132     80.12666     160.7645     321.0821      1.373     3.42     899.3525     56.61283     295.9335        12     1.172     0.584 -55.34   0
       446    116.5060    401.7050 307.8736061  +6.5014340     2647.682     3685.832      3957.35     80.50974     161.2741     321.1141      1.488     3.53     913.5673     56.61283     413.5209        20     1.408     0.792 -69.59   0
       447    883.4097    398.4246 307.5551948  +6.5284957     804.1118     1489.133     1390.221     80.12666     160.4452     321.0502      1.723     4.40     899.3399     56.61283     142.1487         8     1.131     0.488  86.47   0
       448    582.0580    398.0878 307.6803723  +6.5185568     639.4243     901.3306     1442.074     80.50974     160.6369     321.3056      1.242     4.38     902.4982     56.61283     115.3837         7     1.029     0.532 -57.54   0
       449     49.9375    397.6188 307.9013909  +6.5008798     1651.238      2393.87     2433.063     80.12666      160.573     321.0502      1.476     3.58     915.8759     56.61283     234.8242        14     1.170     0.781 -55.35   0
       450    900.2466    396.8190 307.5482554  +6.5297206     5881.254     7632.424     8013.557     80.12666      160.573     320.9863      1.325     3.03     898.6533     56.61283     1105.551        22     1.288     0.754 -63.98   0
       451    228.1009    392.9594 307.8275549  +6.5087972     15147.36     21428.67     22092.21     80.50974     160.5091     321.4014      1.463     3.33     909.7073     56.61283     2422.201        35     1.427     0.940 -60.90   0
       452    956.4998    394.5332 307.5249670  +6.5325417       635.83     1093.886     1065.896     80.50974     160.7645      321.146      1.903     3.77     896.5316     56.61283     146.8759         5     1.117     0.365 -54.37   0
       453    723.0306    386.3653 307.6222145  +6.5281141     794.7314     1090.105     924.8107     80.12666     160.3813     320.9543      1.445     4.19     901.3631     56.61283     151.7061         7     1.312     0.382 -56.44   0
       454    690.9905    386.4996 307.6355179  +6.5269869     747.3444     963.6602     1150.075     80.25456     160.2533     320.9863      1.651     3.94     901.3826     56.61283     150.9711         6     1.236     0.360 -60.05   0
       455     63.9092    386.9676 307.8959492  +6.5057468     823.2991     1227.903     1169.674     80.63703     160.4452     321.2099      1.597     4.85     914.9246     56.61283     117.5979         9     1.326     0.502 -40.12   0
       456   1000.1216    386.1682 307.5071289  +6.5374499     675.6882     895.1112     813.0441     80.38225     160.6369      321.146      1.357     3.99     894.8027     56.61283     152.4987         6     0.996     0.457 -52.85   0
       457    951.4673    385.3576 307.5273654  +6.5361614     1253.857     1379.128     1536.907     80.50974      160.573     321.2418      1.217     3.49     896.3576     56.61283     217.9954        11     1.155     0.620 -49.81   0
       458    173.8289    382.9409 307.8504342  +6.5111078     924.9175     1373.463     1687.718     80.12666     160.7007     321.0821      1.596     4.22      911.478     56.61283     165.5419        12     1.265     0.771 -74.11   0
       459    341.1781    382.6284 307.7809402  +6.5168604     1442.464     1973.718     2506.617     79.99857     160.4452     321.0821      1.505     3.82     905.8297     56.61283     233.5303        10     1.102     0.573 -52.11   0
       460    128.3704    381.5787 307.8693600  +6.5101408     5805.581     7922.369     8491.212     79.99857     160.4452     321.0502      1.449     3.11     912.7994     56.61283     914.3101        26     1.333     0.903 -54.37   0
       461    621.7725    380.7768 307.6644604  +6.5270325      464.459     266.8573     173.2411     79.99857     160.5091     321.0182      1.161     3.78     901.6254     56.61283     86.67468         5     0.873     0.469  44.87   0
       462    425.9246    380.3032 307.7458206  +6.5206644     774.8895     1199.225     1467.609     80.12666     160.7645     321.2099      1.858     4.12     903.8416     56.61283     116.8226         8     0.964     0.602 -59.39   0
       463    233.1965    380.5391 307.8258587  +6.5140953     1414.052     1956.181     1805.587     79.87026     160.3813     320.8904      1.341     3.65     909.2572     56.61283      224.574        10     1.145     0.575 -55.18   0
       464    814.5381    378.2010 307.5844810  +6.5345434     732.7437     876.4305       1000.9     79.87026     160.4452     320.8585      1.142     3.20     900.4066     56.61283     160.2386         6     1.050     0.397 -55.78   0
       465    150.4799    377.1920 307.8603261  +6.5126954      2673.18     4233.227     4509.493     80.12666     160.1893     321.0182      1.604     4.29      912.137     56.61283     386.8967        24     1.599     0.847 -73.69   0
       466    546.0490    376.3752 307.6960603  +6.5263132      1159.85     1834.418     1802.369     80.12666     160.6369     321.0821      1.606     4.45     901.5555     56.61283     198.2928        10     1.207     0.570 -58.21   0
       467    962.5983    371.3670 307.5232117  +6.5423081     911.1768     1126.179     1617.871     79.74174     160.4452     320.9224      1.795     4.74     895.5283     56.61283     181.6808        10     1.378     0.486 -54.63   2
       468    373.9098    372.2763 307.7676953  +6.5222323      2241.67     3059.356      2916.87     80.50974      160.892     321.2099      1.455     3.37     904.3781     56.61283     371.2677        20     1.287     0.916 -74.34   0
       469    261.8927    372.6103 307.8142085  +6.5183325     1032.927     1651.748     1458.392     80.12666     160.2533     320.9863      1.688     3.55     908.3162     56.61283     178.4879        10     1.119     0.634 -53.69   0
       470    307.7297    370.2388 307.7952511  +6.5208513     747.6108     939.6528     63.69461     80.38226     160.6369     321.2418      1.506     4.50     906.6725     56.61283     101.1607         8     1.083     0.532 -37.05   0
       471    581.1138    368.2552 307.6817699  +6.5308398     645.4041     744.9004     803.0765     80.50974      160.573     321.3376      1.540     4.55     901.1819     56.61283      102.774         7     1.027     0.574 -77.08   0
       472    427.7436    365.7731 307.7455556  +6.5267232     8101.688     11182.21     11688.94     80.12666     160.7007     321.0182      1.461     3.31     903.0449     56.61283      1163.81        31     1.413     0.921 -63.20   0
       473     24.0966    366.5997 307.9131740  +6.5128133     3567.332     5445.678     5393.567     79.99857     160.2533     320.7625      1.649     4.52     915.4315     56.61283     552.5021        27     1.652     0.866 -52.33   0
       474    760.3755    364.8726 307.6074263  +6.5382349      2174.12     2815.418     3070.972     80.12666     160.5091     321.1141      1.332     3.37     900.4705     56.61283     339.0511        15     1.251     0.710 -49.15   0
       475    768.2833    363.1603 307.6041993  +6.5392061     14718.92     19322.36      19808.5     80.50974      160.573      321.146      1.365     3.07     900.3848     56.61283      2353.39        33     1.304     0.884 -55.68   0
       476    188.4436    364.9126 307.8449744  +6.5190409     614.9376     916.1165      1139.88     80.50974     160.5091     321.2099      1.481     4.79     910.5343     56.61283     103.9287         7     1.106     0.589 -40.53   0
       477    331.6880    361.5979 307.7855924  +6.5252227     1174.297     1612.545     1109.103     79.87026     160.2533     320.9224      1.359     3.43     905.1489     56.61283     187.2651        12     1.155     0.646 -47.37   0
       478    482.1716    359.3849 307.7231647  +6.5311856     505.9004     745.8398     570.8358     80.12666     160.4452     321.0821      1.576     3.71     900.8196     56.61283     95.48651         5     1.241     0.319 -80.34   0
       479   1012.1925    358.2296 307.5030528  +6.5493855     4234.744     5395.327     5565.206     80.12666     160.4452     320.9543      1.347     3.29     893.8868     56.61283     711.3494        21     1.258     0.790 -51.52   0
       480    942.9691    354.8245 307.5319207  +6.5484818     690.0302     763.6564     929.9435     79.99857     160.5091     320.9863      1.377     3.64     895.5081     56.61283     159.8763         6     0.921     0.500 -89.48   0
       481    176.7660    354.2976 307.8501836  +6.5230298      1006.29     1419.538     1579.048     80.50974     160.5091     321.3056      1.455     3.56     910.7497     56.61283     167.5266        10     1.161     0.598 -36.39   0
       482    893.4468    353.1336 307.5525477  +6.5475267     680.8605     1048.114      1504.53     80.50974      160.573     321.2099      1.551     3.72     897.1125     56.61283     132.8738         6     1.172     0.339 -40.69   0
       483    515.8477    351.2859 307.7094505  +6.5356576     632.1248      921.649     846.8846     80.50974      160.573     321.1779      1.551     5.09      900.489     56.61283     97.73206         5     1.205     0.608 -67.83   0
       484    384.5058    350.9734 307.7640138  +6.5313815     539.9297     1077.551     1545.605     80.63703     160.3813     321.0182      2.064     5.87     903.0819     56.61283     91.54852         9     1.660     0.585 -42.63   0
       485    475.8198    349.5213 307.7261357  +6.5350441     3463.046     4580.771     4534.011     80.12666     160.3173      321.146      1.375     3.34     900.6771     56.61283     523.2366        16     1.160     0.738 -59.40   0
       486    448.0524    350.0921 307.7376496  +6.5338773     2558.054     3413.737     3569.554     80.38226     160.5091     321.4014      1.424     3.28     901.6123     56.61283     424.0704        19     1.341     0.767 -50.20   0
       487    904.5700    349.5671 307.5480473  +6.5493703     871.2891     952.8726     673.4094     79.99857     160.3813     320.8904      1.348     4.14       896.58     56.61283     155.9073         7     1.034     0.473 -61.34   0
       488    833.7006    346.0805 307.5776016  +6.5484428     37082.63     51507.91     52926.33     80.38226     161.0832     321.2418      1.433     3.33     898.7903     56.61283     5988.769        50     1.472     0.942 -63.98   0
       489    326.1288    341.5649 307.7885783  +6.5333053     867.4203      1201.07     337.0122     80.38226      160.573     321.1779      1.409     4.76     904.6946     56.61283     133.3661         9     1.102     0.583 -57.32   0
       490     51.3169    342.2438 307.9026942  +6.5237835     742.0546     1010.227     924.6809     80.50974     160.6369      321.146      1.470     4.73     913.9327     56.61283     97.82019         8     1.031     0.616 -16.34   0
       491    605.4759    338.4735 307.6726547  +6.5439492     3148.785     4309.036     4796.472     80.76412      160.892     321.2099      1.463     3.30     899.7166     56.61283     455.9586        17     1.273     0.764 -54.21   0
       492     13.7621    338.9214 307.9184042  +6.5238899     1132.345     1687.056     1407.412     80.38226     160.7007     321.1779      1.519     4.70     914.9467     56.61283     181.1187        11     1.218     0.640 -54.21   0
       493    136.6946    336.5402 307.8674276  +6.5290116     618.0693     1049.852     804.2947     80.38226     160.6369     321.2737      1.586     4.57     911.7825     56.61283     92.52753         7     1.252     0.473 -38.16   0
       494    690.1505    332.0354 307.6377006  +6.5494410     90692.24       120756     125084.5     80.38226     160.6369     321.1141      1.394     3.23      899.093     56.61283      15215.1        73     1.429     1.004 -56.46   0
       495    848.2629    333.6981 307.5719691  +6.5540406     1495.695     2008.423     1930.546     80.25456     160.7645     321.2099      1.433     3.21     897.9348     56.61283     261.8226         9     1.059     0.527 -51.09   0
       496     69.3463    331.6975 307.8955634  +6.5287437     1431.096     1947.541     2085.659     80.38226     160.6369     321.4014      1.447     3.93     913.3105     56.61283     200.4468        14     1.172     0.823 -66.10   0
       497    552.6212    328.8053 307.6949345  +6.5461696     3001.507     4018.749     4127.149     80.12666     160.3813     320.9863      1.363     3.04     899.3256     56.61283     468.0049        16     1.221     0.709 -51.05   0
       498     89.8637    327.5903 307.8871811  +6.5311298     6774.158     9377.123     9537.544     79.99857     160.4452     320.9863      1.473     3.32     912.6458     56.61283     999.9033        28     1.373     0.900 -60.14   0
       499    931.6262    328.9378 307.5375018  +6.5587891      1055.49     1088.282     674.5547     80.12666      160.573     321.0821      1.313     3.07     895.1061     56.61283     173.1558        10     1.061     0.629 -40.84   0
       500    379.6283    329.1320 307.7667773  +6.5402335     662.5609     889.8102      790.174     80.25456      160.573     321.1141      1.359     3.85     902.6415     56.61283     131.2043         7     0.856     0.732 -24.28   0
       501    750.7896    327.4962 307.6126657  +6.5533431     636.4773     659.6821      959.941     80.25456     160.2533     320.9543      1.133     3.67     898.8638     56.61283      116.499         5     0.994     0.390 -82.64   0
       502    535.9418    324.8378 307.7019962  +6.5472485     8119.638     11241.34      11604.3     80.50974     160.7007     321.2099      1.427     3.17     899.2693     56.61283     1355.988        29     1.392     0.865 -59.48   0
       503    264.8722    322.5782 307.8146627  +6.5390848     2912.322     4312.942     3878.112     80.12666     160.4452      321.146      1.499     3.22     906.5255     56.61283     456.4164        20     1.262     0.866 -63.47   0
       504    398.7813    320.1106 307.7591267  +6.5446001     29043.97     40595.38     41709.22     80.25456     160.3813     321.0821      1.466     3.25      902.002     56.61283     4526.076        46     1.428     0.989 -57.84   0
       505    506.6388    318.5687 307.7143791  +6.5488541     1341.207     1756.356     1682.239     80.12666     160.3813     321.0182      1.434     3.92     899.5222     56.61283     198.7336        13     1.296     0.654 -60.50   0
       506    378.6830    318.5933 307.7675259  +6.5445519     1340.028      1938.63     2683.573     80.12666     160.3173     321.0502      1.529     3.96     902.4362     56.61283     202.0289        13     1.155     0.741 -55.02   0
       507    577.2741    319.5714 307.6850058  +6.5508072     737.8777     811.1008     991.8823     80.38226     160.6369      321.146      1.102     2.49     898.8248     56.61283     126.2684         5     0.703     0.450 -22.35   0
       508    665.3397    318.2618 307.6484702  +6.5542964      564.261     770.4907     1191.218     80.50974     160.6369     321.2099      1.354     3.45     898.4866     56.61283     96.24701         5     1.155     0.297 -35.84   0
       509    478.0145    315.5341 307.7263709  +6.5491471     1334.749     1877.523     1923.515     79.99857     160.5091     321.1141      1.454     4.31     900.0176     56.61283     197.6835        10     1.073     0.597 -58.50   0
       510    375.4062    312.7896 307.7690830  +6.5468376     896.1984     1420.921     2013.943     79.99857     160.4452     321.0821      1.769     5.37     902.4017     56.61283     119.8106        11     1.206     0.775 -45.70   0
       511    793.6752    312.5251 307.5953557  +6.5609567     991.7524     1386.373     1556.287     80.76412      160.892     321.2737      1.576     4.83     898.2362     56.61283     152.8303         9     1.057     0.625 -82.45   0
       512    629.8593    312.2599 307.6634099  +6.5555863     590.5908     643.5569     577.3687     80.50974     160.6369     321.2099      1.326     3.88     898.2987     56.61283     97.95306         6     1.224     0.353 -60.56   0
       513    756.8564    309.2768 307.6107588  +6.5610667     3489.686     4710.791     5091.826     80.50974      160.573      321.146      1.376     3.29     898.0479     56.61283      577.465        21     1.378     0.742 -59.75   0
       514    487.8999    310.4957 307.7224349  +6.5515583      9720.04     13240.07     14292.76     80.50974     161.1468     321.0182      1.453     3.35     899.6862     56.61283     1415.477        30     1.356     0.929 -57.60   0
       515    912.6006    309.2224 307.5460670  +6.5662925     1036.517      1264.24     1240.615     80.12666     160.3173     320.8904      1.281     3.85     895.1976     56.61283     168.4617         9     1.083     0.567 -74.04   0
       516    704.5375    309.0027 307.6325001  +6.5594300     704.3607     1020.192     920.0597     79.87025     160.5091     320.9224      1.581     4.39     898.0489     56.61283     107.6976         7     1.200     0.458 -52.42   0
       517    314.3777    307.3047 307.7946169  +6.5470525     1286.051     1902.942     2206.048     80.50974     160.4452     321.0182      1.607     3.19     903.8851     56.61283     218.5528        12     1.108     0.671 -47.58   0
       518    149.9154    300.9572 307.8631411  +6.5441441     1188.268     1576.203     1797.852     80.50974     160.5091      321.146      1.497     3.98     911.2538     56.61283     175.0601        12     1.166     0.735 -50.76   0
       519    426.4788    300.9575 307.7482690  +6.5534356     609.7258     731.9767     295.3586     80.38226     160.6369     321.2099      1.447     4.80     900.7497     56.61283     90.76575         7     1.179     0.553 -63.18   0
       520    250.0969    300.9609 307.8215307  +6.5475113     648.5746     953.6919     470.4292     80.50974     160.5091     321.3695      1.458     4.83     906.5418     56.61283     123.7853         8     1.030     0.716 -83.99   0
       521    377.7837    294.6621 307.7687078  +6.5544001     8218.394     11542.64     12119.93     79.99857      160.573     320.9863      1.479     3.33     901.9269     56.61283     1254.272        29     1.384     0.890 -56.90   0
       522    233.4167    295.3100 307.8286500  +6.5492832     2306.601     3178.139     3556.884     80.25456     160.3813     321.0821      1.461     3.30      907.457     56.61283     364.6207        18     1.265     0.815 -58.56   0
       523    731.3141    294.5002 307.6218659  +6.5663122     1265.649     1755.669     2215.855     80.50974     161.1468     321.2737      1.546     3.57     897.4086     56.61283     221.6817        10     1.071     0.639 -59.74   0
       524    745.6241    290.5893 307.6160534  +6.5684052     62535.72     81959.09     84633.48     80.12666     160.4452     321.0821      1.369     3.10      897.228     56.61283     9778.122        59     1.394     0.967 -59.45   0
       525    417.1857    290.0424 307.7524975  +6.5576293     2456.624     3560.888     3499.226     79.74174     160.4452     320.9224      1.484     3.26     900.5342     56.61283     381.9009        17     1.252     0.758 -48.11   0
       526    980.4343    287.6502 307.5186141  +6.5774611     2014.892     2725.916     2685.108     80.38226     160.6369     321.0821      1.352     3.18     891.8781     56.61283     354.0636        12     1.118     0.626 -58.82   0
       527    921.3718    286.8913 307.5431739  +6.5758034      2601.04      3444.58     3765.006     80.63703     160.3813     321.0502      1.302     3.36     894.3771     56.61283     453.1981        13     1.201     0.611 -61.81   0
       528    563.5721    287.4073 307.6917816  +6.5636250     1312.715     1793.041     1817.658     79.99857     160.4452     320.9863      1.424     3.52     897.1796     56.61283     233.7466        13     1.245     0.657 -51.38   0
       529    454.3484    286.6846 307.7371746  +6.5602620     1219.512     1757.182     1534.917     80.50974      160.573     321.2737      1.476     3.83     899.8375     56.61283     175.2202        12     1.179     0.682 -67.49   0
       530    403.8760    285.6462 307.7581744  +6.5589974     2059.341     2949.922     3008.668     80.38226     160.7007     321.2099      1.506     3.46      900.873     56.61283     289.8876        17     1.247     0.825 -65.25   0
       531    283.7639    285.5239 307.8080688  +6.5550147     760.7266     951.1863     1316.325     80.38226     160.7007     321.2099      1.533     3.79     903.8367     56.61283     121.6761         8     0.979     0.555 -70.46   0
       532    825.1266    280.4918 307.5833686  +6.5752308     1274.886     1536.396     1251.002     80.50974     160.7645     321.2099      1.400     3.75     896.4636     56.61283     240.6996        12     1.174     0.637 -80.13   0
       533    454.1660    280.6887 307.7374528  +6.5627309     993.8425     1500.236     1638.229     80.63703      160.573     321.1779      1.664     4.00     899.5855     56.61283     163.2659        10     1.022     0.669 -60.41   0
       534    956.8873    278.3375 307.5287081  +6.5805197     575.0858     1062.677     891.7674     80.38226     160.8283     321.2099      1.906     3.68      892.643     56.61283     109.0845         5     0.820     0.475 -56.46   0
       535    434.5416    277.3090 307.7457184  +6.5634677     1247.524     1769.714     1676.115     80.38226      160.573     321.3056      1.685     3.85     899.8766     56.61283     193.3737        11     1.145     0.659 -33.95   0
       536    180.3199    276.8754 307.8513277  +6.5551072     2506.365     3382.788     3357.542     80.76411      160.892     321.2737      1.453     3.20     909.5788     56.61283     368.2443        18     1.275     0.807 -59.87   0
       537    744.0793    275.1551 307.6172145  +6.5747246     7086.038     9426.465     10175.36     80.50974     160.6369     321.1779      1.368     3.38     896.8576     56.61283     1113.841        27     1.368     0.807 -59.40   0
       538    760.4457    273.2722 307.6104794  +6.5760491     3041.476     3974.724     3920.807     80.38226     160.7007     321.1779      1.316     2.99     896.8106     56.61283     506.0872        17     1.191     0.818 -57.54   0
       539    215.8637    274.7605 307.8366359  +6.5571755     783.8818      1091.88     1019.204     80.50974      160.573     321.2099      1.518     2.92     907.8967     56.61283     161.8852         7     0.984     0.507 -66.15   0
       540     76.4679    274.2172 307.8945529  +6.5527097      1141.85     1545.692     1591.314     79.99857      160.573     321.0821      1.373     3.61     912.2875     56.61283     196.2714         9     1.084     0.556 -54.26   0
       541    334.7843    274.4755 307.7872503  +6.5612890     700.2009     994.9157     777.8482     79.99857     160.3813     321.0502      1.450     4.68     902.5025     56.61283     119.3481         8     1.089     0.570 -22.89   0
       542    349.9748    267.5743 307.7811738  +6.5646478     1766.252     3367.955      3401.11     79.99857     160.4452     321.0821      1.888     5.98     901.9979     56.61283     246.5371        23     1.783     0.974 -24.46   0
       543     63.7604    268.3886 307.9000284  +6.5546876     1245.791      1596.73     1696.968     79.87026     160.4452     320.9224      1.274     3.23     912.4902     56.61283     223.8381        10     1.047     0.607 -48.88   0
       544    998.7169    264.1223 307.5118094  +6.5877831     6961.487     9184.346     9789.799     80.63703     160.9558     321.2737      1.360     3.09     890.9432     56.61283     1102.488        23     1.253     0.808 -52.34   0
       545    476.7012    263.8753 307.7286597  +6.5704269     2264.406     3132.412     2997.898     79.99857     160.7645     321.1141      1.415     3.17     898.1022     56.61283     395.0624        18     1.338     0.746 -66.65   0
       546    239.3736    259.4706 307.8273880  +6.5642771     6294.849     8939.231     9620.872     80.12666     160.5091     321.1141      1.517     3.23     906.2496     56.61283      981.257        27     1.344     0.930 -55.88   0
       547    803.8296    258.5723 307.5929525  +6.5835673     664.6139     1041.525     895.3058     79.99857     160.3813     320.9543      1.257     5.14     896.4127     56.61283     114.8316         8     1.496     0.498 -67.64   0
       548    907.1002    258.3149 307.5500624  +6.5871231     689.8823     1017.473     976.2645     80.50974     161.1468     321.2737      1.414     3.72     893.6038     56.61283      126.084         7     1.015     0.494 -60.74   0
       549    759.1568    252.5966 307.6117106  +6.5845407     763.1734     1096.978     1260.254     79.87025     160.2533     320.8265      1.324     4.08     896.3985     56.61283     145.3124         7     1.124     0.453 -39.88   0
       550    215.7787    252.8038 307.8374140  +6.5662358     685.5339     1270.071     1282.685     80.12666     160.3173     320.9543      1.812     5.13     907.2067     56.61283      100.077         9     1.212     0.750 -40.68   0
       551    373.5155    250.0082 307.7719890  +6.5726890     1857.672     2758.188     2559.324     80.12666     160.3173     321.0182      1.552     3.31     900.8569     56.61283     270.8314        18     1.198     0.906 -86.03   0
       552    960.3244    249.3327 307.5282545  +6.5926074     1332.301     1742.248     2150.088     80.63703     160.7645     321.1779      1.309     3.07     891.7393     56.61283     229.3873        11     0.959     0.793 -58.98   0
       553    295.7449    246.0037 307.8044284  +6.5717303     1255.373     1890.877     1938.101     79.87025     160.4452     320.8585      1.510     3.71     903.1449     56.61283      234.641        13     1.218     0.695 -53.96   0
       554    143.1541    246.0501 307.8678083  +6.5665808     2118.654     3064.863     2808.535     80.50974     160.5091     321.2099      1.442     3.43     909.6161     56.61283     321.0564        16     1.234     0.774 -52.83   0
       555    552.8793    241.8192 307.6977604  +6.5820849     2497.868     3443.494      3579.48     80.12666     160.3173     321.1141      1.408     3.24     895.4691     56.61283     372.7454        17     1.194     0.831 -44.23   0
       556    896.6449    240.8963 307.5549910  +6.5939643     2111.374       2848.6     3147.076     80.50974     160.5091     321.3376      1.352     3.10     893.3494     56.61283     347.0084        15     1.234     0.728 -61.48   0
       557    834.3787    241.8029 307.5808264  +6.5915104     688.6773     1074.927     564.0226     80.12666     160.3173     320.9224      1.419     4.37     895.3704     56.61283     111.6179         5     1.126     0.483 -35.70   0
       558    716.5051    239.3757 307.6298732  +6.5885717     5844.895     7827.253     7715.628     80.63703     160.3813     321.0502      1.418     3.24     896.1135     56.61283     912.4395        23     1.304     0.806 -57.16   0
       559    657.3231    239.2780 307.6544606  +6.5866317     2445.484      3155.08     2982.735     80.76412      160.892     321.2737      1.350     3.38     895.8489     56.61283     360.4321        19     1.324     0.813 -60.48   0
       560    954.6607    238.8006 307.5309610  +6.5967660     833.0065     1049.671     973.1468     79.74174     160.4452     320.8585      1.288     3.24     891.5445     56.61283       136.36        10     0.932     0.739 -43.68   0
       561    372.3311    233.6608 307.7730333  +6.5793971     700.9489     912.0076     484.8486     80.63703      160.573     321.1779      1.348     3.08     900.4542     56.61283     153.6205         6     0.989     0.495 -53.96   0
       562    912.5102    231.4930 307.5487164  +6.5983757     1364.878     1741.798     1787.982     80.50974     161.1468     321.2099      1.362     3.11      892.279     56.61283     233.3763        12     1.096     0.705 -60.73   0
       563    216.1476    224.5389 307.8382171  +6.5779152     2648.971     3797.072     4318.803     80.50974      160.573     321.1779      1.562     3.82     906.3287     56.61283     378.0405        15     1.222     0.754 -61.71   0
       564    858.8038    223.5929 307.5712923  +6.5998433     1980.922     2470.319      2975.16     79.87026     160.3173     321.0502      1.313     3.19      894.345     56.61283     355.7009        11     1.063     0.610 -52.25   0
       565    749.1835    222.9857 307.6168501  +6.5964302     1797.805       2359.8      2380.81     80.25456     160.3173     321.1141      1.371     3.89     895.8016     56.61283     266.9233        12     1.158     0.645 -56.28   0
       566    568.9416    219.2148 307.6918504  +6.5919538     584.2963     810.5236     845.0273     79.87025      160.573     320.9224      1.527     4.19      894.707     56.61283     106.5004         6     1.228     0.407 -35.01   0
       567    237.6219    218.4111 307.8295045  +6.5811665     704.4179     940.3384     798.4766     80.12666     160.3813     321.0502      1.606     3.37     905.5198     56.61283     124.2532         7     0.862     0.662 -62.10   0
       568    776.0134    213.6402 307.6060192  +6.6011850     14989.12     20461.88     22010.94     79.99857     160.4452     320.9224      1.425     3.25     895.4382     56.61283      2532.95        47     1.537     1.039 -43.22   0
       569    449.9784    214.4957 307.7414266  +6.5899137      25806.4     35686.07      36864.5     80.38226     160.4452     320.9863      1.476     3.20     897.0615     56.61283     3937.379        42     1.416     0.980 -58.42   0
       570    310.7731    216.3013 307.7991901  +6.5844956     781.3774     1116.965     957.5864     80.63703     160.3813      321.146      1.464     4.56      902.497     56.61283     114.1724         8     1.182     0.499 -45.58   0
       571    273.0215    216.4289 307.8148672  +6.5831745     569.6577     833.0676     897.3924     79.87025     160.3813     321.0821      1.302     3.52     904.1641     56.61283     135.7891         5     1.002     0.426 -66.64   0
       572    714.3617    209.2867 307.6317766  +6.6009203     964.7546     1402.777     1011.336     80.50974      160.573     321.1779      1.479     5.15     895.5183     56.61283     153.2843         9     1.159     0.648 -67.90   0
       573    455.7153    209.1245 307.7392249  +6.5923233     1702.916     2421.246     2648.202     80.63703     160.9558     321.2418      1.517     3.36     896.5725     56.61283     246.9445        16     1.145     0.887 -65.44   0
       574    138.2140    207.7970 307.8711556  +6.5822043     2591.976     3853.909     3772.695     80.12666     160.3173     321.0502      1.598     3.41     908.7662     56.61283     411.2574        20     1.312     0.836 -64.46   0
       575    112.7622    206.7141 307.8817642  +6.5817947     1256.686     1637.181     1699.151     80.50974      160.573     321.1779      1.484     4.35      909.902     56.61283     187.6219        11     1.164     0.682 -67.12   0
       576    164.9488    206.0569 307.8601094  +6.5838221      815.278     1215.306     1153.879     80.50974     160.6369     321.1779      1.577     5.01     907.5688     56.61283     100.9129         9     0.992     0.716 -70.02   0
       577    768.8900    205.6180 307.6092483  +6.6042583     633.1748     1031.875     2039.225     80.25456     160.3813     321.0821      1.810     6.13      895.249     56.61283     104.4346         7     1.540     0.685   2.07   0
       578    912.2919    204.0428 307.5497295  +6.6096996     1690.934     2361.508     2542.055     80.50974     160.6369     321.2737      1.343     3.03      891.349     56.61283     316.1884        14     1.220     0.648 -57.20   0
       579    294.2689    200.8734 307.8065673  +6.5903094     1247.811     1616.835     896.1644     80.63703     160.7645     321.1779      1.318     3.03     903.6439     56.61283     213.0404        11     1.122     0.617 -60.92   0
       580    574.0241    200.1988 307.6903803  +6.5999735     5375.061     7233.927      7342.12     80.12666     160.3173     320.9543      1.413     3.27     894.3768     56.61283     856.9265        21     1.245     0.816 -56.28   0
       581    536.6677    200.1674 307.7058994  +6.5987347     2452.396     3523.049     3143.709     80.38226     160.6369      321.146      1.491     3.46     894.4443     56.61283     379.1953        18     1.282     0.779 -54.52   0
       582    378.5411    199.4813 307.7716084  +6.5937142     1808.355     2298.436     2710.474     80.63703     160.7007     321.1779      1.381     3.34      899.446     56.61283     290.5167        12     1.124     0.695 -44.30   0
       583    934.8897    197.4568 307.5405631  +6.6131726      3214.35     4247.705     4573.973     80.38225      160.573     321.3056      1.392     3.58     890.4669     56.61283     497.8912        17     1.115     0.792 -65.62   0
       584    881.0061    196.8429 307.5629683  +6.6116270     13012.15     17072.28      17764.7     79.87026     160.3173     320.8904      1.374     3.47     892.1771     56.61283     2221.711        27     1.298     0.814 -57.04   0
       585    555.9832    196.7836 307.6979898  +6.6007788     947.1486     1255.096     1220.551     80.25456     160.3173     321.1141      1.419     5.14     894.2982     56.61283     139.9504        10     1.241     0.602 -52.02   0
       586    308.8155    197.2856 307.8006461  +6.5922791     1020.865     1544.461     1801.973     80.12666     160.3813     321.0821      1.624     3.83     902.9116     56.61283     156.6769         8     1.038     0.509 -54.41   0
       587    200.1569    197.1318 307.8457868  +6.5886904      739.634      898.753     821.2866     80.50974      160.573     321.2418      1.276     3.01     906.5693     56.61283     125.1079         6     0.736     0.567  31.25   0
       588    967.6787    194.6685 307.5270354  +6.6154178     11550.78     15116.69     15301.53     80.63703     160.8283     321.1779      1.352     3.06     890.1221     56.61283     1833.006        29     1.290     0.862 -54.71   0
       589    679.0209    194.6207 307.6469515  +6.6057918     3394.836     4553.668     4468.907     80.25456      160.573     321.1141      1.448     3.28     895.2061     56.61283     525.9821        20     1.247     0.851 -58.99   0
       590      7.1834    193.3166 307.9260727  +6.5837691     28050.69     39725.46     41652.02     80.12666     160.3173     314.7592      1.497     3.26      913.229     56.61283     4277.019        51     1.492     1.014 -59.52  16
       591    253.3530    194.1480 307.8237908  +6.5917105     1150.135     1732.939     1936.658     80.63703     160.5091     321.2099      1.564     4.03     905.1113     56.61283     188.2114        14     1.266     0.769 -60.33   0
       592    487.7116    189.5671 307.7265937  +6.6014692     2242.375     2885.888     2625.991     80.63703      160.573     321.1779      1.407     3.42     894.9264     56.61283     317.6728        14     1.178     0.707 -55.82   0
       593    819.4858    186.2530 307.5888814  +6.6139432     2392.453     2943.668     2780.809     80.50974      160.573     321.3056      1.252     3.04     893.6453     56.61283     387.5146        14     1.150     0.678 -58.72   0
       594    499.7419    185.4127 307.7217364  +6.6035874      2893.79     3713.347     3471.112     79.87026      160.573     320.8904      1.362     3.01     894.6787     56.61283     476.9523        16     1.229     0.699 -59.71   0
       595    871.7773    185.3883 307.5671873  +6.6160471     2220.897     3069.177     3411.424     80.12666     160.4452     321.0821      1.448     3.27     891.8669     56.61283     363.1635        15     1.131     0.783 -55.99   0
       596    731.2255    182.7687 307.6256639  +6.6124307      45815.2     61389.89     63077.54     79.99857     160.4452     321.0182      1.384     3.09     895.0464     56.61283     7937.215        52     1.396     0.942 -58.56   0
       597    334.3177    182.1556 307.7905641  +6.5993809     6593.267     12059.84     13021.77     80.50974     160.6369      321.146      1.939     6.07     901.6497     56.61283     840.7657        38     1.998     0.931 -70.58   0
       598    964.9631    181.6139 307.5286020  +6.6207160         3478     4677.594     5014.109     79.99857     160.4452     320.9224      1.367     3.38     889.7544     56.61283     566.2054        17     1.155     0.752 -52.24   0
       599    899.1237    179.8848 307.5560118  +6.6192321     8801.245     11378.79     12164.51     80.63703     160.9558     321.2418      1.352     3.14     890.8705     56.61283     1626.507        24     1.271     0.777 -60.84   0
       600   1003.3174    180.3761 307.5127099  +6.6225065     2019.613     2532.746     2449.606     80.38226     160.3813     321.1141      1.365     3.13     889.3168     56.61283     315.2142        15     1.060     0.827 -57.53   0
       601    442.7147    178.8806 307.7456464  +6.6043712     5558.826     7947.096     8256.521     80.25456     160.9558     321.2737      1.474     3.27     895.9363     56.61283     861.0485        24     1.309     0.879 -57.63   0
       602    309.5266    178.0133 307.8010023  +6.6002581     551.5657     926.3278     796.3242     79.99857     160.3173     320.9543      1.665     4.07     903.1689     56.61283     92.66016         5     1.083     0.437 -26.22   0
       603    217.0481    175.8715 307.8394898  +6.5980340     946.7294     1177.481     597.1973     80.50974     160.7007     321.2099      1.339     3.53     906.0076     56.61283     140.7754        10     0.948     0.716 -64.92   0
       604    100.0127    170.1546 307.8882985  +6.5964561     5293.747     7375.342     6724.886     79.87026     160.4452     320.9224      1.419     3.29      909.455     56.61283     764.5253        25     1.326     0.867 -60.23   0
       605    919.4205    169.5100 307.5479285  +6.6241924     924.5423     1149.069     2053.191     80.38226     160.3813     321.0182      1.319     3.41     890.0065     56.61283     161.0463         8     0.982     0.561 -43.81   0
       606    270.3366    166.9212 307.8176568  +6.6035198     38290.98     53541.68     55465.72     80.76411     160.7007     321.1779      1.482     3.20      905.048     56.61283     5642.981        50     1.462     1.008 -59.61   0
       607    245.6801    168.0505 307.8278608  +6.6022249      7380.54     10244.14      10640.5     80.50974     160.7007     321.1779      1.437     3.12     905.4301     56.61283      1179.59        27     1.347     0.869 -57.28   0
       608    596.6099    168.7912 307.6820568  +6.6136947     657.7051     1168.201     1473.049     79.99857     160.4452     321.0821      2.115     5.01     893.9022     56.61283     106.9926         9     1.221     0.582 -51.38   0
       609     71.1963    169.3906 307.9002943  +6.5958012     441.6994     581.8579     282.4244     79.87026     160.3173     321.0182      1.418     4.41     910.8372     56.61283     72.72198         5     1.138     0.487  -1.62   0
       610     62.0229    167.3438 307.9041741  +6.5963372     383.7102     614.1554     485.9705     80.12666      160.573     320.9863      1.493     4.24     911.2791     56.61283     69.16351         5     1.100     0.465 -64.47   0
       611    699.6902    165.8735 307.6393333  +6.6183499     947.4322     1332.505     1335.983     80.50974      160.892     321.2099      1.463     3.75     894.7091     56.61283     183.3518         9     1.148     0.536 -52.09   0
       612    394.3892    162.4194 307.7662770  +6.6095444     56538.75     78274.22     80945.03     80.12666     160.3173     321.0502      1.498     3.23     897.3863     56.61283     8579.785        59     1.474     1.010 -59.30   0
       613    150.2706    163.7255 307.8676397  +6.6008014     4666.064     6296.078      6286.49     80.76412     160.7645     321.1779      1.460     3.05     907.5641     56.61283     748.7238        24     1.281     0.914 -64.66   0
       614    411.6164    162.9340 307.7591033  +6.6099102     1470.261     2099.606     2214.828     79.99857     160.5091     321.0502      1.496     2.92     896.0762     56.61283     232.5099        13     1.043     0.779 -67.46   0
       615    298.4195    160.0937 307.8062220  +6.6072817     20542.79     28642.88     29416.82     80.38225     160.4452     321.0502      1.469     3.14     904.2836     56.61283     2870.975        42     1.416     0.995 -61.35   0
       616    681.9365    160.8129 307.6468791  +6.6198447     1069.804     1397.665     1592.616     79.99857     160.4452     320.9863      1.454     4.62     894.6183     56.61283     145.1115        11     1.238     0.735 -81.40   0
       617    733.6806    158.6448 307.6254562  +6.6224709     38200.57     50705.01     51543.44     80.50974     160.6369      321.146      1.404     3.14     894.4899     56.61283     5643.286        48     1.377     0.945 -57.93   0
       618    305.8904    160.1004 307.8031183  +6.6075299     2394.191     3633.325     4357.103     80.50974     161.0832      321.146      1.795     3.86      903.734     56.61283       369.63        16     1.204     0.833 -66.57   0
       619    782.1215    159.1469 307.6053155  +6.6238834      1327.49     1504.771     1443.484     80.50974     160.6369     321.1779      1.256     2.66     893.5853     56.61283     270.1432        11     1.002     0.688 -56.32   0
       620     21.1317    158.8118 307.9214488  +6.5984814     739.2633     996.0579     648.7744     79.99857     160.4452     321.0821      1.385     4.93     913.4858     56.61283     110.3563         8     1.256     0.547 -49.04   0
       621     50.5073    155.8475 307.9093471  +6.6006946     10257.96     14243.08     14282.43     80.38226      160.573     321.3056      1.465     3.16     911.7217     56.61283     1492.545        33     1.357     0.962 -62.69   0
       622     84.3440    153.9099 307.8953575  +6.6026339      1619.75     2164.574     1915.535     80.38226     160.5091     321.3056      1.341     3.34     909.8003     56.61283     250.8724        13     1.117     0.706 -57.50   0
       623    992.3383    152.8757 307.5181945  +6.6334922     1292.081     1564.475     1514.112     80.76411     160.6369     321.1779      1.334     3.14     888.5193     56.61283     222.3549        10     0.977     0.668 -55.68   0
       624    959.7518    152.0066 307.5317615  +6.6327637     475.1379     706.5136     147.8586     79.99857     160.4452     320.7945      1.232     3.75     888.9045     56.61283     102.7244         5     0.836     0.482 -44.60   0
       625    717.8555    146.5643 307.6324371  +6.6269282     652.3975     812.5907     384.8427     80.38226     160.6369     321.2099      1.356     3.53     893.8249     56.61283     122.8035         5     1.042     0.346 -86.26   0
       626    567.4918    142.9973 307.6950228  +6.6233665     1031.945      1251.27     1773.234     79.99857     160.3173     320.9224      1.315     3.62     893.4927     56.61283     174.8354        11     1.073     0.787 -57.00   0
       627    993.2073    139.1864 307.5182932  +6.6391720     2470.957      3369.15     3947.822     80.12666     160.3813     321.0182      1.423     3.64      887.995     56.61283     400.9406        16     1.182     0.799 -54.05   0
       628    576.0049    136.8036 307.6916950  +6.6262084     1135.882      1501.36     1980.645     79.87026     160.2533     321.0182      1.477     3.54     893.4427     56.61283     196.5403        11     1.153     0.628 -65.00   0
       629    584.3512    135.0612 307.6882865  +6.6272072     2197.713     2940.389     3371.766     80.50974      160.573     321.2418      1.364     3.19     893.4285     56.61283      383.449        16     1.342     0.693 -55.29   0
       630    328.6587    134.9045 307.7945119  +6.6186950     1193.157     1742.195     2083.242     80.38226     160.6369     321.3056      1.498     3.77     902.3717     56.61283     189.0468        12     1.156     0.718 -65.49   0
       631    269.2538    133.1407 307.8192490  +6.6174271     34284.81     48200.83      50158.1     80.63703      160.573     321.1779      1.477     3.23      905.412     56.61283     4978.058        48     1.443     1.009 -58.04   0
       632     14.5814    131.6079 307.9250921  +6.6094895     5161.809     6935.499     7259.829     80.12666     160.3173     321.0182      1.431     3.03     913.1561     56.61283     747.6669        23     1.293     0.866 -60.55   0
       633    700.8466    129.8485 307.6400662  +6.6332592     9456.518     12493.25     13078.12     80.50974     160.5091     321.2099      1.370     3.33     893.1086     56.61283     1606.541        25     1.296     0.820 -55.83   0
       634    178.3781    131.4104 307.8570580  +6.6150857     1026.792     1489.635     987.9445     80.12666     160.3813     321.0502      1.582     3.54     906.2202     56.61283     164.7676        10     1.116     0.716 -49.76   0
       635    255.2217    127.6963 307.8252623  +6.6192028     825.1067     1238.385     1181.603     80.38226     160.4452     320.9863      1.606     4.58     905.5483     56.61283     127.9396         9     1.092     0.628 -46.57   0
       636    111.7799    126.7746 307.8848800  +6.6147581     5382.253      7300.21     7355.948     80.12666     160.4452     321.0821      1.413     3.33     907.7211     56.61283     809.0684        25     1.287     0.898 -60.62   0
       637    573.3403    124.8742 307.6932043  +6.6310433     880.2318     1351.374     1859.907     80.63703     160.6369     321.1779      1.794     4.75      893.313     56.61283     121.8777         9     1.021     0.752 -50.48   0
       638    382.3683    123.0459 307.7726008  +6.6253934       4331.1     6793.506     7504.565     80.25456     160.6369     321.0502      1.721     3.98     898.3694     56.61283     579.3208        31     1.604     1.032 -74.29   0
       639    450.7231    124.1596 307.7441671  +6.6272275       1440.3     1926.721     1831.797     80.38226     160.6369     321.2418      1.414     4.61     894.5989     56.61283     243.5354        14     1.449     0.630 -60.22   0
       640    639.8408    123.6116 307.6656203  +6.6337918      1026.49     1415.387     1200.589     79.87025     160.4452     320.8904      1.446     3.27     893.3008     56.61283     165.6542        10     1.023     0.603 -60.82   0
       641    559.0004    121.7937 307.6992654  +6.6318344     706.5527     1143.766     1034.858     79.87026     160.3173     320.9863      1.552     5.01     893.2852     56.61283     95.37531        10     1.346     0.527 -63.67   0
       642    346.8798    121.6916 307.7873892  +6.6247609     3633.945     5188.003     5231.288     80.25456      160.892     321.2418      1.508     3.58     901.1693     56.61283     550.7028        22     1.339     0.852 -56.69   0
       643    101.0268    121.5506 307.8895238  +6.6165524      2153.31     2892.964     2769.463     80.12666     160.6369     321.1141      1.453     3.27     907.8766     56.61283     361.5321        17     1.242     0.840 -47.71   0
       644    736.8036    119.7751 307.6254674  +6.6386202     552.3064     703.6809     564.7498     79.99857     160.3173     321.0182      1.419     3.34     891.9292     56.61283     103.5276         5     0.930     0.347 -47.40   0
       645    662.9196    119.7044 307.6561642  +6.6361772     980.7346     1436.081     1473.517     80.25456      160.892     321.2737      1.511     2.74     893.1733     56.61283     166.7861         9     0.888     0.652 -64.68   0
       646    993.5662    115.9288 307.5189251  +6.6487846     1716.853     2457.144     2110.708     80.38226     160.6369     321.2418      1.404     3.58     887.1345     56.61283     273.0956        12     1.108     0.652 -59.39   0
       647    719.5066    115.8021 307.6327871  +6.6396816     627.4838     655.3694     823.1317     79.99857     160.3173     320.8585      1.078     3.37     892.0258     56.61283     118.3994         5     0.774     0.426 -66.09   0
       648    198.6796    110.6373 307.8493278  +6.6243431     6378.525     8769.417     8592.964     80.38226     160.7007     321.1779      1.452     3.06     905.8014     56.61283     926.7983        27     1.297     0.945 -56.18   0
       649    660.4783    109.5333 307.6575211  +6.6402940     7389.867     9652.621     10024.82     80.63703     160.7007      321.146      1.399     3.12     892.8657     56.61283     1181.694        25     1.303     0.854 -64.41   0
       650     81.2788    110.5120 307.8981012  +6.6204438     2312.934     3346.896     3176.044     80.25456      160.892     321.3056      1.442     3.02        908.6     56.61283     369.8705        16     1.151     0.812 -51.85   0
       651    808.5947    109.2677 307.5959957  +6.6453578     1099.068     1253.715     1085.783     79.99857     160.3173     320.9863      1.286     3.07     890.6158     56.61283      202.048        10     1.055     0.594 -49.62   0
       652    612.6022    106.7754 307.6775037  +6.6398294     10540.23     14184.09     15126.19     80.12666     160.3173     320.9863      1.411     3.18     893.0408     56.61283     1622.741        31     1.306     0.940 -61.66   1
       653    247.1068    107.2628 307.8293246  +6.6273644      1010.54      1483.63     2023.287     80.50974     160.6369     321.2418      1.634     4.78     905.6962     56.61283     156.3883        12     1.261     0.747 -55.40   0
       654    550.7661    106.1397 307.7032142  +6.6380202     701.6971     1093.151     1337.356     80.38226     160.7007     321.1141      1.666     6.90     893.1512     56.61283     108.6063        10     1.588     0.841 -61.86   0
       655     11.0740    106.0828 307.9274145  +6.6199071         1101     1932.065     3051.012     80.76412     160.9558     321.2418      2.561     5.55     912.7621     56.61283     157.1767        12     1.454     0.607 -54.39   0
       656    339.7132    102.6431 307.7910102  +6.6323829     4299.689     6511.847     7489.711     80.50974     160.5091     321.1779      1.664     3.77     901.8224     56.61283       576.53        28     1.583     0.871 -53.66   0
       657    985.8730    101.8257 307.5225949  +6.6543495     903.4868      1348.94     1485.789     80.12666     160.5091     321.1141      1.834     3.69     886.8044     56.61283     187.7894        10     1.141     0.686 -67.84   0
       658    521.7334    101.8001 307.7154219  +6.6388384     1966.567     2760.634      2764.26     79.74174     160.1253     320.8904      1.508     3.74     893.1963     56.61283     290.2933        17     1.352     0.751 -52.54   0
       659    616.1474     98.3412 307.6763152  +6.6434296     61424.13      82590.8     85349.52     80.50974     160.6369     321.1779      1.417     3.24     892.8776     56.61283     9690.613        57     1.418     0.969 -57.14   0
       660    295.2881     92.0462 307.8098237  +6.6352647     4084.854     5802.585     6286.231     80.50974     160.5091     321.1779      1.472     3.39     905.3575     56.61283      594.845        24     1.367     0.849 -50.28   0
       661    490.8447     88.9560 307.7286876  +6.6431045     785.3492     822.4927     605.3809     80.50974     160.6369      321.146      1.266     3.06     893.1458     56.61283     141.1255         8     0.837     0.654 -48.98   0
       662    695.3257     86.7163 307.6438125  +6.6508787     1146.538     1278.489     1010.325     80.63703     160.9558     321.2418      1.364     4.15     891.3558     56.61283     164.5118        12     1.087     0.825 -57.16   0
       663    666.5940     85.4955 307.6557903  +6.6504211     1555.413     1833.443     1752.046     80.25456     160.3173     320.9863      1.319     3.33     891.9471     56.61283     226.1757        14     1.153     0.770 -56.92   0
       664    680.5895     82.3332 307.6500824  +6.6521948     3771.445     5037.466     4753.943     79.99857     160.5091     321.0182      1.421     3.17     891.5641     56.61283     532.0978        19     1.205     0.820 -61.40   0
       665    249.4925     82.5415 307.8291699  +6.6376488     559.5765      665.296     513.7496     80.38226      160.573     321.3056      1.243     3.72     905.9623     56.61283     80.97614         6     0.979     0.407 -70.99   0
       666      2.0688     74.5520 307.9322246  +6.6326184     1612.391     3688.208     6415.226     78.18313     138.4875      253.868      4.679    10.51     912.1451     56.61283     213.0311        40     2.922     1.053 -86.98  24
       667    422.2713     73.3403 307.7577029  +6.6472500     4715.619     6497.669     6448.803     80.63703     160.6369     321.2418      1.472     3.36     895.2476     56.61283     668.1237        22     1.313     0.827 -60.27   0
       668    876.7402     69.6871 307.5690155  +6.6639730      2288.18     3185.721     2948.574     80.50974     160.7645     321.2737      1.427     3.24      887.324     56.61283     391.0093        13     1.159     0.633 -56.74   0
       669    574.4837     69.7566 307.6945880  +6.6538331     902.5392     1274.047     1290.976     80.50974     160.6369      321.146      1.649     5.10     892.2063     56.61283     139.7443        10     1.365     0.539 -58.67   0
       670    894.8771     68.6924 307.5615137  +6.6649894     4414.828     5602.349     5413.052     80.25456     160.8283     321.2099      1.335     3.45     887.2458     56.61283     742.0814        20     1.212     0.764 -53.49   0
       671    586.9335     67.3889 307.6894956  +6.6552276     2016.191     2729.002     2438.096     79.99857     160.4452     321.0502      1.418     3.97     892.0264     56.61283     298.9254        13     1.233     0.635 -64.15   0
       672    606.8881     67.0724 307.6812161  +6.6560266      658.755     859.7288     1213.018     80.63703      160.892     321.1779      1.344     3.83     891.8878     56.61283     93.58759         6     0.975     0.585 -48.31   0
       673    233.0135     66.5095 307.8365582  +6.6437123     1129.339     1386.739     1630.293     80.25456     160.3813     320.9863      1.409     5.27     906.2141     56.61283     131.0243        11     1.078     0.727 -72.28   0
       674    385.5654     65.2184 307.7732264  +6.6493705     2229.225     3078.116       3099.2     79.99857     160.4452     320.9863      1.443     3.14     898.0551     56.61283     380.5027        16     1.167     0.799 -66.32   0
       675    133.6362     61.8443 307.8780000  +6.6422948     3603.196     4934.255     5354.356     80.25456      160.573     321.0502      1.453     3.47     905.8436     56.61283     513.2792        23     1.311     0.870 -56.00   0
       676     15.5006     59.8620 307.9271431  +6.6391345     13939.86     19655.17     20771.62     80.25456     160.6369     321.3056      1.480     3.13     910.7112     56.61283     1997.077        40     1.424     1.024 -61.79   0
       677    281.8209     60.4897 307.8164856  +6.6478378     1587.547     2284.771     2851.116     80.38226     160.4452     321.0821      1.514     3.54     906.3242     56.61283     244.0862        13     1.223     0.638 -47.34   0
       678    555.1957     59.6800 307.7029411  +6.6573462      779.684     1012.545     937.8596     80.12666     160.1893     320.9224      1.407     4.36     892.0576     56.61283     113.3991         8     0.947     0.762 -16.70   0
       679    542.4728     59.7930 307.7082230  +6.6568732     901.0819     1154.607     574.7639     80.12666     160.1893     321.0821      1.286     3.49      892.184     56.61283     146.7606         7     0.998     0.479 -43.54   0
       680    750.1686     59.3440 307.6219494  +6.6640123     837.9816     1010.944     2326.904     80.38226     160.6369     321.1141      1.170     2.90     889.4551     56.61283     173.0361         7     0.860     0.554 -36.67   0
       681    145.0288     58.5172 307.8733800  +6.6440516     500.7516     787.1841     636.6513     80.38226     160.4452     321.1141      1.727     3.96     905.6988     56.61283     103.8552         5     0.754     0.626 -85.14   0
       682    884.1590     56.0290 307.5663924  +6.6698587     708.2011     836.8135     465.6491     80.12666     160.5091     321.0182      1.441     3.11      886.868     56.61283     141.5438         6     0.906     0.442 -53.46   0
       683    817.2009     54.5273 307.5942620  +6.6682416     7161.181     9166.174     9612.801     79.87026     160.1893     321.0182      1.341     2.96     888.4188     56.61283     1234.316        23     1.217     0.809 -60.07   0
       684    762.3126     54.7951 307.6170572  +6.6662961     3736.384     5001.013     5207.369     79.99857     160.3173     320.8904      1.409     3.04     889.2558     56.61283     634.0593        22     1.306     0.836 -67.25   0
       685    407.4820     55.4452 307.7644515  +6.6541403     1311.679     1749.096     1868.336     80.50974     160.6369      321.146      1.482     3.49     896.2343     56.61283     199.2254        12     1.040     0.777 -59.67   0
       686    907.9839     54.8295 307.5565342  +6.6711494     508.9005     694.8778     23.16478     80.12666     160.3813     321.1141      1.349     3.76     886.7845     56.61283     80.42328         5     0.807     0.502 -62.60   0
       687     40.4233     52.6042 307.9170358  +6.6429700     1121.588     1515.577     1544.269     80.12666     160.3813     321.0182      1.564     4.05     909.1248     56.61283     143.1002        13     1.228     0.742 -57.93   0
       688    524.7682     52.8340 307.7158132  +6.6591523     1274.698     1703.074     1709.681     79.99857     160.3813     320.9224      1.469     4.33     892.3225     56.61283     172.0048        12     1.136     0.781 -70.43   0
       689     55.7852     51.6804 307.9106855  +6.6438688     3655.146      4884.05     4783.869     80.12666     160.3813     321.0182      1.433     3.35     908.2255     56.61283     567.6178        22     1.336     0.843 -59.78   0
       690    644.3971     52.2363 307.6661328  +6.6634068     632.5141     619.0778     349.4096     79.61303     160.4452     320.9863      1.305     4.76     890.9633     56.61283     109.4946         6     0.965     0.666 -61.33   0
       691    417.0818     51.1364 307.7606089  +6.6562411     1199.249      1729.76     2410.608     80.63703     160.7007     321.1779      1.606     4.47      895.363     56.61283     175.6356        15     1.344     0.836 -55.34   0
       692    579.3914     48.5620 307.6932638  +6.6627463     1397.324     1904.485     1819.236     79.74174     160.3813     320.9224      1.366     3.93     891.5294     56.61283     221.6855        13     1.266     0.677 -49.62   0
       693    250.8425     48.6976 307.8297540  +6.6516639     498.6516     696.0529     640.8679     80.50974      160.573     321.4014      1.307     3.45     906.4973     56.61283     94.06799         5     0.979     0.352 -44.51   0
       694    706.1875     44.8417 307.6407103  +6.6685273       560.28      906.136     847.5225     79.87025     160.4452     320.9224      1.602     4.36     889.7897     56.61283     91.65381         5     0.790     0.684  40.46   0
       695    756.9703     42.4072 307.6196938  +6.6712310     2184.469     3003.346     3105.417     79.99857     160.4452     320.9543      1.409     3.25     888.9578     56.61283     364.0679        14     1.232     0.639 -68.41   0
       696     70.5296     42.9356 307.9048567  +6.6479750     996.3287     1362.801     1217.718     80.50974     160.7007     321.1779      1.429     3.83     907.1436     56.61283      152.041        10     1.100     0.646 -65.87   0
       697    397.8419     42.4232 307.7688964  +6.6591919     1277.859     2209.116     1927.265     80.12666     160.5091     320.9543      1.744     4.46     896.9832     56.61283      190.877        16     1.391     0.901 -42.19   0
       698    648.3886     42.2328 307.6648116  +6.6676697       571.82     784.7665     671.8492     79.99857     160.3813     321.0182      1.275     3.44     890.5524     56.61283     86.49249         5     0.745     0.459  73.87   0
       699     94.8351     41.2933 307.8948152  +6.6494714     1026.819     1347.636     1307.677     80.63703     160.5091     321.2737      1.386     4.62     905.8402     56.61283     170.7938        10     1.216     0.581 -70.40   0
       700     83.5775     35.9865 307.8996718  +6.6512827     10670.95     14961.97     15036.51     80.25456     160.4452     321.0821      1.471     3.23     906.2709     56.61283     1594.932        33     1.396     0.952 -58.91   0
       701    412.6247     35.8175 307.7629780  +6.6624147     2790.935     3799.009     4072.339     80.25456     160.4452     321.1141      1.444     3.36     895.6688     56.61283     444.7507        17     1.257     0.719 -62.38   0
       702    234.2106     35.2990 307.8371169  +6.6566353     550.6026     581.7825     -191.561     80.25456     160.2533     320.9543      1.373     3.42     906.7175     56.61283     121.8213         5     0.963     0.351 -47.60   0
       703    250.2397     29.9854 307.8306376  +6.6593675     1514.521     1803.019     2131.489     80.12666     160.4452     320.9543      1.352     3.87     906.7962     56.61283     220.5881        13     1.167     0.724 -48.18   0
       704    626.3427     28.0678 307.6744484  +6.6727785     21105.14     28551.46     29469.52     80.63703      160.573      321.146      1.408     3.12     890.3032     56.61283     3208.765        39     1.363     0.949 -59.93   0
       705    526.0866     24.2238 307.7162309  +6.6710061     6011.467     8390.139     8736.002     80.50974     160.4452     321.0182      1.440     3.29     891.7629     56.61283     938.0801        27     1.357     0.882 -62.38   0
       706    244.2491     24.3663 307.8333165  +6.6614855     2122.343     2551.984     2690.291     80.38226     160.6369     321.1141      1.324     3.62     906.8906     56.61283     322.9783        13     1.175     0.664 -56.25   0
       707    681.8997     23.3910 307.6515238  +6.6765690     587.4946     771.4579     1903.384     80.25456     160.2533     321.0182      1.401     4.16     889.4349     56.61283     102.1767         7     1.187     0.416 -57.05   0
       708    613.9496     21.8366 307.6798074  +6.6749356     931.8217     1323.937     2007.853     80.25456      160.573     321.0502      1.801     4.20     890.2359     56.61283     169.7201         8     1.148     0.664 -70.41   3
       709    748.9967   1021.9464 307.5900536  +6.2666179     914.0667     1121.088     1327.198     79.87026     150.2108     268.2851      1.347     4.09     920.8214     56.61283     142.1349         8     1.037     0.640 -63.19  16
       710    955.1315   1018.8238 307.5045822  +6.2747895     684.5731      1162.78     859.0965     80.12666     160.5091     306.3377      1.857     5.41     916.9431     56.61283     92.02124         8     1.037     0.796 -49.79  16
       711    784.1588   1016.5333 307.5756382  +6.2700274     7562.908     10733.26     10823.43     80.50974      160.573     321.2418      1.518     3.43     920.8119     56.61283     1064.081        29     1.342     0.968 -59.97  16
       712    909.4495     19.6896 307.5571065  +6.6857037     2300.623     2919.122     2772.764     80.50974     160.4452     321.2737      1.337     3.28      885.714     56.61283      392.259        14     1.176     0.672 -59.44   0
       713    312.0655     20.5985 307.8052698  +6.6653200      1021.98     1511.336     1698.476     79.87025     160.2533     320.9543      1.628     4.65     904.7606     56.61283     155.3451        11     1.102     0.842 -43.66   0
       714     17.5971     19.7872 307.9276311  +6.6557465     2620.029     3394.076     3485.545     80.12666     160.3173     321.0502      1.396     3.33     908.9733     56.61283     371.9542        18     1.248     0.776 -55.62   8
       715    544.3283     19.2311 307.7088206  +6.6736785     801.8616     1116.884     977.1666     80.38226     160.6369     321.1779      1.449     4.18     891.1118     56.61283     143.6348         7     1.088     0.594 -53.75   0
       716    516.8521     19.9954 307.7202102  +6.6724419     796.5453     1025.013      1107.87     79.87026     160.4452     320.7945      1.296     4.11     891.9638     56.61283     125.3329         7     0.896     0.537 -47.66   0
       717    823.6639   1015.2361 307.5592813  +6.2718826      542.913     850.6469     534.8753     80.38226     160.6369     321.2099      1.641     4.80     919.6562     56.61283     95.90857         7     1.347     0.485 -68.76  16
       718    881.9968   1013.3550 307.5351277  +6.2746067     1592.106      2294.28     2033.437     79.87025     160.3173     320.8265      1.491     3.46     917.7571     56.61283     246.3152        12     1.108     0.692 -74.92   0
       719    742.1916   1013.0378 307.5931781  +6.2700679     506.7177     1360.076      1609.78     79.74174     160.3813     320.9224      1.450     3.93     920.5842     56.61283     89.57379         5     1.011     0.437 -44.83   2
       720    204.5518   1011.8024 307.8164106  +6.2525601     2507.206     3600.127     3787.523     79.87026     160.3173     320.7625      1.429     3.21     925.1339     56.61283     439.4546        16     1.277     0.690 -53.50   0
       721    969.4070   1011.7549 307.4988928  +6.2781836     563.9447     508.3551      455.616     79.99857     160.4452     320.8265      1.125     3.01     915.8298     56.61283     109.8066         5     0.754     0.415 -65.33   0
       722    707.9556   1008.9219 307.6075294  +6.2706224     8248.328     11440.78     11895.18     80.38226     160.6369     321.1779      1.455     3.18     921.1003     56.61283     1291.946        31     1.427     0.894 -63.79   0
       723    422.9049   1009.0632 307.7258599  +6.2610198     4512.186     6049.293     6597.929     80.38226     160.7645     321.2099      1.425     3.31     924.9012     56.61283     727.6668        24     1.444     0.808 -57.57   0
       724    564.0828   1008.0258 307.6672871  +6.2661784     4633.833     6309.896     7252.453     80.38226     160.3813      321.146      1.415     3.37     924.1597     56.61283      755.089        21     1.310     0.776 -59.49   0
       725    700.3210   1008.3217 307.6107191  +6.2706149     1294.508     1663.298     1722.597     80.76412      160.892     321.2737      1.405     3.32     921.2439     56.61283     221.6453        12     1.142     0.710 -74.74   0
