#   1 NUMBER                 Running object number                                     
#   2 X_IMAGE                Object position along x                                    [pixel]
#   3 Y_IMAGE                Object position along y                                    [pixel]
#   4 ALPHA_J2000            Right ascension of barycenter (J2000)                      [deg]
#   5 DELTA_J2000            Declination of barycenter (J2000)                          [deg]
#   6 FLUX_APER              Flux vector within fixed circular aperture(s)              [count]
#   9 FLUXERR_APER           RMS error vector for aperture flux(es)                     [count]
#  12 FLUX_RADIUS            Fraction-of-light radii                                    [pixel]
#  13 FWHM_IMAGE             FWHM assuming a gaussian core                              [pixel]
#  14 BACKGROUND             Background at centroid position                            [count]
#  15 THRESHOLD              Detection threshold above background                       [count]
#  16 FLUX_MAX               Peak flux above background                                 [count]
#  17 ISOAREA_IMAGE          Isophotal area above Analysis threshold                    [pixel**2]
#  18 A_IMAGE                Profile RMS along major axis                               [pixel]
#  19 B_IMAGE                Profile RMS along minor axis                               [pixel]
#  20 THETA_IMAGE            Position angle (CCW/x)                                     [deg]
#  21 FLAGS                  Extraction flags                                          
         1     20.3051     92.1464 307.9361934  +6.6320322     741609.4      1536890      1654723     84.75824     169.3146      338.932      2.116     4.77     1027.641     59.69482     61792.36       434     2.096     1.870  64.71   4
         2    197.3757     19.2211 307.8650881  +6.6680973     11319.55     16876.03      17202.5     84.48874     169.1798     338.6628      1.623     3.46     1015.427     59.69482     1388.752        39     1.374     1.160  59.83   0
         3    541.4815     17.4309 307.7221650  +6.6803893     3011.894       4408.5     4140.727     84.75824     169.2472     338.6628      1.625     3.35     990.5435     59.69482     368.1271        25     1.379     1.062  33.26   0
         4    942.9302     16.8658 307.5553645  +6.6940488     4866.746     6109.179     6386.099     84.89267     169.4492     338.6628      1.304     2.89     979.6141     59.69482     905.1537        19     1.146     0.758  55.55   0
         5    743.7226     15.6123 307.6381872  +6.6879109     2303.786      3023.86     3335.602     84.48874     168.9775     338.5281      1.459     2.93     984.6733     59.69482     363.2899        17     1.210     0.789  62.86   0
         6    479.8473     15.9558 307.7478257  +6.6789320     1878.746     2804.383     2737.347     84.89267     169.3146     338.5954      1.535     3.66     990.8912     59.69482     230.1205        17     1.150     0.999  76.88   0
         7   1007.7177     13.1163 307.5285674  +6.6977582     2349.408     2983.843     3044.413      84.6236      169.651     338.7301      1.275     2.81     972.3289     59.69482     389.9005        13     0.932     0.845  69.00   0
         8    727.1206      9.6608 307.6452860  +6.6898126     8589.756     11562.69     11811.44     85.02689     169.3819     338.6628      1.439     3.06     985.0433     59.69482     1288.142        27     1.279     0.949  50.71   0
         9    647.2975      8.9791 307.6784789  +6.6874228     3953.031      5515.94     5527.881     84.75824     169.1798     338.3933      1.460     3.22     988.1467     59.69482     541.0146        22     1.281     0.903  50.93   0
        10    349.2869      8.7087 307.8023213  +6.6775423     941.6674     1678.322     1860.025      84.6236     169.8525     338.7974      1.962     6.86     1005.548     59.69482     147.6128        14     1.567     0.853  56.11  16
        11    403.1373      7.4444 307.7799877  +6.6798721     939.0278      1331.89     1720.331     84.89267     169.3146     333.9497      1.592     5.22     997.7524     59.69482      130.685        11     1.086     0.887 -22.16  16
        12    447.4595      5.1463 307.7616481  +6.6823080     6651.072     9947.567     10686.67     85.02689     169.3146     311.7327      1.650     3.54     993.2338     59.69482     789.6182        29     1.373     1.058  56.00  16
        13     48.5612      4.8564 307.9274071  +6.6690182     9157.862      12945.4     13041.27     84.89267     169.4492     308.2751      1.526     3.17     1019.609     59.69482     1290.571        33     1.322     1.049  65.33  16
        14    694.5509      4.1577 307.6590052  +6.6909948     993.9378     1238.647     1332.768     84.89267     167.9622     299.1133      1.324     3.19     986.6104     59.69482      175.115        10     0.958     0.706  47.31  16
        15    523.3369      2.2880 307.7302147  +6.6860325     1001.826     1293.735     1394.849     83.94714     149.1176     271.2011      1.415     4.70     990.1074     59.69482      134.001        11     1.098     0.815 -83.36  24
        16    344.3486      1.4415 307.8046185  +6.6803765     7010.665     8373.733      9028.73     75.50864     136.5851     256.8626      1.124     3.21     1006.153     59.69482      1473.93        15     1.179     0.614  -5.80  24
        17    117.8784      1.4212 307.8987216  +6.6727704     1585.453     1840.417     1988.187     74.90214     135.9994     256.5516      1.108     2.97     1016.669     59.69482     328.0179         8     0.889     0.575   6.54  24
        18    314.0905    999.9020 307.7835221  +6.2671688     18138.81     23856.27     24801.11     84.89267     169.8525     338.6291      1.359     2.93      1040.44     59.69482     2999.296        38     1.283     0.955  65.19   2
        19    734.9441   1023.7574 307.6079810  +6.2714156     1456.384     1760.713     1954.866     72.58262     133.2893     253.3312      1.069     2.54     1032.194     59.69482     476.7719        10     1.113     0.531  -0.77  24
        20    591.5566   1023.6551 307.6675196  +6.2666620     2159.543     2487.145     2848.553     73.82877     134.6512     254.9912      0.939     2.23     1033.658     59.69482     584.7076         8     0.837     0.528   8.25  24
        21    318.4099    997.2379 307.7818185  +6.2684136     1187.336     1862.416     2249.485     84.21838     169.1798     338.3596      1.627     4.12     1040.389     59.69482     185.5981         9     1.068     0.635  61.13   3
        22    438.8030   1000.4426 307.7317237  +6.2711285     1216.466     1453.548     1169.569     84.21838       168.91     338.3259      1.273     3.04     1038.293     59.69482     202.2374         9     1.031     0.553  65.84   0
        23    140.6212   1000.5635 307.8555220  +6.2610690     653.9747     643.9229     599.5314     84.48874     169.1124     338.3933      1.074     3.57     1042.017     59.69482     116.0277         6     0.882     0.485  88.30   0
        24     10.7807   1000.8641 307.9094184  +6.2565774     1036.325      1360.74     685.8796     84.48874     169.3819     338.4944      1.349     3.93     1043.955     59.69482     153.2688         9     0.977     0.678  86.39   0
        25    829.6343    999.8636 307.5694656  +6.2844433      1347.74     1690.946     1611.633     84.75824     169.4492     338.6628      1.192     2.60      1027.01     59.69482     221.3298         9     0.876     0.631  45.39   0
        26    285.7927    997.3289 307.7953578  +6.2672812     1052.469      1379.89     1638.208     84.35367       168.91     338.5954      1.464     3.18     1040.974     59.69482     187.9086        10     1.016     0.729  79.85   0
        27     88.9461    996.9433 307.8770986  +6.2608260     523.6472     906.7578      1458.75     85.02689     169.3819     338.6628      1.591     3.66     1042.715     59.69482      84.5675         5     1.023     0.378  56.70   0
        28    929.8210    993.9064 307.5280652  +6.2902466     10727.32     14202.06     14742.74     84.75824     169.1798     338.4607      1.347     2.79     1024.011     59.69482     1924.901        32     1.244     0.952  57.46   0
        29    647.9558    995.4894 307.6450484  +6.2801771     626.2089     790.4115     936.9078     84.89267     169.2472     338.6964      1.422     4.23      1031.63     59.69482     93.75684         6     1.033     0.632  51.81   0
        30    561.2032    993.3069 307.6811425  +6.2781748     10310.96     13197.12     13822.69     84.48874     169.0449     338.3596      1.301     2.68     1034.542     59.69482     1692.611        27     1.176     0.886  60.51   0
        31    903.4694    990.1370 307.5391334  +6.2909235     15252.92     20203.93     20406.46     84.89267     169.3819     338.7301      1.354     2.75     1024.739     59.69482     2477.673        32     1.237     1.023  44.01   0
        32     13.4383    992.0254 307.9086138  +6.2603156     766.2273     807.3436     420.4255     84.48874     169.1798     338.4607      1.151     3.81     1043.744     59.69482     132.5673         6     0.840     0.495  87.32   0
        33    616.1007    990.4376 307.6584448  +6.2811969     1608.872     1980.647     1787.482     84.89267     169.2472     338.8984      1.289     3.11     1032.326     59.69482     268.0663        11     1.050     0.650  73.23   0
        34   1023.9330    988.9099 307.4891544  +6.2954474     1485.506     1806.015     1756.811     70.02383      130.173     250.1605      0.860     2.66     1019.584     59.69482     507.8422         6     1.078     0.243  86.83  24
        35    547.5251    989.1165 307.6869626  +6.2794468      5233.01     6594.276     7170.081     85.02689     169.7182     338.7301      1.301     2.67     1035.046     59.69482     821.1394        18     1.130     0.764  66.59   0
        36    657.2140    988.5314 307.6414380  +6.2833593     1683.278     2325.769     2205.762     84.35367     169.2472     338.5617      1.366     2.55     1031.344     59.69482      313.882        11     1.002     0.654  79.84   0
        37    921.1327    987.9595 307.5318721  +6.2924118     506.8883     794.5369     1006.603     84.75824     169.3145     338.7301      1.407     3.48     1024.089     59.69482     98.73877         5     0.796     0.508  34.95   0
        38     82.5721    987.8102 307.8800534  +6.2643819     975.8282     1118.939     819.4792     84.48874     169.1798     338.5281      1.276     3.83     1042.762     59.69482     152.6472         8     1.018     0.559  69.94   0
        39    500.6596    985.7156 307.7065360  +6.2792812     2583.162     3249.429     3044.756     85.02689     169.4492     338.7638      1.376     3.14     1035.603     59.69482      374.593        18     1.155     0.904  80.37   0
        40    935.1713    977.6689 307.5263874  +6.2971286     54650.69      71008.7     74062.42      84.6236     169.3819     338.5954      1.339     2.78     1023.192     59.69482      8954.18        62     1.381     1.010  58.50   0
        41      8.1329    977.5355 307.9113061  +6.2661187     3738.831     4982.242     4715.131     84.89267     169.3819     337.6849      1.394     3.07     1043.518     59.69482     607.0126        18     1.265     0.748  71.34  16
        42    242.4659    975.8312 307.8140716  +6.2747012     2086.549     2849.174      2965.17      84.6236     169.4492     338.5954      1.349     3.30     1041.655     59.69482     323.9465        14     1.217     0.664  65.04   0
        43    641.3339    974.2291 307.6485120  +6.2887327     1058.532      1277.94     950.4896      84.6236     169.3819     338.5954      1.289     3.79     1031.533     59.69482     185.4133         7     0.967     0.548  69.68   0
        44    130.7652    975.0502 307.8604752  +6.2712702     953.4957     1347.835     1927.964     84.75824     169.3819     338.5617      1.480     3.40     1042.272     59.69482     136.3618         8     0.839     0.707  78.02   0
        45    781.3212    969.4298 307.5905469  +6.2953940     8549.116     10804.75     11561.65     84.75824     169.4492     338.6291      1.313     2.69     1027.844     59.69482      1349.62        28     1.434     0.943 -89.14   0
        46    833.1567    971.4927 307.5689540  +6.2962737     2996.006     3486.167     3246.045     84.89267     169.3819     338.7974      1.263     3.04     1026.241     59.69482     456.5817        11     1.019     0.663  53.97   0
        47    568.0994    968.5825 307.6791101  +6.2886129     1075.807     1165.234     686.1783     84.89267     169.2472     338.3933      1.165     3.56     1033.974     59.69482      177.656         7     0.916     0.586  58.53   0
        48    250.7925    968.2971 307.8108684  +6.2780912     1784.133     2354.714     2228.034      84.6236     168.9775     338.3933      1.337     3.05     1041.643     59.69482     308.5204        11     1.041     0.662  74.54   0
        49    215.1329    967.8572 307.8256891  +6.2770750     1098.235     1607.003     1787.196     85.02689     169.3146     338.6291      1.803     5.02      1041.94     59.69482     164.6649        10     0.998     0.795  69.65   0
        50     75.8345    966.5052 307.8835703  +6.2729504       3372.2     4537.102     5018.663     85.02689     169.2472     338.7638      1.403     3.00     1042.722     59.69482     541.8142        21     1.211     0.839  59.64   0
        51    969.5287    964.4247 307.5125645  +6.3037423     8354.227     10630.98     11562.72     84.48874     169.2472     338.5954      1.279     2.59     1021.194     59.69482     1379.995        25     1.202     0.834  60.82   0
        52    225.4761    960.8198 307.8216319  +6.2803278     854.8931     1032.556     1042.519     84.48874     169.0449     338.5954      1.315     3.40     1041.983     59.69482     177.9371         8     1.016     0.587 -70.65   0
        53    651.9169    958.8778 307.6446333  +6.2954243     863.7268      1212.35     1335.184     85.02689     169.7182     338.7638      1.371     3.76     1031.105     59.69482     159.5859         8     1.053     0.563  81.71   0
        54    943.4333    956.2756 307.5236732  +6.3062364     2742.861     3477.079     3270.111     84.75824     169.3819     338.6291      1.280     2.72     1022.049     59.69482      456.546        14     1.018     0.748  56.14   0
        55      1.4521    954.3961 307.9148619  +6.2754462       1079.8     1409.904     1132.938       75.206     136.3344     256.4627      1.331     4.11     1043.051     59.69482     195.8494         9     1.167     0.470  81.13  24
        56    664.0054    952.1111 307.6398410  +6.2986223     5687.196     7270.069     6929.344     84.35367     169.0449     338.3933      1.323     2.86     1030.765     59.69482     970.0538        23     1.128     0.907  68.96   0
        57    276.1981    952.2675 307.8008604  +6.2855618     5243.963     6786.576     7153.276     84.35366       168.91     338.4607      1.306     2.76     1041.551     59.69482     877.3354        21     1.185     0.821  69.13   0
        58   1013.7087    951.6998 307.4946451  +6.3104688     1129.627     1723.892     1766.659     84.89267     169.7853     338.6291      1.608     3.57     1018.994     59.69482     194.1995        11     1.137     0.682 -83.56   0
        59    802.9205    952.5272 307.5821450  +6.3030937     1626.547     2177.457     2429.246      85.1609      169.651     338.6628      1.313     2.91     1026.761     59.69482     304.5334        10     0.979     0.605  62.21   0
        60    486.4309    950.5872 307.7136255  +6.2933068     1378.204     1485.903      1004.83     84.35367     169.1798     338.5954      1.156     2.93     1035.733     59.69482     238.6553        11     1.014     0.692  56.09   0
        61     44.9613    949.7952 307.8969529  +6.2788100     2448.394     3285.755         3186     83.94714     169.1124     338.3933      1.283     3.04     1042.759     59.69482     429.6952        13     1.132     0.660  70.82   0
        62    895.8232    948.3329 307.5437089  +6.3079270     1208.446     1505.143     689.6036     84.48874     169.3146     338.5954      1.254     3.38     1023.511     59.69482      213.308         9     0.962     0.597  71.91   0
        63    987.9872    946.3995 307.5055032  +6.3117995     697.5096     656.2313     389.2156     84.48874     169.0449     338.4607      1.225     3.45     1019.874     59.69482     145.4377         5     0.997     0.346  42.55   0
        64    967.2083    945.4601 307.5141630  +6.3114944     834.5029     885.7643      518.655     84.21838     169.1798     338.3933      1.044     3.88     1020.688     59.69482     132.4796         7     0.878     0.588  78.74   0
        65    588.7092    944.7264 307.6713542  +6.2991515     2143.378      2807.49     2435.668     84.89267      169.651     338.6964      1.330     3.01     1032.745     59.69482      340.989        15     1.135     0.774  68.17   0
        66    312.0369    945.7262 307.7862003  +6.2894653     1008.314     1291.356     1577.247     84.75824     169.4492     338.6964      1.437     3.80     1040.932     59.69482     157.9097         9     1.070     0.563  59.60   0
        67   1019.7979    944.8788 307.4923448  +6.3134877     956.4268     1210.658     1560.798     84.21838     168.8425     312.4635      1.344     3.48     1018.555     59.69482     156.2913         9     0.987     0.625  59.09  16
        68     77.6399    941.6974 307.8836585  +6.2832524     923.5729     1023.433     1129.638     84.89267     169.2472     338.8984      1.365     4.43     1042.561     59.69482     132.3431        10     1.190     0.595 -82.90   0
        69    627.8913    941.0232 307.6552091  +6.3019916     1423.776     1685.462     1574.433     84.89267     169.1798     338.4944      1.318     3.05     1031.385     59.69482     249.6661        11     1.016     0.681  70.07   0
        70    307.9011    938.7513 307.7881525  +6.2922059     1757.648     2362.933     3078.095     84.89267     169.3146     338.8647      1.452     3.00     1041.089     59.69482     307.4503        12     1.040     0.722  79.93   0
        71    575.7672    937.1292 307.6769835  +6.3018547     753.0575     1015.658     1346.963     84.75824     169.3819     338.6628      1.321     3.92      1033.24     59.69482     131.7482         6     1.050     0.553  65.15   0
        72    774.5243    935.2657 307.5945151  +6.3092714     1090.715     1105.614     1034.901     85.02689     169.3819     338.5954      1.161     2.88      1027.04     59.69482     242.6743         9     0.925     0.715 -81.16   0
        73    912.2410    931.2815 307.5374627  +6.3155145      8827.53      11043.3     11212.13     84.89267     169.3819     338.5954      1.286     2.70     1022.326     59.69482     1448.974        24     1.152     0.830  64.64   0
        74    150.2375    933.0147 307.8538092  +6.2892781     836.2692     772.3057     637.1643      84.6236     169.1798      338.427      1.284     3.67     1042.458     59.69482     138.0815         8     0.819     0.691  59.93   0
        75    448.2198    928.5827 307.7302320  +6.3011104     2749.919     3296.796     3361.531      84.6236     169.1798     338.5617      1.310     2.87     1036.684     59.69482     402.4796        15     1.035     0.821  73.09   0
        76     72.4966    940.3851 307.8858384  +6.2836211     611.9518     889.2906     737.5325      84.6236     169.1124      338.427      1.486     4.21     1042.564     59.69482     104.8837         6     1.088     0.464  79.11   0
        77    349.8011    926.8711 307.7711553  +6.2985165     11387.66      14710.5     15120.87     84.21838       168.91     338.4607      1.322     2.74     1040.109     59.69482     1991.577        28     1.193     0.897  66.59   0
        78    269.9237    925.8146 307.8043573  +6.2962716     8403.782     11314.16     11901.93     84.35366     169.1124     338.4944      1.401     2.81     1041.917     59.69482     1394.135        28     1.209     0.966  64.11   0
        79    188.4374    924.6777 307.8382297  +6.2940037     493.9435     814.1436     707.8972     84.75824     169.4492     338.6628      1.467     3.45     1042.466     59.69482     82.60645         5     1.096     0.315  68.57   0
        80    598.0980    920.3136 307.6682761  +6.3095443     1353.725     1610.226      1680.47     84.89267     169.8525     338.7301      1.301     3.19     1031.863     59.69482     188.2328        12     0.943     0.842 -76.56   0
        81    782.5089    920.0084 307.5917114  +6.3158370     970.4401      1054.56     723.0084     84.48874     169.0449     338.3933      1.041     2.56     1026.471     59.69482     172.7369         6     0.755     0.489  79.58   0
        82    928.2183    916.7445 307.5313151  +6.3220491     1240.716      1832.27      2113.22     84.35367     169.3146      338.427      1.413     3.42     1021.192     59.69482     219.8208        10     1.083     0.579  48.31   0
        83    231.8526    916.5110 307.8204787  +6.2988338     666.2214     860.3755     275.4808     84.89267     169.1798     338.7974      1.393     4.17     1042.423     59.69482     101.6851         6     1.052     0.473  59.43   0
        84    884.4147    915.2100 307.5495560  +6.3212210     879.2278     1278.019     1062.027      84.6236     169.1124     338.5954      1.328     3.34     1022.776     59.69482     167.1306         5     0.816     0.396  65.74   0
        85    426.6751    914.5474 307.7396504  +6.3061824     777.1149     1035.241     1229.177     84.89267     169.4492     338.6628      1.459     4.38      1037.14     59.69482     106.9427         9     1.022     0.635  86.74   0
        86    995.2747    912.0486 307.5036268  +6.3262241     807.3948     853.3407     424.8742     84.75824     169.4492     338.6964      1.230     3.75     1018.554     59.69482     136.1598         6     0.926     0.437  51.71   0
        87    857.1609    910.1984 307.5610412  +6.3223802      664.704     662.4875     191.3896     83.94714     169.1124     338.3596      1.272     3.63     1023.618     59.69482     136.2162         5     0.909     0.417  46.05   0
        88    764.4214    909.5272 307.5995738  +6.3195598     2049.409     2544.797     2924.617     84.48874     169.1798     338.5954      1.276     2.91       1026.6     59.69482     369.8699        14     1.049     0.780  44.45   0
        89    587.9270    910.0197 307.6728454  +6.3134536     751.4263     869.7009     669.5726     84.48874     169.3145     338.6291      1.258     3.07     1032.033     59.69482     122.8031         5     0.633     0.588  88.48   0
        90    628.5538    906.2335 307.6561027  +6.3163764     997.7076     1358.384      1392.29      84.6236     169.3819     338.5954      1.236     3.36     1030.457     59.69482     201.1473         8     1.058     0.478 -81.59   0
        91     15.0335    906.5204 307.9108412  +6.2956674     1131.517     1545.692     1815.305     84.75824     169.3819     338.6628      1.505     4.86     1042.486     59.69482     153.1232        12     1.261     0.755  63.76   0
        92    995.6390    905.2403 307.5037035  +6.3290471     1574.262     2014.996      2086.86      84.6236     169.4492     338.5281      1.300     3.26     1018.302     59.69482     259.4103        12     1.128     0.675  67.27   0
        93    640.1952    905.6763 307.6512874  +6.3169959     688.7188     655.2668     574.0253     84.48874     168.8425     338.5281      1.347     3.74      1030.17     59.69482      127.964         6     0.886     0.701  23.52   0
        94    549.5612    905.3967 307.6889318  +6.3140777     1379.364     1655.977     1764.358     83.94714     169.1798     338.3933      1.280     3.64     1033.586     59.69482     194.6709         9     0.879     0.731  39.67   0
        95    682.8977    902.8574 307.6336501  +6.3195881     3105.854     3802.285     3797.123      84.6236     169.3146     338.8647      1.286     2.66     1028.847     59.69482     580.0267        15     1.065     0.763  68.21   0
        96    973.1044    900.7770 307.5132106  +6.3301384     798.6373     977.3391     1271.687     84.89267     169.1124     338.4944      1.271     4.29     1018.989     59.69482     140.9207         7     1.017     0.622  14.33   0
        97    843.7479    899.3790 307.5669737  +6.3263991     959.8846     1336.229     730.9084     84.35367     169.3819     338.4607      1.137     3.47     1023.731     59.69482     212.3043         8     1.087     0.521  66.51   0
        98     79.5817    899.0268 307.8842936  +6.3009331     3431.944     4364.449     4537.015     84.48874     169.1798     338.5617      1.371     2.91     1042.486     59.69482     497.6631        19     1.203     0.824  75.13   0
        99    223.2159    897.9062 307.8246923  +6.3062243     2588.188     3394.306     3567.756      84.6236     169.1798     338.4944      1.366     3.12      1042.76     59.69482     371.4171        16     1.095     0.917 -89.44   0
       100     97.0379    898.1364 307.8770757  +6.3018878     2342.019      3084.72     2778.165     84.89267     169.3145     338.6964      1.372     2.99     1042.486     59.69482     386.7373        15     1.079     0.807  70.16   0
       101    960.9387    898.0197 307.5183548  +6.3308710     948.7028     1270.956     1346.498     84.48874     169.3145     338.5617      1.283     3.02     1019.308     59.69482     188.3616         8     0.855     0.619  38.15   0
       102    979.7308    895.7855 307.5106260  +6.3324200     527.9822     893.5858     816.6844     84.35367     169.2472     338.5617      1.646     3.80      1018.58     59.69482     87.17328         5     0.908     0.457  43.68   0
       103    362.3764    894.0381 307.7670397  +6.3124929     1059.054     1331.563      1491.49     84.48874     169.1124      338.427      1.308     3.37     1039.648     59.69482     171.9438        11     0.990     0.793 -71.33   0
       104    257.2816    894.9562 307.8106470  +6.3085863     986.5837     1032.368     790.2047     84.89267     169.3819     338.6291      1.196     2.47     1042.649     59.69482     163.5896         7     0.713     0.634  79.47   0
       105    815.1414    892.8296 307.5790723  +6.3281477     1010.153     1104.689      619.941      84.6236     169.4492     338.5617      1.284     3.66     1024.687     59.69482     151.3267        10     1.046     0.648  66.91   0
       106    677.5198    891.9587 307.6362492  +6.3239076     8326.343     10750.88     11276.65     84.89267     169.3819     338.5954      1.334     2.69     1028.549     59.69482     1337.528        26     1.206     0.888  56.51   0
       107     37.5667    890.4072 307.9020298  +6.3030777     1551.755     1995.949      2019.68     84.35367     169.2472     338.4607      1.442     3.27     1042.486     59.69482     263.8517        14     1.148     0.788  38.62   0
       108     50.6740    888.9471 307.8966368  +6.3041215     1199.078     1450.679     595.0527     84.89267     169.4492     338.6628      1.387     3.09     1042.486     59.69482     212.4403        11     1.083     0.648  58.32   0
       109    915.2763    888.2355 307.5376443  +6.3333871     3396.423     3884.142     4120.325     84.75824     169.4492     338.6964      1.214     2.71     1020.573     59.69482     569.0533        14     1.007     0.742  60.17   0
       110    790.3801    888.7690 307.5894907  +6.3289970     559.9301     672.4356      655.697     84.35367     169.1798     338.5281      1.369     3.40     1025.416     59.69482     98.21741         5     1.185     0.283  35.13   0
       111    360.5200    885.1359 307.7681104  +6.3161058     19373.85     25430.81     26590.12      85.1609     169.4492     338.6291      1.384     2.80     1039.684     59.69482     3002.784        38     1.274     0.980  60.81   0
       112     94.9724    886.0649 307.8783409  +6.3068017     1707.637     2526.434     2433.808     84.48874     169.3819     338.5617      1.455     3.84     1042.486     59.69482     270.8402        15     1.295     0.730  68.45   0
       113    231.6145    884.8143 307.8216466  +6.3119111     1437.371     2245.025     1564.961      84.6236     169.0449     338.5954      1.539     4.26     1042.923     59.69482     214.5101        15     1.271     0.827  49.20   0
       114    411.5662    884.4543 307.7469371  +6.3180992     698.0927     874.6053     1169.107     84.75824     169.3819     338.6291      1.709     4.20      1037.47     59.69482     134.9506         8     1.067     0.640  76.47   0
       115    438.3820    876.1232 307.7360826  +6.3224377     1318.264     1755.847     1710.573     84.35366     169.1124     338.6291      1.451     4.34     1036.489     59.69482     202.3054        12     1.207     0.728  69.18   0
       116    123.9063    875.8361 307.8666725  +6.3119975     1958.701     2643.541     2679.194     85.02689     169.2472     338.7638      1.442     2.89     1042.759     59.69482     352.7682        12     1.059     0.676  73.88   0
       117    692.1097    872.3239 307.6308500  +6.3325016     1026.562     1393.643      1752.58     84.89267      169.651     338.6964      1.493     4.13     1027.428     59.69482      182.219         9     1.184     0.583  86.42   0
       118    518.8759    872.8112 307.7027694  +6.3265024     792.0883     1151.166     1007.227     84.48874     169.0449     338.4607      1.476     4.19     1033.663     59.69482     145.3025         6     0.793     0.630  -1.50   0
       119    905.5928    869.8158 307.5422827  +6.3406685     2574.066     3293.012     3701.405     84.48874     169.1124     338.4944      1.305     2.74     1020.229     59.69482     448.2915        15     1.041     0.823  73.74   0
       120    876.3745    869.4820 307.5544272  +6.3398312     2545.231     3188.203     3174.994     84.75824     169.1124     338.6628      1.279     2.74     1021.343     59.69482     406.8868        14     1.053     0.743  67.30   0
       121    107.4750    869.4265 307.8737116  +6.3140910     2991.025     4077.778     4566.407     84.48874     169.3146     338.6291      1.378     3.03     1042.601     59.69482     444.4375        18     1.235     0.788  71.88   0
       122    839.6876    868.8918 307.5696818  +6.3388500     3859.431     4820.755     5453.644     84.89267     169.8525     338.7638      1.322     2.84     1022.825     59.69482     676.7579        17     1.141     0.741  64.94   0
       123    575.6176    860.3202 307.6796273  +6.3335594     402518.5     517687.6     535507.1     84.48874     169.0449     338.5617      1.357     3.13      1031.05     59.69482     61914.34       155     1.462     1.153  61.14   4
       124    470.2734    866.8878 307.7231507  +6.3273194     676.4509      768.593     1520.724     84.89267      169.651     338.6628      1.382     4.75     1035.273     59.69482     100.2209         8     1.007     0.636 -84.10   0
       125    355.6380    867.2620 307.7707397  +6.3233209     767.9961     1135.781      1557.12     84.89267     169.4492     338.6628      1.637     3.26     1039.896     59.69482     127.0958         6     0.856     0.497  44.47   0
       126    663.2169    863.3137 307.6431505  +6.3352551     1472.256     1871.676     1575.951     84.48874     169.1124     338.5954      1.384     3.73     1027.797     59.69482     206.1665        12     1.092     0.697  75.34   0
       127    419.8647    862.8824 307.7442175  +6.3272832     9166.227     12179.27     12129.96     85.02689     169.5165     338.6964      1.367     2.84      1037.01     59.69482     1514.195        29     1.235     0.966  57.88   0
       128    363.0986    861.3058 307.7678424  +6.3260301     14611.84     19316.89     20606.82     84.89267     169.9867     338.4944      1.382     2.89     1039.511     59.69482      2295.31        35     1.265     1.011  60.73   0
       129    681.4908    857.6287 307.6357530  +6.3382133     4313.643     5601.729     5771.025     85.02689     169.1124     338.5281      1.315     2.67     1027.128     59.69482     724.9296        19     1.240     0.740  65.89   0
       130    913.9788    856.4674 307.5392474  +6.3464592     6531.852     8234.959      8969.84     84.48874     169.3819     338.5617      1.284     2.55     1019.472     59.69482     1123.714        21     1.141     0.809  63.38   0
       131    908.6130    856.2635 307.5414825  +6.3463643      781.795     1008.652      1378.53     84.35367     169.1798     338.4607      1.581     5.53     1019.671     59.69482     117.6814         8     1.122     0.767 -71.71   0
       132    753.2304    853.9865 307.6060845  +6.3421154     977.9252     1124.512     1303.493     84.48874     169.1124     338.5954      1.228     3.66      1025.49     59.69482     175.4275        10     1.128     0.647  62.88   0
       133    656.2329    851.6407 307.6464428  +6.3398405     4049.539     5378.081      6004.48      84.6236     169.3146     338.4944      1.368     2.71     1027.679     59.69482     603.2837        21     1.240     0.853  54.31   0
       134    199.4478    851.6281 307.8361227  +6.3245305     580.2641     623.9911     544.3423     84.48874     169.3819     338.5954      1.256     4.15     1043.003     59.69482     106.9885         5     0.974     0.504  46.61   0
       135    844.8164    850.6870 307.5681623  +6.3465370     2024.452     2558.962     2056.126     84.48874     169.1124     338.5281      1.235     2.89     1022.037     59.69482     371.5296        10     0.999     0.600  62.94   0
       136    646.6640    850.5394 307.6504534  +6.3399751     1170.837      1702.74      1788.36     84.89267     169.3146     338.6964      1.461     3.05     1027.971     59.69482     175.5203        10     0.970     0.711  65.85   0
       137    971.6593    849.4581 307.5155289  +6.3512771     870.3171     1205.527     1257.486     84.89267     169.3146     338.6964      1.178     3.41     1016.899     59.69482     158.8232         5     1.044     0.322  69.49   0
       138    649.2299    846.1595 307.6495350  +6.3418691     2657.243     3439.324     3603.666     84.35366     169.1798     338.5281      1.348     2.95     1027.725     59.69482     404.6259        15     1.116     0.753  66.79   0
       139    932.8174    844.3007 307.5318318  +6.3521107      3934.81     4990.233     5094.178     84.89267     169.2472     338.3933      1.298     3.00     1018.326     59.69482     677.3209        18     1.159     0.765  64.18   0
       140    343.0454    845.1977 307.7767120  +6.3320072     1216.196     1385.295      1163.93     84.21838     168.9775     338.2585      1.189     2.35     1040.169     59.69482     244.1008         7     0.698     0.647 -57.81   0
       141    390.9537    840.3020 307.7569831  +6.3356355     3150.822     4564.224      4843.19     84.89267     169.2472     338.8647      1.469     2.59     1037.928     59.69482     574.9232        20     1.217     0.911  63.50   0
       142    812.6582    834.8358 307.5820483  +6.3520072     509.5437     932.2463      1296.59     84.89267     169.3819     338.6628      1.545     3.45     1022.445     59.69482     90.23438         5     0.779     0.441  74.17   0
       143    359.4690    832.0883 307.7703338  +6.3379702     681.8325     884.4058     1192.895     85.02689      169.651     338.6628      1.321     3.85     1039.186     59.69482     103.9739         7     0.928     0.596  35.72   0
       144    527.3279    830.0983 307.7006962  +6.3444191     3575.451     4533.256     4473.265      84.6236     169.5165     338.6628      1.322     2.88     1032.013     59.69482     566.3387        18     1.131     0.811  63.34   0
       145    871.8369    829.1658 307.5576628  +6.3563241     1362.146     1734.503     1605.382      84.6236     169.1124      338.427      1.298     3.09     1020.542     59.69482     240.4155        10     0.998     0.653  56.32   0
       146    592.2460    827.4836 307.6738260  +6.3476723     974.2293     1400.674     1337.897     84.89267     169.3819     338.6628      1.433     2.52      1029.19     59.69482     166.4111         7     0.804     0.577  77.40   0
       147    574.0056    826.1398 307.6814458  +6.3476164     7303.536     9673.187     9851.409     84.21838     169.2472      338.427      1.366     2.71      1029.93     59.69482     1236.004        27     1.159     0.992  62.60   0
       148    285.7997    826.3879 307.8011171  +6.3378509     871.4846     1198.215      1372.05     84.48874     169.0449     338.4607      1.639     3.66      1042.45     59.69482     145.6523         8     0.993     0.568  69.49   0
       149    580.9285    825.4156 307.6785953  +6.3481472     1568.443     1959.103     2420.199     84.35366     169.3146     338.5281      1.282     3.28     1029.592     59.69482     237.6342        13     1.059     0.792  68.04   0
       150    491.9105    825.0445 307.7155737  +6.3453189     1948.806     2371.313     2416.335     84.89267     169.2472     338.7301      1.328     3.00     1033.214     59.69482     340.8857        16     1.133     0.848  52.84   0
       151    909.7538    824.3264 307.5420788  +6.3595875     1785.138     2076.608     2265.768     84.75824     169.4492     338.6628      1.150     2.39     1018.731     59.69482     316.2004         9     0.849     0.616  63.74   0
       152    133.7985    824.4088 307.8643013  +6.3335606       1498.1     2122.499     1902.467     84.21838     169.0449      338.427      1.441     3.11     1042.364     59.69482     238.6091        10     0.919     0.697  74.03   0
       153    709.8015    822.8643 307.6251638  +6.3535122     845.6086     1413.943     541.4243     84.21838     169.1124      338.427      1.600     3.99     1025.497     59.69482     127.1487         6     0.793     0.575  53.97   0
       154    386.0166    822.0440 307.7596481  +6.3430075     837.9153     1194.457     847.4005     84.48874     169.2472      338.427      1.325     3.43     1037.861     59.69482     170.4054         6     1.121     0.357  62.34   0
       155    544.7279    820.0027 307.6938101  +6.3491697     22963.29     30085.52     31011.64     84.35366     168.9775     338.4944      1.372     2.75     1030.976     59.69482     3779.017        34     1.241     0.940  62.38   0
       156    958.3240    818.2659 307.5221114  +6.3637100     4724.294     5808.504     5886.073     85.02689     169.3819     338.6291      1.194     2.58     1015.955     59.69482     804.0282        16     1.071     0.739  65.33   0
       157    191.6566    819.2807 307.8404494  +6.3376226     611.6815     705.6997     155.0352     85.02689     169.3819     338.6628      1.191     4.00     1042.383     59.69482     99.75061         6     0.919     0.497  43.92   0
       158    430.8234    815.7870 307.7412524  +6.3470932     589.4248     899.9737     1326.373      84.6236     169.1798     338.5617      1.797     3.66      1035.78     59.69482     121.8665         5     0.900     0.429  46.01   0
       159     55.2686    810.5410 307.8973783  +6.3366439     1690.432     2311.059     2692.497     85.02689     169.3146     338.6628      1.465     2.97     1042.423     59.69482     249.3051        13     1.060     0.756  62.19   0
       160    337.3058    808.7485 307.7803236  +6.3468620     3746.001     5228.651      5620.99     84.75824     169.3146      338.932      1.455     2.84     1039.804     59.69482     555.9943        23     1.206     0.956  60.26   0
       161    600.1563    809.3745 307.6711497  +6.3554133     713.6267     1062.825     1044.051     84.48874     169.4492     338.5281      1.665     4.98     1028.186     59.69482     107.4756         7     1.135     0.619  54.42   0
       162    802.8762    804.5599 307.5871260  +6.3641796     68315.52      85712.3     88148.87     84.75824     169.3819     338.7301      1.316     2.73     1021.194     59.69482     11604.12        58     1.263     1.021  63.25   0
       163     37.4291    807.0121 307.9049052  +6.3375003     2501.889     3350.715     3332.977     84.35366     169.1798     338.5617      1.374     3.08     1042.562     59.69482     403.6954        17     1.164     0.830  58.45   0
       164    741.3400    806.2186 307.6126253  +6.3614386     697.3219     735.3085     281.2281     84.48874     169.3146     338.4607      1.231     3.43     1024.307     59.69482     134.8896         5     0.750     0.455  77.09   0
       165    259.5814    781.0140 307.8135343  +6.3557022     770165.4      1611472      1758133     84.48874     168.9775     338.5617      2.143     5.05     1041.327     59.69482     65091.74       606     2.781     2.049  77.90   4
       166    731.1254    799.1588 307.6171042  +6.3640117     25665.63     33675.27     35380.32     84.75824     169.3819     338.6964      1.351     2.78     1024.342     59.69482     4181.463        44     1.331     0.989  60.83   3
       167    724.8418    795.6494 307.6198315  +6.3652505     106047.3       135865     140881.4     85.02689     169.3819     338.6291      1.342     2.78     1024.293     59.69482     17593.84        71     1.330     1.030  60.63   3
       168    369.7380    796.5598 307.7672664  +6.3529821     23914.93     32445.06     33858.03     84.89267     169.3819     338.6964      1.476     2.87     1038.021     59.69482     3533.373        48     1.387     1.074  56.07   0
       169    446.4027    803.2377 307.7352053  +6.3527963     907.5891     1271.513     783.1968     83.94714     169.1124     338.4607      1.324     3.30     1034.779     59.69482     164.8531         7     0.894     0.531  42.03   0
       170    431.5832    794.3607 307.7416582  +6.3559642      25379.1     33895.47     34687.84     84.48874     169.2472      338.427      1.435     2.90      1035.16     59.69482     3780.345        44     1.323     1.041  57.52   0
       171    418.8445    796.6317 307.7468717  +6.3545995     1767.192     2428.264     2893.948     84.48874     169.4492     338.5281      1.460     3.16     1035.959     59.69482     275.9462        13     1.088     0.739  50.15   0
       172    658.4610    795.7184 307.6473959  +6.3630021     974.0385      1275.63     1434.156     85.02689     169.3819     338.6628      1.270     2.88     1025.686     59.69482     168.5609         8     0.927     0.572  25.99   0
       173    968.7941    793.4675 307.5185937  +6.3742971     2575.292     3340.125     3715.687     84.35367     169.0449     338.4607      1.338     2.73     1014.194     59.69482     454.6956        15     1.163     0.707  73.48   0
       174    925.1254    791.1884 307.5368054  +6.3737813     8435.074     10714.91     11214.98     84.35366     169.0449     338.4607      1.301     2.67      1016.89     59.69482     1477.079        25     1.216     0.858  63.96   0
       175    897.7945    791.9330 307.5481308  +6.3725619     825.5538     1156.119     735.9512     84.35366     169.0449     338.4607      1.444     4.48     1018.201     59.69482     134.6052         8     1.060     0.537  37.37   0
       176    665.6422    790.2034 307.6445990  +6.3655191     7628.389     9949.848     10003.44     84.21838     169.0449     338.3596      1.366     2.81     1025.204     59.69482     1134.674        23     1.130     0.922  60.87   0
       177    454.3510    788.4048 307.7324039  +6.3591862     2020.554     2750.777     2566.329     84.21838     169.1798     338.2922      1.465     3.23     1033.789     59.69482     295.0537        16     1.156     0.886  72.03   0
       178    179.4566    787.4791 307.8465886  +6.3503411     879.5923     1167.443     837.0561     84.89267     169.3819     338.6628      1.384     4.29     1041.916     59.69482      133.033        11     1.171     0.698  50.05   0
       179    893.6784    782.3599 307.5501610  +6.3763767     787.3505     1124.842     981.6993     84.75824     169.3819     338.6628      1.510     3.16     1017.869     59.69482     143.3906         8     0.876     0.683  79.69   0
       180    618.8643    782.2832 307.6642911  +6.3672237     1090.365      1258.48     866.4818     85.02689     169.5837     338.6964      1.356     3.35     1026.477     59.69482     159.1466         9     0.904     0.655  58.88   0
       181    700.7186    780.4792 307.6303588  +6.3707068     2968.219     3688.946     3345.432     85.02689      169.651     338.8647      1.323     2.93     1024.018     59.69482     460.3271        16     1.067     0.863  61.12   0
       182    170.0500    780.8133 307.8507198  +6.3527767      1057.19     1539.222     1350.009     84.21838     169.3146     338.3596      1.473     3.97     1041.886     59.69482     149.7366        10     1.019     0.744 -87.31   0
       183    144.7687    780.9408 307.8612136  +6.3518741     1213.178     1630.055     1684.508      84.6236     169.3819     338.6291      1.359     3.84     1041.944     59.69482     162.3705        11     0.967     0.863  80.21   0
       184    434.5327    777.0481 307.7410162  +6.3632103     60610.37     82744.41     85375.26     84.89267     169.3146     338.6964      1.459     3.02     1034.276     59.69482     9157.962        61     1.376     1.109  60.23   0
       185    977.5089    778.8975 307.5154624  +6.3806029     903.9353     1068.049     1544.558     84.89267     169.9196     338.6628      1.268     3.71     1013.428     59.69482     138.1645         6     0.795     0.497  84.93   0
       186     87.0546    778.7676 307.8852529  +6.3508301     677.4503     796.4767     1178.016     84.75824     169.3819     338.6291      1.282     2.81      1042.13     59.69482     119.3812         5     0.771     0.492  60.76   0
       187    552.1969    776.0404 307.6921868  +6.3675691     7936.256     10794.27     10911.75     84.08286     169.0449     338.3596      1.414     2.92     1028.934     59.69482     1096.994        31     1.316     0.982  57.03   0
       188    469.0842    774.6571 307.7267483  +6.3653556     5221.106     7146.735     8210.586     84.89267     169.3819     338.7638      1.477     3.18     1032.522     59.69482     720.0874        23     1.261     0.898  67.95   2
       189    465.6440    767.9670 307.7284021  +6.3680022     2462.047     3125.171     3745.726     84.48874     169.3146     338.4944      1.404     2.96     1032.392     59.69482     388.0309        16     1.138     0.788  69.20   2
       190    232.4376    775.5449 307.8249905  +6.3570482     731.5869     1577.221      2636.73     84.89267     169.4492     338.6964      2.815     5.25     1041.558     59.69482     116.0198         7     1.118     0.697 -61.22   0
       191    797.4730    772.6892 307.5904390  +6.3771568     14371.86     18232.23     18618.33     84.89267      169.651     338.6628      1.297     2.63     1020.261     59.69482     2263.009        31     1.188     0.943  55.62   0
       192    692.5596    771.8908 307.6340356  +6.3739796     545.1588     452.2335     111.1264     84.89267     169.3819     338.6964      1.072     3.40      1023.86     59.69482     109.0171         5     0.754     0.444  68.67   0
       193    215.6653    767.5100 307.8322265  +6.3598017     809.2065     1526.417     3193.201     84.75824     169.5837     338.6628      5.440     6.67     1041.575     59.69482     104.6923        12     1.339     0.932 -42.38   2
       194     27.0805    768.9830 307.9104877  +6.3528511     1211.261     1706.316     1618.367     84.48874     169.0449     338.5617      1.321     2.86     1042.657     59.69482     218.4066         7     0.868     0.514  45.85   0
       195    819.1645    766.7715 307.5816291  +6.3803244     1583.472     2013.727     1914.791     84.48874     169.1124     338.4607      1.331     3.13     1019.449     59.69482     266.2653        11     1.070     0.614  57.15   0
       196    155.2850    764.6852 307.8573955  +6.3589384     12888.56     17842.48     18270.59      84.6236     169.5165     338.7301      1.454     2.97     1041.828     59.69482     1857.738        36     1.334     1.029  56.94   2
       197    147.4924    762.1447 307.8607172  +6.3597252     3262.741      4621.88     4900.194     84.75824     169.2472     338.8311      1.509     3.00     1041.842     59.69482     481.4965        19     1.239     0.820  64.08   3
       198    928.1528    799.8063 307.5352594  +6.3703244     10625.25     13252.89     14101.21     84.35366     169.1798     338.2922      1.265     2.71      1017.17     59.69482     1917.884        26     1.184     0.859  56.01   0
       199    163.4729    764.9955 307.8539849  +6.3590856     3399.494     4656.499     4082.951     84.48874       168.91     338.5281      1.469     3.00     1041.796     59.69482     525.2695        22     1.241     0.954  65.95   0
       200    943.0688    761.2899 307.5303551  +6.3867235     8243.494     10193.26     10153.32     85.02689     169.5837     338.6628      1.282     2.68     1014.707     59.69482     1426.207        22     1.117     0.834  61.38   0
       201    992.1979    761.4315 307.5099468  +6.3883035     1880.351     2412.037     3196.042     84.21838     169.1798      338.427      1.322     3.08     1012.591     59.69482     293.6134        11     1.017     0.658  58.34   0
       202    698.3775    759.0322 307.6320512  +6.3794828     2094.929     2759.287     2883.728     84.35366     169.1798      338.427      1.424     3.69     1023.194     59.69482     304.3976        15     1.234     0.795  67.51   0
       203    585.3475    758.1067 307.6790228  +6.3760828     2761.739     3560.616     3871.652     84.75824     169.3146     338.8984      1.365     2.96     1026.874     59.69482     399.5677        15     1.097     0.794  60.48   0
       204    433.6586    757.9100 307.7420236  +6.3710818     1264.188     1871.261     1883.536     84.75824     169.3819     338.7974      1.658     3.42     1033.506     59.69482     195.2704        11     1.123     0.640  74.40   0
       205    147.6528    755.6861 307.8608686  +6.3623969     2063.957     2931.396     3519.365     84.89267     169.3146     338.7974      1.637     3.54     1041.807     59.69482     282.3229        18     1.247     0.867  68.33   0
       206    966.7090    752.8078 307.5208213  +6.3910138     3754.754     4989.269     4767.531     84.48874     169.0449     338.4607      1.297     2.49     1013.507     59.69482      792.558        20     1.214     0.781  41.60   0
       207    937.1159    753.1865 307.5330989  +6.3898704     3536.768     4688.678     4692.253     84.48874     169.1798     338.4944      1.304     2.80     1014.638     59.69482     632.2315        18     1.100     0.780  61.92   0
       208    997.5908    752.5739 307.5080037  +6.3921402     2417.439     2805.054     2428.482     84.48874     169.1798     338.5281      1.193     2.81     1012.338     59.69482     438.3675        13     1.024     0.701  61.74   0
       209    689.5781    752.5011 307.6359249  +6.3818848     1771.798     2265.268     2574.919     84.75824     169.1124      338.427      1.381     2.83     1023.165     59.69482     267.3619        11     0.922     0.748  60.71   0
       210    836.8881    750.8129 307.5748037  +6.3875048     1185.815     1342.097     883.9417     84.48874     169.1124     338.5281      1.185     3.05     1018.271     59.69482     241.5256         8     1.014     0.473  56.02   0
       211    262.2671    747.4717 307.8135502  +6.3696396     2068.855     3222.461     3719.274     84.89267     169.5165     338.6964      1.715     3.32     1040.147     59.69482     292.5404        18     1.150     0.962  58.05   0
       212    912.0723    748.1553 307.5436683  +6.3911119     866.8762     934.8006     881.7062     84.75824     169.4492     338.6964      1.188     3.27     1015.385     59.69482     172.9887         7     0.900     0.486  48.65   0
       213    282.5905    743.2173 307.8052539  +6.3720785      791.624     1078.652     741.2471      84.6236     169.1124     338.5281      1.554     5.74     1039.365     59.69482     106.8116        12     1.171     0.792  75.09   0
       214    955.2009    742.8373 307.5259347  +6.3947463     1283.311     1602.934     1722.992     83.94714     169.1798     338.4607      1.233     2.63     1013.673     59.69482     251.2754         7     0.854     0.528  60.35   0
       215    928.8087    741.7145 307.5369333  +6.3943294     1341.431     1664.345     1761.499     84.48874     169.0449     338.4944      1.255     2.61     1014.429     59.69482     274.4696        12     1.041     0.648  78.61   0
       216    177.9987    742.7195 307.8487048  +6.3687700     783.0399     999.5451     1057.022     84.08286     168.7749     338.3933      1.336     3.08     1041.525     59.69482     126.8116         7     0.738     0.657  24.20   0
       217    981.5947    740.4532 307.5150528  +6.3966108     3085.606      3785.82     4110.917     84.21838     169.1124     338.3259      1.234     2.62     1012.809     59.69482     624.6651        15     1.103     0.707  57.30   0
       218    989.9248    739.7969 307.5116152  +6.3971595     575.0024     537.2486     383.8998     84.35366     168.8425     338.5617      1.250     4.41     1012.578     59.69482     84.75073         6     0.831     0.665   7.07   0
       219    701.3145    739.7105 307.6314803  +6.3875578     1230.697     1512.534     2361.594      84.6236     169.7182     338.7974      1.168     2.92     1022.297     59.69482     201.1387        10     0.923     0.685  37.91   0
       220   1023.2666    733.9918 307.4979622  +6.4006678     1951.358     2404.226     2223.074     78.32543     140.6165     261.7003      1.183     2.64     1011.507     59.69482     357.2222        11     0.967     0.646  70.09  24
       221    422.1084    735.0919 307.7475884  +6.3801146     685.0562     1009.633     1147.237     84.89267     169.9196     338.6964      1.567     2.83     1033.058     59.69482     117.8142         6     0.750     0.556  50.28   0
       222    649.5133    733.7375 307.6531940  +6.3882910     795.8181     727.7688     822.4402     85.02689     169.5837     338.6964      1.212     4.42     1023.749     59.69482     157.3821         7     1.177     0.472  81.22   0
       223    824.8356    732.3704 307.5804276  +6.3947162     1441.899     1549.861     1552.005     84.48874     169.1124     338.4607      1.175     2.85     1017.816     59.69482     259.9641         9     0.893     0.651  65.61   0
       224    910.9077    729.7103 307.5447700  +6.3986880     1984.635     2417.579     2456.934     84.89267     169.9196     338.6964      1.350     2.91     1014.687     59.69482      367.829        14     1.187     0.718  52.40   0
       225    885.3430    724.8759 307.5555495  +6.3998306     1211.668     1479.121     1884.866     84.89267     169.3146     338.5954      1.258     3.06     1015.469     59.69482     219.8103         8     0.937     0.528  71.62   0
       226    671.1369    724.1923 307.6445343  +6.3929550     564.7605     690.1325     958.8653     84.21838     169.1124     338.4607      1.386     3.70     1022.834     59.69482     123.2715         5     1.027     0.384  56.34   0
       227    867.8154    721.2789 307.5629495  +6.4007305     1736.816     2082.688     1813.559     84.48874     169.1124     338.4944      1.269     3.13     1015.922     59.69482     291.6496        11     1.073     0.595  49.92   0
       228    130.5197    717.0031 307.8692897  +6.3777900     833.0384     1541.517     2045.759     84.21838       168.91     338.3933      2.577     4.57     1041.115     59.69482     138.6493         8     1.209     0.490  66.16   2
       229     66.9526    719.8774 307.8955901  +6.3744649     2747.745     3877.758     3990.313     84.75824     169.4492     338.6291      1.451     2.89      1042.11     59.69482     422.9316        17     1.122     0.875  72.94   0
       230    584.1983    715.0242 307.6809484  +6.3938305     767.3635     1135.746     650.2291     84.48874     169.0449      338.427      1.546     4.11     1025.529     59.69482     143.1503         7     1.002     0.713 -11.94   0
       231    722.9786    711.9767 307.6234143  +6.3997318      472.303     622.2484    -120.5728      84.6236     169.1798     338.6291      1.050     3.54     1020.673     59.69482     97.45264         5     0.984     0.367  57.11   0
       232    679.6192    708.5524 307.6415369  +6.3996955     7249.334     9881.991     10185.73     84.35367     169.3819     338.4607      1.451     2.89     1022.173     59.69482      1092.81        31     1.287     0.983  71.58   0
       233    626.3975    708.1577 307.6636537  +6.3980778     1650.901     2372.447     2609.545     84.21838     168.9775     338.3596      1.450     4.03     1023.743     59.69482     254.6127        16     1.302     0.787  66.26   0
       234    548.7291    708.9269 307.6958840  +6.3951600     583.4579      797.117     264.0569      85.1609     169.5165     338.6628      1.525     3.88     1026.943     59.69482     90.75293         5     0.855     0.504  33.60   0
       235    537.4896    708.4514 307.7005678  +6.3949798     1045.884     1296.786     755.7592     84.89267     169.1798     338.7974      1.309     3.74     1027.442     59.69482      152.455        10     1.055     0.700 -70.81   0
       236    142.6684    704.4957 307.8646669  +6.3833619     4238.367     6088.145     6293.566     84.75824     169.5165     338.6964      1.530     3.23     1040.417     59.69482     605.0708        24     1.330     0.906  62.59   0
       237   1016.6277    703.7841 307.5017307  +6.4129176     3133.086     3577.105     3098.408     84.48874     169.1124     338.3259      1.192     2.64     1009.999     59.69482     582.0018        15     1.025     0.751  64.55  16
       238    653.5046    704.3281 307.6525245  +6.4005659     2446.069     3194.905     3067.722      84.6236     169.5165     338.6628      1.451     2.99     1022.846     59.69482     332.8214        17     1.080     0.902  68.94   0
       239    329.3288    704.6913 307.7871430  +6.3895523     1013.325       1367.9     1603.845     84.75824     169.5837     338.6628      1.522     4.13      1035.84     59.69482     134.8793        10     0.970     0.733  52.00   0
       240    264.8963    703.9824 307.8139251  +6.3876816     784.5128     1096.647      930.181     84.75824     169.1798     338.4607      1.427     5.23     1038.368     59.69482     104.4493         9     1.006     0.781  59.77   0
       241    796.4570    700.6761 307.5932768  +6.4068530     24142.25     30781.97      32114.3     84.89267     169.3146     338.5954      1.336     2.67     1017.281     59.69482     3737.369        37     1.254     0.945  56.74   0
       242    926.5204    700.3609 307.5392692  +6.4113257     4644.964     5600.823     5581.558     84.75824     169.4492     338.6291      1.228     2.65     1013.365     59.69482     763.8049        16     1.057     0.754  58.83   0
       243    524.0871    700.3655 307.7064059  +6.3978690     970.0663     1367.409     892.5557     84.89267     169.2472     338.6628      1.428     3.03     1027.848     59.69482     176.7317        10     0.957     0.716  43.98   0
       244    495.5956    700.7520 307.7182255  +6.3967548     1389.803      1886.22     1857.527     84.21838     169.1798     338.3259      1.482     4.57     1028.999     59.69482      175.386        12     1.165     0.752  56.88   0
       245    341.1831    700.4276 307.7823637  +6.3917104     788.8119       1045.5     1133.702     84.48874     169.1124     338.5617      1.350     3.36       1035.1     59.69482     126.6068         7     0.858     0.599 -75.38   0
       246    297.6588    700.7554 307.8004280  +6.3901140     599.6857     604.8841     511.8574     84.75824     169.3146     338.7974      1.408     4.95     1037.012     59.69482     95.20435         6     1.190     0.583 -64.08   0
       247    270.0458    694.4244 307.8121089  +6.3918003     6804.881     9551.374     9609.525     84.48874     169.3819     338.5281      1.493     3.08     1037.785     59.69482     994.2703        27     1.276     1.000  67.71   0
       248    677.0258    693.4758 307.6431204  +6.4058330     8104.149     10913.84     11569.12     84.48874     169.3146     338.6291      1.425     2.89      1021.91     59.69482     1220.679        28     1.250     0.986  60.92   0
       249    659.3458    694.5746 307.6504263  +6.4047879     1068.427     1333.464     968.2179     84.48874     169.4492     338.4944      1.285     2.68     1022.482     59.69482     192.5892         8     0.921     0.583  64.52   0
       250     37.2256    686.8058 307.9090526  +6.3871171     463.6826     671.7155      877.577     84.35366     169.1798     338.4607      1.300     3.49     1042.482     59.69482     79.26074         5     1.010     0.349  44.44   0
       251    936.7628    685.9322 307.5354987  +6.4176243     1551.218     1928.672     1777.486     84.75824     169.3819     338.7974      1.346     3.10     1012.607     59.69482     301.9662        11     1.075     0.694  53.07   0
       252    748.7726    681.9989 307.6137080  +6.4129703     4197.485     5801.371     6127.088     84.35366     169.1124     338.4607      1.391     3.11     1018.571     59.69482     654.9274        20     1.181     0.846  63.26   0
       253    704.0144    682.3804 307.6322842  +6.4113163     1234.266     1497.672     745.8914      84.6236     169.1124     338.5617      1.232     3.34     1020.522     59.69482     196.6049         9     0.920     0.654  67.51   0
       254   1015.0499    678.5386 307.5032312  +6.4232876     11238.22     13538.24     13725.05     84.89267     169.3146     338.7301      1.249     2.66     1008.699     59.69482     1953.007        27     1.156     0.848  62.69   0
       255     14.5842    680.8134 307.9186576  +6.3888286     692.9489     668.0662     547.8961      84.6236     169.0449     338.5954      1.090     2.05     1043.066     59.69482      154.403         5     0.700     0.430  64.15   0
       256    953.5419    678.9921 307.5287623  +6.4210492     2930.032       3639.7     3987.803     84.21838     169.2472      338.427      1.249     2.76     1011.607     59.69482     506.9019        13     1.034     0.685  57.89   0
       257     34.4428    678.4270 307.9104915  +6.3904823     2000.024     2963.525     3296.287     84.48874     169.3819     338.5281      1.526     3.18      1042.55     59.69482     284.1287        14     1.113     0.806  57.06   0
       258    568.2413    677.2603 307.6888453  +6.4088866     545.0643     692.1057     413.4969     84.89267     169.3819     338.7301      1.262     3.94     1025.439     59.69482     88.57764         5     0.953     0.466  45.39   0
       259    451.3913    676.6155 307.7373962  +6.4052376     576.7618      885.442     745.1084      84.6236     169.1124     338.4944      1.212     3.84     1029.868     59.69482     91.44751         5     0.952     0.445 -76.15   0
       260     92.4266    673.3959 307.8865819  +6.3945107     28222.56     39691.75      41236.2     84.35367     169.1798     338.4944      1.518     3.13     1040.826     59.69482     3869.725        47     1.421     1.075  63.40   0
       261    553.8519    674.3619 307.6949189  +6.4096013     2292.712     3333.355     3878.805      84.6236     169.4492     338.6628      1.550     3.00     1026.155     59.69482      364.765        18     1.211     0.882  41.80   0
       262    522.4298    671.5869 307.7080623  +6.4096944     1568.049     2025.694     2159.616     84.35367     169.1798     338.5954      1.391     3.42     1027.438     59.69482     245.1561        14     1.107     0.814  64.07   0
       263    943.6866    670.5373 307.5331388  +6.4242110     1225.447     1442.505     1677.851     85.02689     169.5837     338.6964      1.260     2.94     1011.804     59.69482     219.3179         8     0.936     0.575  68.61   0
       264    562.7943    668.0472 307.6914173  +6.4125077     1142.134     1543.857     1664.341     84.21838     169.1798     338.2922      1.390     3.69     1025.581     59.69482      192.702         9     0.960     0.762  47.33   0
       265    760.4373    663.7983 307.6094742  +6.4208741     4781.291     6257.827     5536.923     83.94714     169.1798     338.4607      1.360     2.78     1017.577     59.69482     718.5964        19     1.135     0.879  53.28   0
       266    591.8217    661.8519 307.6795700  +6.4160373     3823.401     5144.857     4959.426     84.35366     169.3819     338.4607      1.415     3.31     1023.945     59.69482     566.0414        20     1.147     0.903  68.14   0
       267    428.0061    662.2693 307.7475914  +6.4103761     1448.409      2119.74     2648.444     84.35366     168.9775     338.4944      1.612     3.63     1030.049     59.69482     230.0181        13     1.148     0.776  51.51   0
       268    336.1550    660.6956 307.7857910  +6.4079442     1638.859     2492.711     2359.134     84.89267     169.3146     338.7974      1.616     3.83     1033.652     59.69482     213.9916        14     1.111     0.868  76.59   0
       269    252.7354    661.4133 307.8204113  +6.4048468     1707.884     2272.215     2444.032     84.35367     169.1798     338.5617      1.485     3.56     1037.043     59.69482     235.0018        13     1.091     0.776  53.37   0
       270    998.7106    658.8869 307.5106754  +6.4308560     10004.54     12621.92      12323.5      84.6236     169.8525     338.7974      1.278     2.75     1008.347     59.69482     1826.523        24     1.170     0.814  54.71   0
       271    738.3228    665.5507 307.6186002  +6.4194115     4258.102     5669.667     5801.246     84.75824     169.4492     338.6628      1.405     2.83      1018.65     59.69482     639.8274        22     1.160     0.936  65.36   0
       272    718.9797    657.5352 307.6269031  +6.4220739     1137.922     1323.116      1673.97     84.48874     169.3819     338.4944      1.312     4.25     1019.407     59.69482     174.2018        12     1.171     0.727  47.19   0
       273    110.6366    656.0228 307.8796064  +6.4022954     841.1055     1345.293     1477.922     84.48874     169.1124      338.427      1.641     2.58      1039.67     59.69482     142.5927         7     0.713     0.656 -82.63   0
       274    444.0766    653.2996 307.7412191  +6.4146179     3091.507     4453.706     4848.497     84.35366     169.5165     338.6964      1.514     3.17     1029.312     59.69482     454.5532        22     1.184     1.006  63.79   0
       275    157.1473    652.2783 307.8604172  +6.4054054     25986.54     37004.27     37597.07     84.89267     169.3819     338.6628      1.524     3.18     1038.426     59.69482      3614.94        46     1.418     1.084  57.05   0
       276    825.5830    652.7733 307.5827870  +6.4276024     1427.647     1532.106     1555.208     84.48874     169.1124     338.5617      1.167     3.56     1015.006     59.69482     206.1823        11     1.029     0.710  49.59   0
       277    993.6729    641.8674 307.5133378  +6.4377145     8574.762     11643.64     12660.31     85.02689     169.5165     338.6291      1.439     3.14     1007.621     59.69482     1457.785        35     1.550     0.937  38.22   0
       278     38.4297    641.0530 307.9100992  +6.4060453     1281.035     1648.112     1229.151      84.6236     169.4492     338.5954      1.364     3.37     1040.991     59.69482     212.8472        10     1.035     0.670  72.81   0
       279    587.1279    637.1124 307.6823513  +6.4260936      52942.2     73194.87     75985.77     85.02689      169.651     338.6628      1.461     3.03     1024.034     59.69482     7606.096        61     1.394     1.110  60.02   0
       280    951.7021    638.6253 307.5308788  +6.4376532     720.2914     962.2751     753.7023     85.02689     169.1124     338.5617      1.148     4.13     1009.717     59.69482     123.0022         7     0.945     0.515  63.30   0
       281    546.4421    637.2834 307.6992435  +6.4246605     813.7626      986.864     335.2744     84.89267     169.3819     338.5954      1.156     3.33     1026.097     59.69482     134.9708         7     0.930     0.489 -83.90   0
       282    230.4281    638.0484 307.8304638  +6.4137430     807.2067     1382.745     2245.115     84.48874     169.4492     338.5954      2.062     4.06     1036.713     59.69482     123.4878         9     0.983     0.659  36.57   0
       283      1.3453    637.7919 307.9256102  +6.4061429     488.2205     362.8764     365.9767     73.36395     134.4817      254.857      0.991     2.28     1041.802     59.69482     116.0542         5     0.714     0.442 -71.70  24
       284    811.8605    636.7427 307.5890242  +6.4337621     687.1559     711.8625     1089.013     85.02689     169.3146     338.6964      1.188     4.04     1015.339     59.69482      129.371         6     0.804     0.581  53.32   0
       285    194.7732    633.6989 307.8454183  +6.4143404     2903.733      4346.69     4486.582     85.02689     169.1124     338.5954      1.603     3.75     1037.336     59.69482     350.6962        21     1.337     0.921  46.08   0
       286    998.0950    633.2625 307.5117892  +6.4414145     867.4656     1142.506      1403.46     84.75824     169.4492     338.6964      1.315     4.98     1006.882     59.69482     143.2683         9     1.114     0.824  72.10   0
       287     87.5750    628.2086 307.8901235  +6.4130018     1506.488     2357.991     2451.535     84.48874     169.1798     338.4944      1.612     4.45     1039.187     59.69482      233.687        17     1.351     0.961  63.32   0
       288    484.4123    620.9028 307.7255574  +6.4293446     67783.29     96289.09     100353.3      84.6236     169.1124      338.427      1.531     3.12     1027.015     59.69482     9105.542        69     1.416     1.178  59.23   0
       289     28.2869    622.5821 307.9149359  +6.4133290     1909.551     2655.773     2998.639      84.6236     169.1124     338.5281      1.412     3.39     1040.421     59.69482        305.3        17     1.256     0.784  73.36   0
       290    158.9741    615.9719 307.8608844  +6.4204550     1781.876     2578.736       2511.3     84.35367     169.1798     338.5281      1.473     3.32     1037.907     59.69482     272.1974        15     1.141     0.832  59.74   0
       291    954.1590    613.7325 307.5306923  +6.4480121     825.3641      1047.36     1486.335     84.75824     169.3146     338.7301      1.244     1.86     1008.286     59.69482     162.8331         6     0.681     0.535 -55.20   0
       292    438.2581    613.0453 307.7449911  +6.4310412      934.371     1336.568     1348.853     84.89267     169.3819     338.7638      1.527     5.71      1028.29     59.69482     125.6069        10     1.138     0.808 -76.29   0
       293    630.4527    612.3403 307.6651897  +6.4377708     1084.706     1441.186     1446.478     84.89267     169.3146     338.6628      1.359     2.60     1022.432     59.69482     208.7654         8     0.883     0.583  71.12   0
       294    329.9249    610.1413 307.7900825  +6.4286055     2235.292     3184.059     3668.906     85.02689     169.3819     338.6291      1.554     3.26     1031.951     59.69482     330.4724        19     1.150     0.969  56.16   0
       295    670.1790    618.3264 307.6484886  +6.4366287     947.0613     1258.326     926.3335     84.48874     169.2472     338.5954      1.297     4.46     1021.674     59.69482     144.4493        10     1.061     0.766 -33.00   0
       296    482.3443    609.0375 307.7268157  +6.4341737     988.0249      1562.05      2440.47     84.89267     169.4492     338.6964      1.975     4.63     1026.628     59.69482     150.7493        11     1.103     0.862  25.80   0
       297    756.6193    604.3914 307.6130540  +6.4452722     6109.653     8022.337     7369.603      84.6236     169.1124     338.4607      1.387     2.91     1016.949     59.69482     848.8258        25     1.200     0.982  59.25   0
       298    810.0094    599.6766 307.5910366  +6.4490028     16101.42     20934.12     21022.82     84.48874       168.91     338.4607      1.357     2.76     1015.144     59.69482     2677.546        30     1.242     0.923  61.51   0
       299    552.5533    599.3506 307.6979812  +6.4405252     1139.526     1918.801     2457.542     84.89267     169.2472     338.7301      2.148     6.78      1025.25     59.69482     167.2155        15     1.783     0.723 -80.37   0
       300     55.2267    599.0574 307.9045430  +6.4239473     805.5416     957.6978     889.1259     84.48874     169.4492     338.4607      1.171     4.31     1038.974     59.69482     132.1787         8     1.268     0.418  60.00   0
       301    633.8650    597.6929 307.6642647  +6.4439319     3129.281     4293.453     3810.101     84.75824     169.5837     338.6964      1.496     3.18     1022.318     59.69482      467.626        19     1.222     0.908  39.73   0
       302    950.9100    593.8939 307.5327064  +6.4560940     1408.626     1988.447     2272.677     84.89267     169.9196     338.6964      1.352     2.97     1007.699     59.69482     257.0591         9     0.967     0.598  54.49   0
       303    246.3273    591.0407 307.8254467  +6.4336833     1327.284     2099.339     2798.125     84.75824     169.3819     338.7301      1.775     4.08     1034.107     59.69482     189.9139        14     1.316     0.766  52.63   0
       304    209.6293    591.6461 307.8406678  +6.4322002      551.967     765.3282     1180.248     84.35367     169.4492     338.5281      1.393     4.09     1035.312     59.69482     127.5154         6     1.344     0.356  50.01   0
       305    392.7599    591.2625 307.7646216  +6.4385078     973.1884     1504.962     1856.235     84.89267     169.3146     338.6964      1.567     2.81     1028.725     59.69482     159.1982         7     0.816     0.590  32.51   0
       306    886.0240    582.9139 307.5600256  +6.4584617      3314.27     4204.098     3547.938     84.89267     169.1798     338.4944      1.280     2.40     1011.266     59.69482     628.6696        15     1.094     0.724  72.84   0
       307    181.4609    583.3319 307.8526474  +6.4346857     707.6212     1188.187     2147.244     85.02689     169.3146     338.6628      2.221     4.26     1036.289     59.69482     94.89038         7     0.869     0.656 -17.64   0
       308    844.8126    580.4026 307.5772274  +6.4581224     2990.972     3768.162       3106.9     84.48874     169.0449     338.4944      1.277     2.77     1013.287     59.69482     460.6444        15     1.068     0.774  56.59   0
       309    815.7739    576.3669 307.5894244  +6.4588186     2864.544     3895.248     4500.051     84.35367     169.1124      338.427      1.433     3.03     1014.335     59.69482     422.9352        21     1.201     1.023  77.20   0
       310    758.7189    576.9709 307.6131025  +6.4566627     701.1015     979.2385      725.423     84.75824     169.2472     338.6628      1.400     4.77     1016.686     59.69482     118.7537         8     1.152     0.560  18.24   0
       311    272.7718    575.3535 307.8149928  +6.4410478     8033.054     11428.47     11271.84     84.48874     169.4492     338.5617      1.547     3.43     1032.538     59.69482      1054.34        29     1.312     1.043  51.65   0
       312    825.3904    571.5455 307.5855918  +6.4611304     183378.4     240603.8     249038.6     84.21838     169.3146     338.3596      1.384     2.74     1013.861     59.69482     26971.82        99     1.377     1.134  57.87   0
       313    633.0086    574.1352 307.6654122  +6.4536288     528.3611     508.7937     28.93448     84.35367     169.1124     338.5281      1.269     4.42     1022.273     59.69482     105.7523         5     1.163     0.482  66.16   0
       314    207.0322    569.7990 307.8424838  +6.4411320     60047.58     90240.08     94937.38     84.21838     169.1798     338.3933      1.593     3.28     1034.588     59.69482     8116.229        68     1.491     1.220  56.40   0
       315    131.0343    566.0998 307.8741726  +6.4401038     6397.723     9451.043     9435.244     84.89267     169.2472     338.8311      1.530     3.26     1037.081     59.69482     909.8907        29     1.368     1.004  66.21   0
       316    996.3152    563.2395 307.5148734  +6.4702639     1450.252     1655.196     2030.888     84.89267     169.3146     338.6291      1.127     3.14     1004.381     59.69482     293.2585        10     1.056     0.627  44.07   0
       317   1017.1696    562.2756 307.5062434  +6.4713572     867.1035     971.9062     1445.649     84.75824     169.4492     336.2975      1.315     2.23     1003.288     59.69482     178.8688         6     0.732     0.517  42.49  16
       318    245.5719    561.5839 307.8267543  +6.4458185     810.6559     1093.225     1322.933     84.48874     169.1124     338.5617      1.660     4.35     1032.654     59.69482     124.9354         6     1.045     0.517  59.49   0
       319    862.0040    558.8711 307.5708088  +6.4675857     5047.996     6417.458     6381.741     84.35367     168.9775     338.4944      1.326     2.83     1011.853     59.69482     907.7288        20     1.126     0.848  60.25   0
       320    380.4159    556.9974 307.7709030  +6.4522394     17744.41     26222.52     27191.88     84.48874     168.9775     338.4607      1.606     3.44     1027.523     59.69482     2360.313        40     1.392     1.126  64.34   0
       321    470.4330    556.6965 307.7335249  +6.4553826     731.9708     994.3752     843.7738     85.02689     169.2472     338.7638      1.517     4.22     1026.007     59.69482     94.62439         7     1.084     0.468  80.36   0
       322    182.3533    555.8413 307.8532048  +6.4460645     1951.815     2914.512     3789.626     84.75824     169.3819     338.4944      1.666     3.61     1035.432     59.69482     281.6633        17     1.258     0.847  71.93   0
       323    815.8693    552.1746 307.5901964  +6.4688094     6587.215     8818.848     9281.254     84.48874     169.2472     338.5954      1.382     2.76     1013.734     59.69482     1124.597        25     1.221     0.907  53.60   0
       324    546.7318    551.8502 307.7019970  +6.4599401     6874.319     10180.53     10359.71     84.75824     169.2472     338.6628      1.558     3.22     1024.755     59.69482     880.9152        29     1.296     1.077  64.99   0
       325    257.6117    553.7047 307.8220196  +6.4494758     1136.428     1553.073     1122.704      84.6236     169.1124      338.427      1.657     6.17     1031.852     59.69482     133.3535        13     1.223     0.876  36.49   0
       326    188.1725    553.6627 307.8508615  +6.4471595     655.6854     1078.954     1830.766     84.48874     169.3819     338.6291      1.608     4.25     1035.034     59.69482     89.59497         6     0.779     0.662  49.86   0
       327    119.7190    553.0251 307.8793138  +6.4451207     952.6224     1248.517      832.507      84.6236     169.1798     338.6291      1.560     4.79     1036.901     59.69482     131.7416        10     1.078     0.855 -87.56   0
       328    405.0762    548.4542 307.7609483  +6.4565936     1310.514     1948.751     3006.016     85.02689     169.3819     338.6628      1.712     3.67     1026.326     59.69482     196.4711        13     1.128     0.800  71.44   0
       329    289.0381    541.5214 307.8093779  +6.4555609     88108.85       132447     138046.1     84.75824     169.4492     338.6628      1.634     3.40     1030.062     59.69482     11517.22        87     1.529     1.280  63.36   0
       330    193.8451    545.1125 307.8487941  +6.4508799     6876.093     10252.56     10509.69     84.89267     169.2472     338.6628      1.585     3.38     1034.389     59.69482     931.2802        30     1.341     1.066  65.27   0
       331    591.4989    544.9540 307.6836346  +6.4642864     2493.519     3998.471     4232.544     84.89267     169.2472     338.8984      1.704     4.07     1023.377     59.69482     289.4874        23     1.304     1.135 -28.50   0
       332    509.4020    545.7633 307.7177070  +6.4612024     668.0605     1004.254     1600.753     83.94714     169.1798     338.4607      2.080     5.91     1025.313     59.69482     94.96436         8     1.025     0.960  77.42   0
       333     65.4735    543.7465 307.9021569  +6.4471258     5366.461     8104.803     8124.053     84.75824     169.3819     338.6628      1.643     3.49     1037.633     59.69482     731.4705        28     1.449     1.016  56.40   0
       334    875.1176    544.9026 307.5658302  +6.4737904     633.9452     797.2652     594.2382     84.89267     169.7853     338.7301      1.268     3.90     1010.566     59.69482     100.0102         6     0.746     0.585 -42.10   0
       335    832.4857    544.4936 307.5835521  +6.4725356     1558.527     1915.842     1486.824     84.89267     169.8525     338.7638      1.232     2.83     1012.769     59.69482     283.0023        11     1.004     0.667  54.57   0
       336    578.6191    538.9959 307.6891847  +6.4663149     933.1206     1413.669     2076.542     84.48874       168.91     338.4607      1.623     2.90     1023.617     59.69482     154.4863         7     0.754     0.634 -89.98   0
       337    272.8870    536.6347 307.8162510  +6.4570358     1507.039     2343.087     3083.828     84.89267     169.2472     338.6628      1.636     3.71     1030.339     59.69482      219.984        15     1.162     0.910  64.68   0
       338    812.1331    533.9207 307.5923608  +6.4762206     18436.66     24266.79     24321.49     85.02689     169.5165     338.6291      1.382     2.83     1013.573     59.69482     2925.441        37     1.291     0.975  57.95   0
       339    988.4805    535.2200 307.5190663  +6.4815704     1861.689     2224.623     2051.238      84.6236     169.0449     338.5954      1.170     2.68     1003.849     59.69482     312.2725        11     0.986     0.648  45.28   0
       340    515.7687    532.3398 307.7155143  +6.4669574     42094.04      66556.5     71008.95      84.6236     169.4492     338.6291      1.719     3.61     1024.717     59.69482     5419.671        73     1.593     1.341  37.64   0
       341    666.1416    530.9353 307.6531019  +6.4725722     1023.634     1468.806     1791.965     85.02689     169.3146     338.6964      1.497     4.62     1020.833     59.69482     152.7933         9     1.064     0.706 -79.36   0
       342    228.2124    528.8445 307.8350691  +6.4587509     1959.822     3190.343     2797.712     84.35366     169.1798     338.3933      1.684     3.91     1031.766     59.69482     236.5367        20     1.204     1.070 -69.53   0
       343     63.9593    528.9796 307.9032849  +6.4531708     1379.197     1980.702     2238.253     84.48874     169.1798      338.427      1.586     3.76     1037.292     59.69482     209.3756        13     1.154     0.760 -88.73   0
       344    685.8762    527.4955 307.6450203  +6.4746524     1657.209     2243.714     2929.656     84.48874     169.5165     338.7301      1.495     4.15     1019.875     59.69482     209.1695        14     1.242     0.743  63.45   0
       345    675.6740    527.3985 307.6492613  +6.4743512      3195.71      4361.04      4927.89     84.35367     168.7749     338.5281      1.468     2.99     1020.324     59.69482     441.0822        17     1.127     0.841  57.09   0
       346    737.6851    526.2971 307.6235405  +6.4768798      1419.05     1972.167      2185.04     84.89267     169.7853     338.7301      1.474     2.96     1017.531     59.69482     231.4639        11     0.960     0.777  53.26   0
       347     94.7252    524.6845 307.8906521  +6.4559794       880.64     1340.331      1344.68     85.02689     169.7182     338.6964      1.806     5.43     1036.298     59.69482     136.3911        12     1.386     0.830  27.75   2
       348    413.5506    523.1592 307.7582806  +6.4673205     1914.322      2794.59      2935.22     85.02689     169.3819     338.5954      1.655     3.61     1024.886     59.69482     264.6477        17     1.203     0.886  59.33   0
       349    344.9141    521.3354 307.7868506  +6.4657703     3844.798      5824.82      5753.92     85.02689     169.5837     338.6964      1.638     3.31     1026.669     59.69482     546.2882        26     1.294     1.083  67.12   0
       350    160.1078    519.8777 307.8636586  +6.4601632     26832.29     40026.06     41180.37      84.6236     169.7182     338.6964      1.586     3.29     1034.882     59.69482     3588.869        49     1.454     1.143  63.81   0
       351    888.1334    520.0997 307.5612554  +6.4844646      1772.27     2462.083     2013.313     84.89267     169.5165     338.6291      1.354     2.82     1008.961     59.69482     320.3243        15     1.185     0.737  76.21   0
       352    525.0790    520.8777 307.7120328  +6.4720013     2239.133     3220.818     3254.962      85.1609      169.651     338.7974      1.511     4.01     1024.231     59.69482     299.7688        16     1.215     0.898  64.13   0
       353    125.3794    518.1154 307.8781422  +6.4597226     2910.596     4432.626     4457.105      84.6236     169.0449     338.5954      1.601     3.37     1035.447     59.69482     374.8148        24     1.343     1.004  56.57   0
       354      5.4206    517.9788 307.9279698  +6.4557412     2100.327     3074.588     2990.895      84.6236     169.3146     314.9353      1.518     3.28      1038.87     59.69482     303.3789        17     1.184     0.880  58.66  16
       355    362.2881    516.5033 307.7797971  +6.4683483      971.967     1469.093     1335.225     84.89267     169.7853     338.6964      1.545     3.80      1025.93     59.69482     157.7144         9     0.971     0.827  72.14   0
       356    985.7066    514.5208 307.5209119  +6.4900235     6089.002     7980.397     8530.264      84.6236     169.5837     338.7301      1.310     2.77      1003.06     59.69482     1092.118        22     1.232     0.784  59.95   0
       357    559.1230    506.8383 307.6983644  +6.4789378     1508.405     2066.257     2117.343     84.75824     169.4492     338.6628      1.532     3.74     1023.395     59.69482     211.5605        13     1.123     0.844  54.34   0
       358     24.4151    504.2319 307.9205457  +6.4620558     26310.46     38349.64     40654.47     84.48874     169.1124     338.5617      1.584     3.41     1038.124     59.69482      3562.67        49     1.445     1.133  63.47   0
       359    457.0986    501.0060 307.7409385  +6.4779265     42771.96     64317.68     66988.01      84.6236     168.9775     338.3933      1.579     3.36     1023.798     59.69482     5364.568        63     1.462     1.224  55.26   0
       360    665.1290    500.7296 307.6545375  +6.4850084      13042.5     18580.95     19576.12     84.89267     169.5165     338.6291      1.520     3.10     1019.921     59.69482     1717.535        39     1.367     1.110  58.20   0
       361      6.9773    498.4652 307.9279833  +6.4638492     205684.9     295546.6     307241.6     84.48874     169.3819     330.2413      1.549     3.32     1038.705     59.69482     29504.91       112     1.527     1.239  60.82  24
       362    305.1776    501.1609 307.8040356  +6.4727649     1058.695     1394.005     1029.485     84.48874     169.1124      338.427      1.377     3.85     1026.691     59.69482      172.196         9     1.026     0.647  51.76   0
       363    222.3079    498.6210 307.8385416  +6.4710295     19499.55     30625.09     32250.41     84.75824     169.1798     338.4944      1.725     3.73     1030.804     59.69482     2347.222        52     1.582     1.198  51.91   0
       364    188.0827    499.7798 307.8527180  +6.4694007     1618.356     2325.478     2440.726      84.6236     169.0449     338.5954      1.577     4.91     1032.424     59.69482     240.0693        13     1.142     0.848  84.62   0
       365    998.9196    499.2115 307.5159361  +6.4967845     1418.389     1871.953     2228.709     84.48874     169.1124     338.4944      1.373     2.85     1001.708     59.69482     314.3937        10     1.073     0.632  72.01   0
       366    839.1167    498.6757 307.5823348  +6.4916727      1124.97     1633.905     1320.362     85.02689     169.7182     338.7638      1.555     2.79     1011.508     59.69482     175.8729         9     0.888     0.648  68.65   0
       367    586.9925    497.3983 307.6871057  +6.4837683     3011.455     4273.845      4308.77     84.21838     169.0449     338.4607      1.522     3.42     1022.776     59.69482     376.7965        19     1.160     0.972  76.43   0
       368    927.6273    498.2080 307.5455840  +6.4948207     780.9694     1005.792     662.1107     84.48874     169.1798     338.4607      1.198     4.19     1005.208     59.69482     172.3529         7     0.896     0.559  64.36   0
       369    960.8215    494.6282 307.5319154  +6.4974061     5616.498     7185.446     7349.061     84.21838     169.1798     338.5954      1.293     2.69     1003.415     59.69482      975.182        21     1.148     0.831  62.04   0
       370    633.8943    493.0725 307.6677691  +6.4871243      6737.35     9956.821     10472.32     84.75824     169.4492     338.6964      1.565     3.21     1021.205     59.69482     948.9236        31     1.357     1.076  71.26   0
       371    122.0079    493.3800 307.8803782  +6.4698205     1214.239     1878.897     2183.501     84.48874     169.1124     338.4607      1.686     3.44     1034.388     59.69482     173.0686        11     1.032     0.687  67.10   0
       372    983.4070    486.8797 307.5227930  +6.5013583     4206.089     5375.248     5669.469     84.48874       168.91      338.427      1.298     2.69      1001.97     59.69482     704.9956        20     1.142     0.835  61.43   0
       373    546.1772    484.2995 307.7045000  +6.4878090     7749.127     11322.01     11718.22      85.1609     169.1124      338.427      1.581     3.49     1022.972     59.69482     960.9207        32     1.339     1.102  66.08   0
       374    422.8736    486.0439 307.7556584  +6.4829556     560.6019     940.0732     1356.103     84.75824     169.4492     338.6964      1.489     4.93     1023.124     59.69482     77.70422         6     1.176     0.586  69.97   0
       375    392.0078    484.4835 307.7685317  +6.4825644      2686.87      3974.25     3900.244     84.48874     169.0449     338.4944      1.615     4.06     1023.491     59.69482     323.3645        23     1.358     1.059  47.54   0
       376    115.8203    483.8277 307.8832709  +6.4735557     580.1061     698.2997     1350.746     84.48874     169.1798     338.5954      1.592     4.99     1034.179     59.69482     93.61206         6     1.027     0.687  89.83   0
       377   1013.6379    482.3773 307.5103859  +6.5042252     501.7884     821.2003     682.9048     84.48874     169.1124     338.4607      1.867     4.29       1000.2     59.69482     87.65009         5     1.028     0.509  47.13   0
       378    902.5580    480.0562 307.5566062  +6.5014779     3798.812     4951.048     5390.228     84.75824     169.3146     338.6628      1.345     2.68      1006.51     59.69482     623.7059        18     1.103     0.818  59.71   0
       379    910.0661    474.5369 307.5536724  +6.5040071     2436.645     3166.631     3092.107     84.89267     169.3819     338.6628      1.276     2.60     1005.875     59.69482     412.6713        12     1.115     0.605  65.48   0
       380    949.3270    473.7783 307.5373888  +6.5056304       1525.1     1895.059     1468.214     84.48874     169.1798     338.5954      1.239     2.78     1003.275     59.69482     265.2664        11     0.934     0.745  29.10   0
       381    128.9438    473.4168 307.8781718  +6.4782951     770.0919     1285.732     993.4061     84.35366     169.3146     338.3933      1.665     4.60     1033.305     59.69482     112.8882         7     0.996     0.604  55.94   0
       382    287.9914    472.8696 307.8121283  +6.4838672     560.5508      904.075     745.8956     84.35367     169.0449     338.5281      1.438     3.83     1025.307     59.69482     82.55701         5     0.822     0.511 -60.64   0
       383    733.9769    470.4606 307.6269559  +6.4998074      3233.24     4535.018     4412.006     84.48874     169.3146     338.5617      1.459     3.37     1016.944     59.69482     423.3484        20     1.231     0.897  51.30   0
       384    404.9321    468.6518 307.7636968  +6.4895338      3642.31     5645.022      5363.82     84.75824     169.2472     338.6291      1.639     3.67     1022.149     59.69482     473.8167        25     1.332     1.090  55.06   0
       385     96.0109    469.8054 307.8919726  +6.4786779     1875.796     3038.191      2915.92     84.48874     169.1124     338.5617      1.698     3.89     1034.319     59.69482     237.5659        19     1.159     1.067 -68.54   0
       386    445.3078    468.9119 307.7469169  +6.4907806     998.1896     1339.611     1785.885     84.89267     169.8525     338.7638      1.673     4.34      1021.97     59.69482     123.5603        13     1.175     0.852  61.76   0
       387    795.3471    461.8620 307.6017517  +6.5054086     18211.96     24620.97     26073.75     84.89267     169.3146     338.6291      1.427     2.88     1012.848     59.69482     2781.875        37     1.282     1.021  56.33   0
       388    315.1557    462.1017 307.8012082  +6.4892247     2532.712     3739.412      3177.53     84.89267     169.3146     338.8984      1.569     3.48     1023.602     59.69482      337.703        22     1.220     1.065  73.00   0
       389    632.6238    465.2585 307.6692319  +6.4985644     10360.38     14905.79     15604.82     84.48874     169.3819     338.5281      1.541     3.14      1020.35     59.69482     1381.589        32     1.320     1.062  59.21   0
       390    746.5298    460.4355 307.6220782  +6.5043659     662.1403     769.9096      793.284     84.75824     169.3819     338.6964      1.262     3.70     1015.606     59.69482     97.76013         6     0.952     0.414 -71.06   0
       391    824.4851    459.0786 307.5897412  +6.5075313     1434.364     1930.797     2036.397     84.89267     169.7182     338.7638      1.355     3.19     1011.323     59.69482      215.891        13     1.105     0.740  56.66   0
       392    398.1797    458.6508 307.7668385  +6.4934360      1545.59     2391.978     2592.448     84.35366     169.4492     338.4944      1.581     4.12     1021.439     59.69482     195.9474        17     1.296     0.892  56.53   0
       393    980.5078    456.7026 307.5250083  +6.5137201     2530.903     3065.268     2781.746     84.89267     169.9196     338.5954      1.243     2.81     1001.261     59.69482     424.4229        16     1.214     0.745  49.30   0
       394    799.4807    456.9122 307.6002008  +6.5075903     1464.254     2090.132     2704.209      84.6236      169.651     338.7638      1.532     3.15     1012.374     59.69482     214.7661        12     1.059     0.745  60.83   0
       395    132.8696    453.8746 307.8772014  +6.4864946     4503.655     6653.188     6780.717     85.02689     169.5165     338.6628      1.584     3.48     1032.422     59.69482     608.4215        25     1.338     1.052  72.70   0
       396    728.9988    455.8985 307.6295129  +6.5056528     612.1682     990.9875     742.3561     84.35367     168.9775     338.2922      1.667     3.74     1016.239     59.69482     118.1949         5     0.809     0.497  62.22   0
       397    770.8705    452.6698 307.6122278  +6.5083856      2613.67     3602.277     4472.265     84.89267     169.5165     338.6291      1.571     3.08     1013.791     59.69482      420.356        17     1.140     0.911  73.80   0
       398    290.6606    450.9248 307.8117598  +6.4930162     1415.351      2194.13     2083.969      85.1609     169.3819     338.6628      1.663     4.18     1023.686     59.69482     180.9497        15     1.164     0.865  78.39   0
       399    368.7192    448.5006 307.7794178  +6.4966377     3140.185     4781.745     5142.259     84.89267     169.8525     338.7638      1.678     3.65     1020.927     59.69482     436.1632        22     1.353     0.997  72.00   0
       400    724.6572    446.3474 307.6316371  +6.5094507     1811.435      2660.31     2981.762     84.89267     169.3819     338.6628      1.535     3.58     1015.817     59.69482     245.4957        16     1.268     0.786  52.30   0
       401    999.0015    445.5306 307.5177001  +6.5189492     709.9769     829.2079     1580.043     84.35366       168.91     338.4944      1.022     4.07      1000.03     59.69482     129.5624         6     0.968     0.488  -7.17   0
       402    256.8183    444.3847 307.8260376  +6.4945793     833.3307     1246.377     956.9718      84.6236     169.0449     338.5617      1.594     4.04     1025.408     59.69482     144.1074        10     1.004     0.808  36.58   0
       403    566.1072    439.2509 307.6977370  +6.5070742     1045.322     1476.327     1463.428     84.75824     169.2472     338.8647      1.569     3.84     1020.082     59.69482     141.2557        10     0.931     0.790  42.52   0
       404    488.5080    437.4402 307.7300320  +6.5052216     1331.098     1809.044     1832.128     85.02689     169.3146     338.7301      1.470     3.70     1019.561     59.69482     169.8896        12     0.970     0.883 -88.73   0
       405    850.7617    436.2483 307.5795917  +6.5178343     1598.873     2094.902     2489.868     84.75824     169.4492     338.5281      1.325     3.55     1009.786     59.69482     257.5668        11     1.057     0.709  49.23   0
       406    836.4798    435.4246 307.5855522  +6.5176973     2293.461     2993.423     3245.292      84.6236     169.1798     338.6628      1.469     2.98     1010.213     59.69482     321.4382        15     1.093     0.785  60.52   0
       407    733.7802    433.5479 307.6282773  +6.5150399      16238.1     21929.72     22897.37     84.35367     169.4492     338.4607      1.454     3.04     1014.645     59.69482      2231.61        34     1.257     1.041  63.87   0
       408    635.9291    435.7082 307.6688523  +6.5108745     706.0668      1040.92     1403.876     84.75824     169.5165     338.6628      1.787     3.92     1019.016     59.69482     104.8376         5     0.867     0.509  52.39   0
       409    654.9614    429.6843 307.6611488  +6.5139984     2795.491     3897.248     4031.867     84.89267     169.3146     338.5954      1.516     3.22     1018.294     59.69482       367.39        21     1.150     1.024  79.77   0
       410    728.0236    428.7542 307.6308297  +6.5168264     837.8159     1338.238     2479.943     84.48874     169.3819     338.5281      2.255     4.81      1014.67     59.69482      103.521         9     0.996     0.659  57.58   1
       411    630.3015    426.6429 307.6714948  +6.5144287     5166.714     6891.132      8392.91     84.89267     169.2472     338.8984      1.467     3.26     1018.784     59.69482     711.3109        13     1.074     0.776  47.03   3
       412    626.3115    424.0669 307.6732389  +6.5153586     15484.03     23696.17     25640.53     85.02689     169.5837     338.6291      1.669     4.06     1018.735     59.69482     1974.717        46     1.725     1.201  44.77   2
       413    959.0095    423.3717 307.5350558  +6.5267635     4544.024     5627.499      5940.71     84.48874     169.1798     338.5281      1.278     2.69     1001.759     59.69482     775.7759        17     1.074     0.819  49.75   0
       414    398.2069    419.4130 307.7681494  +6.5096355     28625.25     43848.59     45570.01     84.48874     169.1798     338.5617      1.665     3.61     1018.177     59.69482     3475.062        50     1.466     1.205  57.85   0
       415    914.8952    419.2342 307.5535204  +6.5269996     1658.935     1934.648      2007.14     85.02689     169.2472     338.7638      1.200     2.59     1004.702     59.69482     312.6926         9     0.877     0.642  61.63   0
       416    144.3306    418.8867 307.8736229  +6.5013239     2276.446      3641.15     3894.754     85.02689      169.651     338.6964      1.718     3.89     1030.639     59.69482     287.5731        20     1.276     0.987  74.42   0
       417    911.1152    415.6667 307.5552102  +6.5283463     870.3306     1484.246     1267.552     85.02689      169.651     338.7301      1.854     5.79     1004.981     59.69482     117.9799        10     1.202     0.785  62.08   0
       418    927.8318    413.8664 307.5483262  +6.5296474     5829.887     7246.039     7241.833     84.75824     169.4492     338.5954      1.293     2.68     1003.316     59.69482     1098.246        19     1.127     0.770  56.36   0
       419     77.6214    414.3393 307.9014856  +6.5009565     1501.522     2244.545     2494.926     84.48874     169.3146     338.5954      1.599     3.73     1032.893     59.69482     240.1256        15     1.175     0.853  56.39   0
       420    255.6884    409.9512 307.8276689  +6.5087564     13984.27     21167.98      22124.5     84.89267     169.2472     338.7638      1.643     3.58     1023.273     59.69482     1672.125        41     1.502     1.190  50.91   0
       421    983.8503    411.6720 307.5251284  +6.5324223     822.1442     996.0515     612.7053     84.89267     169.3819     338.6964      1.114     3.33     999.8814     59.69482      137.463         7     0.736     0.667   8.32   0
       422    750.5890    404.0048 307.6222870  +6.5277985     831.4022      1385.67     2012.885     84.48874     169.1124     338.5617      1.898     4.81     1012.214     59.69482     128.9333         9     1.149     0.643  78.83   0
       423     91.7551    403.9480 307.8959661  +6.5057219     827.6082     1229.459     1525.814     85.02689     169.3146     338.6628      1.694     3.60     1031.999     59.69482     122.6241         7     0.740     0.676  69.44   0
       424    718.4480    402.5941 307.6356862  +6.5273061       721.81     1151.758     1616.258     84.35367     169.1798     338.2922      1.803     4.44     1013.727     59.69482     104.9214         9     1.106     0.623  57.95   0
       425    979.2515    402.0045 307.5273628  +6.5362601     1100.141     1494.818     1559.991     84.21838     169.1798     338.2248      1.328     3.93     999.5795     59.69482      171.028         7     0.887     0.560  60.29   0
       426    368.7110    399.7203 307.7810655  +6.5167754     1316.454     2048.739     2334.188      84.6236      169.651     338.7638      1.620     4.21     1016.988     59.69482     217.0589        13     1.111     0.864  84.51   0
       427    156.1143    398.6332 307.8694123  +6.5100813     5081.543     7649.455     8045.871     84.89267     169.1798     338.6628      1.613     3.26     1028.986     59.69482     671.2714        29     1.483     1.004  67.90   0
       428    201.9398    400.0560 307.8503292  +6.5110349     791.6591     1194.906     1034.974     85.02689     169.3819     338.6964      1.457     4.03     1026.138     59.69482     115.1522         6     0.783     0.593 -41.80   0
       429    261.1167    397.6385 307.8258295  +6.5140217     1202.838     1635.557      1394.54     84.89267     169.3146     338.6291      1.569     4.60     1022.245     59.69482     136.0527        16     1.190     0.992  70.82   0
       430    178.2226    394.4190 307.8603713  +6.5125645     2262.749     4102.335     4322.895      84.6236     169.3146     338.5954      1.939     4.40     1027.319     59.69482     276.6665        22     1.520     0.955  81.30   0
       431    842.1721    395.2225 307.5845364  +6.5344845     774.0522      1160.51      1272.76     84.35366     169.1798     338.5281      1.330     2.29     1008.506     59.69482     174.3084         6     0.729     0.535  39.91   0
       432    573.3854    393.8664 307.6962404  +6.5260543     849.7375     1213.089     1574.807     84.35366     169.2472     338.5954      1.579     4.35     1015.744     59.69482     120.5173         7     0.852     0.633  60.80   0
       433    401.4735    389.0683 307.7678151  +6.5222722     2156.005     3442.069     3322.921     85.02689     169.5165     338.6291      1.695     4.37     1015.307     59.69482     268.8599        19     1.347     0.932  68.52   0
       434    289.8370    389.3754 307.8141782  +6.5183978      674.907     1097.513     793.6599     84.48874     169.1798     338.3933      1.760     3.28     1019.977     59.69482     139.7012         5     0.941     0.639 -76.41   0
       435     20.8106    389.2047 307.9259331  +6.5094197     668.7918     1204.537       1181.6     84.48874     169.1124     338.5617      1.728     5.08     1033.847     59.69482     102.1682         7     1.180     0.618  81.35   0
       436    990.0316    388.4149 307.5233397  +6.5422300      1178.03      1350.83     1106.746     84.48874     169.1124     338.5954      1.249     4.01     998.0778     59.69482     177.1146        10     1.028     0.626  57.43   0
       437      2.3773    387.6116 307.9336437  +6.5094564     858.3002     1143.068     1148.219     84.08287     149.8804     272.5015      1.551     6.35     1034.444     59.69482     140.3245        11     1.352     0.838  79.19  24
       438    335.4263    386.7125 307.7953304  +6.5210281      672.107     1163.567     1226.165     85.02689     169.1798     338.5617      1.682     4.09     1017.562     59.69482     104.3891         5     1.099     0.492  87.37   0
       439     51.8122    383.6535 307.9132435  +6.5127553     3376.995     5505.933     5494.117     84.21838     169.3146     338.3596      1.756     4.02     1032.581     59.69482     454.2101        31     1.541     1.190 -61.90   0
       440    455.4272    382.6922 307.7456173  +6.5267142     7212.224     10919.69     11619.87     85.02689     169.1124     338.5281      1.677     3.62     1013.952     59.69482     873.4413        31     1.326     1.143  61.18   0
       441    788.0540    381.8115 307.6074684  +6.5382130     2217.826      3191.89     3415.943     84.21838     169.3146     338.3596      1.524     3.11     1010.339     59.69482     305.2325        16     1.121     0.836  67.41   0
       442    795.9706    380.1292 307.6042361  +6.5391722     14164.88     19396.88     21073.45     84.75824     169.3819     338.6628      1.435     2.99     1010.087     59.69482      2217.58        38     1.249     1.125  67.46   0
       443    359.2770    378.8093 307.7856893  +6.5250914     1113.648     1664.646      1802.61     84.48874     168.8425     338.4607      1.712     4.53     1015.995     59.69482     149.3234        12     1.130     0.873  86.05   0
       444    970.8365    371.8146 307.5318702  +6.5484431     762.9189     1175.414     1680.625     84.48874     169.1798      338.427      1.469     2.87     998.2879     59.69482      129.791         6     0.748     0.549  55.44   0
       445    204.7226    370.6442 307.8501663  +6.5232703      689.916     1074.181      1052.39     84.75824     169.3819     338.6628      1.635     4.09     1024.017     59.69482     106.2286         7     1.084     0.441  61.18   0
       446      9.5235    369.4897 307.9312884  +6.5171782     1058.785     2592.286     4024.934     84.89267      169.651     338.7301      3.521     9.26     1033.276     59.69482     118.7275        21     2.055     1.165 -35.71  16
       447    561.2573    368.9791 307.7021158  +6.5359224     2662.543     2562.656     2566.048     84.48874     169.3146     338.4607      0.654     1.12     1012.427     59.69482     1322.666         5     0.543     0.404 -62.64   0
       448    410.3802    369.1971 307.7647847  +6.5307745     523.7885     890.0345     886.2487     84.48874       168.91     338.3933      1.970     5.17     1012.941     59.69482     68.66797         5     1.006     0.750  -8.55   0
       449    503.5319    366.4160 307.7261822  +6.5350463     3213.457     4639.353     4764.897     84.35367     169.3146     338.5617      1.625     3.57     1011.793     59.69482     381.7986        25     1.272     1.129  68.55   0
       450    475.7891    367.0632 307.7376851  +6.5338491     2419.398     3676.725     3873.876     84.35366     169.1798     338.5281      1.609     3.79       1011.9     59.69482     285.1132        18     1.130     1.030 -88.44   0
       451    932.4189    366.4100 307.5480114  +6.5493926     884.9653     1143.955     1157.032     84.48874     168.9775     338.5281      1.293     4.02      1000.37     59.69482     147.9511         8     1.069     0.492  88.17   0
       452    861.3008    363.0391 307.5776694  +6.5484101     36286.97     51061.57     53437.68     84.89267     169.2472     338.8984      1.486     3.03     1005.449     59.69482     5558.304        55     1.438     1.086  67.55   0
       453   1006.6248    362.8292 307.5173034  +6.5533462      558.821     755.1539      343.448     84.35366     169.2472     338.5281      1.309     3.34     995.5006     59.69482     115.9126         6     0.758     0.626 -25.64   0
       454    354.0504    359.0479 307.7885267  +6.5330740     926.7878     1396.479     1300.866     84.89267     169.2472     338.6291      1.602     5.88     1015.157     59.69482     112.8813        12     1.094     0.889  60.85   0
       455     79.2775    359.4826 307.9026522  +6.5236581      650.107     1061.783     852.1724     85.02689      169.651     338.7974      1.782     4.48     1030.699     59.69482     111.8534         5     1.033     0.597  62.78   0
       456    633.1797    355.4754 307.6726919  +6.5439056      2857.74     3943.325     4214.689     84.48874     169.1798     338.5954      1.545     3.72      1011.11     59.69482     375.0399        18     1.236     0.923  81.84   0
       457     41.1932    355.8330 307.9185953  +6.5238825     1284.933     1989.057     2086.219     84.21838     169.1798     338.4607      1.642     5.36     1031.727     59.69482     160.4581        13     1.224     0.828  74.58   0
       458    717.7590    349.0110 307.6377725  +6.5494042     84700.07     119864.2       124620     84.21838     169.1798     338.3596      1.480     3.05     1010.047     59.69482     12286.58        73     1.428     1.150  56.76   0
       459    875.7380    350.4605 307.5720937  +6.5540851     1162.188     1650.012     2336.513     84.89267     169.3819     338.6964      1.491     3.19     1003.409     59.69482      208.859         9     1.149     0.606  44.45   0
       460     97.1101    348.6085 307.8956123  +6.5287473     1261.481     2000.475     2160.147     84.48874     169.0449      338.427      1.757     4.53     1029.803     59.69482     195.7301        14     1.329     0.841  89.36   0
       461    959.4161    346.2819 307.5374704  +6.5586031     1037.313     1351.017     1093.615     84.48874     169.0449     338.5281      1.380     3.63     997.6053     59.69482      154.649        10     0.999     0.725  52.72   0
       462    580.2985    345.6810 307.6949895  +6.5461784       2746.7     4008.571     4030.482     84.75824     169.8525     338.7638      1.594     3.45     1009.665     59.69482     381.3443        21     1.263     0.998  52.99   0
       463    117.5694    344.5556 307.8872506  +6.5311090     6283.491     9536.076     9530.739     84.48874     169.4492     338.5281      1.661     3.84     1028.345     59.69482     718.5016        32     1.484     1.065  61.50   0
       464    778.7204    344.0338 307.6126142  +6.5534972     630.7881     684.7577     947.7272     84.75824     169.3819     338.6964      1.127     5.04     1008.846     59.69482     90.46411         7     1.075     0.669 -23.65   0
       465    563.5399    341.8918 307.7020790  +6.5471814     7517.937     11416.85     11748.85     84.75824     169.3146     338.7638      1.640     3.44     1009.009     59.69482     951.3226        35     1.424     1.137  55.73   0
       466    292.6663    339.7347 307.8146776  +6.5389858     2601.305     3915.496     3679.227     84.89267     169.3819     338.6964      1.614     3.51     1017.288     59.69482     314.9417        19     1.153     1.011 -80.28   0
       467    426.4603    337.1546 307.7591845  +6.5445420     25777.99     39920.38     41481.19     84.75824     169.3146     338.7638      1.698     3.72      1009.57     59.69482     3080.027        51     1.492     1.224  58.89   0
       468    534.2256    335.8328 307.7144608  +6.5487006     1283.585     1872.152     1685.132     84.35366     169.1798     338.4944      1.599     4.10     1008.124     59.69482     156.3859        14     1.189     0.800  24.62   0
       469    406.6296    335.4191 307.7674811  +6.5445932     1289.895     1959.876     2527.492     84.48874     169.1798     338.5617      1.777     4.86     1010.289     59.69482     154.3831        12     0.945     0.898  82.83   0
       470    506.1783    332.5786 307.7262220  +6.5491042     1132.586     1530.719     1413.669      84.6236     169.1798     338.6628      1.373     3.31     1007.811     59.69482     162.8982         9     0.878     0.736  28.35   0
       471    403.5514    330.2271 307.7689348  +6.5466333     782.0906     1419.215     1897.432     84.48874     169.3819     338.5954      1.989     5.06     1010.158     59.69482     108.7444         7     1.079     0.702  57.60   0
       472    820.9744    329.3625 307.5955527  +6.5609661     969.9651     1310.156     1550.714     84.48874     169.1798     338.4607      1.432     5.91     1005.606     59.69482     147.7449        11     1.468     0.732  39.77   0
       473    657.6313    329.6405 307.6634025  +6.5553895     678.6511     1003.189     889.2468     84.48874     169.1798     338.5281      1.549     4.24     1007.851     59.69482     100.0995         6     0.909     0.565 -44.57   0
       474    515.5585    327.5858 307.7224932  +6.5514797     8869.173      12973.1     13152.56     84.35367     169.1798     338.3596      1.623     3.49     1007.205     59.69482     1022.543        33     1.326     1.131  59.95   0
       475    784.6509    326.2642 307.6107470  +6.5610314     3492.321      4747.55     5080.033     84.89267     169.3146     338.6964      1.471     3.05     1006.711     59.69482     482.5588        19     1.172     0.925  47.03   0
       476    940.0669    325.9901 307.5461891  +6.5663348     1043.494     1363.626     1614.323     84.35367     169.1798     338.5617      1.351     3.79     997.5914     59.69482     206.0956         6     0.936     0.441  52.45   0
       477    732.1296    325.7143 307.6325850  +6.5595026     777.8399     1020.458     1272.895     85.02689      169.651     338.6964      1.510     3.80     1007.078     59.69482     114.7462         7     1.040     0.482  71.05   0
       478    342.2055    324.6498 307.7946071  +6.5468769     1087.804     1652.438     1703.576     84.21838     169.1798     338.2585      1.650     5.26     1013.741     59.69482     128.7189        13     1.124     0.903  64.79   0
       479    177.8347    318.0441 307.8631119  +6.5440807     1111.109     1727.936     1915.587      84.6236     169.3146     338.5281      1.776     5.82     1023.629     59.69482     131.7063        14     1.128     0.997 -81.94   0
       480    277.9633    317.9547 307.8215202  +6.5474832     633.9774     920.1469     957.1455      84.6236     169.3819     338.5617      1.478     3.23     1016.951     59.69482     88.53497         5     0.619     0.609 -82.22   0
       481    623.9532    316.3724 307.6778398  +6.5597398     540.1288     635.6545     377.2862     84.48874     169.4492     338.5617      1.434     3.48     1006.008     59.69482     115.2823         5     0.845     0.415 -19.71   0
       482    405.4232    311.7350 307.7687804  +6.5543302     7324.337     11432.98      12347.5     84.48874     169.3819     338.5617      1.718     3.66     1008.928     59.69482     827.1304        33     1.359     1.196  55.10   0
       483    261.1956    312.2643 307.8286779  +6.5492690     2008.273     3124.452     3089.562     84.08286     169.0449      338.427      1.712     4.30     1017.522     59.69482     261.2694        17     1.208     0.966  69.03   0
       484    758.9484    311.5750 307.6219182  +6.5662365     992.3427     1392.258      1464.42     84.48874     169.3819     338.5617      1.492     3.60     1005.218     59.69482     161.2271        11     1.009     0.860 -78.98   0
       485    773.2426    307.5672 307.6161143  +6.5683690     59780.65     81820.13     84440.65      84.6236     169.3819     338.4944      1.491     3.00     1004.685     59.69482     8397.811        61     1.388     1.113  57.90   0
       486    444.8048    307.0617 307.7525776  +6.5575806     2320.795     3635.348     3140.001     84.21838     169.1124     338.3933      1.640     4.29     1006.529     59.69482     304.1152        23     1.429     1.024  51.26   0
       487    591.1447    304.6765 307.6918631  +6.5634697      1329.95     1908.303     2225.013     84.89267     169.3819     338.6291      1.615     5.29     1004.509     59.69482     170.2349        12     1.160     0.821  52.88   0
       488   1007.9454    304.6248 307.5187046  +6.5774196     2035.123     2370.816     1919.253     84.48874     169.4492     338.4607      1.271     3.08     993.9351     59.69482     334.3506        14     1.140     0.696  46.55   0
       489    949.0666    303.7755 307.5431948  +6.5758063     2523.746     3371.087      3623.89     84.48874     169.3146     338.5617      1.311     2.92      996.013     59.69482     424.8349        14     1.050     0.745  73.99   0
       490    482.1038    303.1961 307.7372126  +6.5604271     1115.848     1997.276     3299.802      84.6236     169.0449     338.3259      3.196     4.90     1004.393     59.69482     164.1212        14     1.206     0.965 -82.51   2
       491    431.5050    302.8460 307.7582448  +6.5588748     1906.923     2806.712     2661.967     84.75824     169.3146     338.7974      1.661     4.09     1006.826     59.69482     214.4454        17     1.176     0.960  73.98   0
       492    311.8083    302.1280 307.8079943  +6.5551537     704.4177     1035.873      921.538     84.35366       168.91     338.5617      1.401     5.05     1014.161     59.69482     90.70544         8     0.956     0.756  21.09   0
       493    458.7553    298.9982 307.7470537  +6.5613773     436.9907      842.304     1656.422     84.21838       168.91     338.2585      2.142     4.62     1005.096     59.69482     91.89288         5     1.411     0.430 -89.99   0
       494    853.0440    297.5009 307.5832985  +6.5751912     1363.578     1861.682     1382.905     84.89267     169.2472     338.8984      1.478     3.69     1001.037     59.69482     214.6396        11     1.065     0.661  49.06   0
       495    984.7469    295.1353 307.5286607  +6.5805636     586.8198     843.5784     1037.765     84.89267     169.3146     338.6291      1.348     3.86     994.4501     59.69482     144.4346         5     0.844     0.506  47.37   0
       496    462.0333    294.2683 307.7458513  +6.5634398     1209.499     1998.953     2604.135     84.75824     169.3819     338.6964      1.809     5.81     1004.437     59.69482     135.1527        13     1.117     0.928  47.86   0
       497    208.0443    293.9275 307.8513769  +6.5550524     2180.097     3244.873     3966.371     84.75824     169.4492     338.6964      1.616     4.17     1020.076     59.69482      284.687        16     1.254     0.898  73.23   0
       498    771.6918    292.1754 307.6172754  +6.5746714     6680.421     9491.893     9819.036     85.02689     169.1798     338.4944      1.503     3.10     1002.808     59.69482     951.9736        29     1.316     0.984  56.20   0
       499    362.6020    292.0003 307.7872348  +6.5610402     725.4946     1263.809     1374.056     84.21838       168.91     338.3259      1.866     6.00     1010.358     59.69482     100.5253         8     1.228     0.824  66.70   0
       500    104.1847    291.4007 307.8946072  +6.5526019     978.1553     1520.754      1346.56     84.48874     169.0449      338.427      1.785     4.09     1027.612     59.69482     128.8689        10     1.002     0.734  37.57   0
       501    788.2164    290.0679 307.6104810  +6.5760938     2841.953     4044.137     4543.523     84.35366     169.3146     338.5617      1.523     3.10      1002.57     59.69482      472.395        19     1.184     0.986  82.41   0
       502    377.5623    284.8560 307.7812607  +6.5644917     1666.749     3273.607     3720.982     84.89267     169.4492     338.6964      2.150     5.42     1008.957     59.69482     210.1232        24     1.640     1.039   2.96   0
       503     91.3465    285.2026 307.9001499  +6.5547284     1334.513     2334.768     2796.602     84.21838     169.1124     338.2585      1.924     3.40     1027.968     59.69482     221.0886        12     1.154     0.672  69.62   0
       504    504.5343    280.9189 307.7286443  +6.5703758     2160.484     3209.504     3444.569      85.1609     169.5837     338.6628      1.633     3.84     1002.128     59.69482     288.2809        19     1.293     0.914  60.35   0
       505    266.9904    276.4865 307.8274780  +6.5642336     5802.641     8970.844     9567.707     84.48874     169.0449     338.4944      1.670     3.65     1015.632     59.69482     739.6637        28     1.385     1.091  61.29   0
       506    958.3197    271.1613 307.5404437  +6.5895795     512.4766     686.0254     175.0618     84.75824     169.4492     338.6291      1.545     4.38     993.9612     59.69482     79.82263         5     1.154     0.473  33.57   0
       507    243.2983    291.4376 307.8368157  +6.5572653     630.6113     917.6251     784.0781     84.89267     169.2472     338.8647      1.204     3.43     1017.376     59.69482     102.0962         5     0.724     0.471  16.41   0
       508      1.4151    268.6581 307.9380681  +6.5585298     942.5854     1535.861     1957.778     74.59704      136.167     256.1958      2.050     5.92     1030.202     59.69482     177.8234        12     1.689     0.687  88.84  24
       509    401.3298    267.4519 307.7719734  +6.5724742     1830.778     2736.887     2666.348     84.75824     169.2472     338.6628      1.722     4.03     1006.263     59.69482     220.3953        14     1.088     0.894  67.99   0
       510    245.1547    269.4631 307.8367863  +6.5663993     581.3972     945.9341     1037.495     84.89267     169.3146     338.6964      1.856     5.52     1016.716     59.69482     78.21686         6     1.420     0.605 -23.69   0
       511    987.8671    266.2409 307.5283326  +6.5925965     1256.067     1546.047     1935.656     84.89267     169.3146     338.7301      1.388     4.22     992.5958     59.69482     185.0714         9     0.945     0.635  60.35   0
       512    323.6917    263.3185 307.8043667  +6.5715743     1292.494     1823.468     1730.065      84.6236      169.651     338.7301      1.612     4.27     1011.463     59.69482     144.5925        15     1.087     0.967 -83.06   0
       513    170.9946    263.1161 307.8678088  +6.5665261     1821.011     3100.239     3027.837     84.35367     168.9775     338.3933      1.775     4.46     1023.061     59.69482     233.4585        20     1.305     1.049  43.73   0
       514    580.5325    258.9199 307.6978113  +6.5820042     2239.238     3300.466     3147.798     85.02689      169.651     338.6628      1.586     3.99     1000.094     59.69482     264.8859        20     1.321     0.968  65.54   0
       515    923.8555    257.8536 307.5552087  +6.5939234     1976.865     3026.212     3206.076     85.02689     169.3819     338.6291      1.659     5.37      994.562     59.69482     327.5972        18     1.723     0.777  34.98   0
       516    744.1592    256.3505 307.6299174  +6.5885408     5535.091      7575.36     7644.598     85.02689     169.3819     338.5954      1.454     3.08     999.1626     59.69482     805.9536        24     1.209     0.949  71.97   0
       517    982.4695    256.3159 307.5309077  +6.5965139     877.9943     1144.551     1414.724      85.1609      169.651     338.6964      1.458     3.31     992.1465     59.69482     154.0199         7     0.953     0.474  79.14   0
       518    684.9746    256.2443 307.6545099  +6.5866050     2293.749     3188.433     3270.939     84.35366     169.4492     338.5281      1.459     3.29     999.3555     59.69482     313.9118        18     1.145     0.929  76.16   0
       519    399.7809    251.3875 307.7731584  +6.5790540      603.716     959.9946     902.1806      84.6236     169.1124     338.5617      1.765     3.53     1005.295     59.69482     93.81329         5     0.795     0.452 -16.17   0
       520    940.0250    248.5518 307.5488026  +6.5983031     1400.434     1690.728     2020.509     84.48874     169.3819     338.5617      1.245     2.91     993.4729     59.69482     213.2278        10     0.949     0.657  63.54   0
       521    243.6843    241.8290 307.8383300  +6.5777578      2255.29     3418.846     3382.557     84.89267     169.1124     338.5281      1.631     3.91     1016.173     59.69482       278.89        19     1.172     1.020 -68.52   0
       522    886.4448    240.5081 307.5713337  +6.5998354     1923.747     2659.797     2593.812     84.89267     169.3146     338.7974      1.481     3.17     994.8518     59.69482     300.3341        15     1.165     0.793  49.38   0
       523    776.7075    239.9828 307.6169443  +6.5963862     1776.359     2412.914     2608.749      84.6236     169.1798     338.5281      1.433     3.07     997.3391     59.69482     262.7336        14     1.110     0.782  58.93   0
       524    700.0075    240.5344 307.6487923  +6.5935936     586.4401     810.1382     952.2168     84.35366     169.1124     338.4944      1.872     5.20     997.8793     59.69482     89.84509         6     0.951     0.804  87.18   0
       525    264.9224    234.9428 307.8297393  +6.5813143     610.3329     940.5764     913.8884     84.89267     169.3145     338.6291      1.650     5.20      1014.49     59.69482      102.766         7     1.207     0.633 -82.50   0
       526    477.5904    231.5035 307.7415022  +6.5898726     23354.47     35248.64     36463.55      84.6236     168.9775     338.4607      1.681     3.58     999.2508     59.69482     2640.802        50     1.473     1.205  58.91   0
       527    803.5497    230.5530 307.6061087  +6.6011763     14919.98     20430.06     21973.18     84.89267     169.2472     338.6964      1.503     3.00     996.1273     59.69482     2059.395        45     1.433     1.195  31.09   0
       528    483.4003    226.1173 307.7392698  +6.5922910     1500.174      2225.87     2554.161     84.08286     168.8425     338.2922      1.770     4.28     998.6732     59.69482     194.5095        15     1.074     0.978  57.75   0
       529    742.1469    226.3333 307.6317617  +6.6008657     772.1079     1188.385     1454.307     84.89267     169.3146     338.5954      1.793     3.98     996.1864     59.69482     130.4073         8     1.026     0.743  26.32   0
       530    165.7997    224.7182 307.8712642  +6.5822027     2250.307     3215.925     3508.828     84.08286     168.8425     338.2922      1.545     3.46     1022.933     59.69482     302.4367        18     1.179     0.933  59.24   0
       531    140.4852    223.6589 307.8818166  +6.5817884     1048.289     1653.714      1628.33     84.89267     169.3819     338.7638      1.748     6.78     1024.162     59.69482     127.3341        16     1.323     1.026 -86.67   0
       532    797.6247    222.7994 307.6088307  +6.6041792     608.1198     1099.289     1593.168     84.48874     169.0449      338.427      1.962     2.60     995.4806     59.69482     115.2223         5     0.738     0.429  67.95   0
       533    939.9509    220.9040 307.5497604  +6.6097148     1679.484     2080.111     1891.756     84.75824     169.2472     338.8311      1.319     2.82     991.9821     59.69482     288.2872        10     0.905     0.714  65.17   0
       534      3.8010    218.1477 307.9387861  +6.5794615     4997.005     7673.504     7980.448     84.21838     165.5001     293.9605      1.628     3.78     1029.478     59.69482     633.6871        30     1.356     1.146  79.74  16
       535    601.7269    217.2324 307.6904084  +6.5999239     4707.117     7159.204      7581.24     84.75824     169.3819     338.6628      1.645     3.35     996.7712     59.69482     604.8616        28     1.383     1.044  62.32   0
       536    321.9810    218.0804 307.8066034  +6.5901923     1033.543     1824.869     1879.102     84.48874     169.0449     338.5954      1.934     6.32     1009.919     59.69482     140.5901        12     1.592     0.704  54.03   0
       537    564.2325    217.1066 307.7059903  +6.5987200     2157.345     3267.692     3623.724     85.02689     169.2472     338.7301      1.629     3.98     997.2894     59.69482      306.387        18     1.260     0.947  58.83   0
       538    406.1615    216.3059 307.7716900  +6.5937507     1454.854     2283.222     2306.714     85.02689     169.2472     338.7638      1.629     4.66     1002.662     59.69482     174.2164        16     1.326     0.851  62.49   0
       539    908.6708    213.8072 307.5629948  +6.6116006     13077.34     16893.71      17170.9     84.35367       168.91     338.5617      1.336     2.77     992.4484     59.69482     2213.584        31     1.260     0.898  58.13   0
       540    962.5979    214.1855 307.5405761  +6.6132442     3174.615     4192.107     4276.679     84.48874     169.0449     338.4607      1.288     2.59     990.4185     59.69482     546.6389        18     1.126     0.795  69.49   0
       541    336.3696    214.7826 307.8007369  +6.5920369     1011.873     1651.022     1788.664     84.48874     169.1798     338.5954      1.630     5.09     1008.757     59.69482     144.1921         9     1.205     0.608 -26.04   0
       542    583.9041    214.0928 307.6979188  +6.6006231      902.682     1299.706     1087.529     84.89267     169.9196     338.6291      1.425     3.43     996.8848     59.69482     130.9148         9     0.808     0.763  51.07   0
       543    227.8325    213.5227 307.8458712  +6.5889104     593.8847     926.6788     1299.561     84.75824     169.3819     338.5954      1.890     4.88     1017.042     59.69482     79.85583         6     0.957     0.706 -81.24   0
       544    995.3148    211.6264 307.5270683  +6.6153920     11871.99     14920.47      16138.6     85.02689     169.1124     338.5281      1.268     2.68     988.8652     59.69482     1955.323        28     1.237     0.829  52.38   0
       545    706.7438    211.6586 307.6469640  +6.6057398     3237.354     4627.358     5298.835     85.02689     169.3819     338.6964      1.567     3.21     995.9515     59.69482     414.7084        23     1.217     1.028  75.66   0
       546     34.8739    210.4029 307.9261395  +6.5837054     26643.21     39881.81     41665.21     84.35366     168.8425     338.5281      1.618     3.35      1028.19     59.69482     3583.352        50     1.439     1.185  59.58   0
       547    281.3386    211.1490 307.8237223  +6.5916885     1015.038     1559.168     1484.168     84.89267     169.3146     338.6628      1.670     5.31     1013.466     59.69482     135.1466        11     1.001     0.914   8.32   0
       548    515.5183    206.5337 307.7265854  +6.6014524     2044.499     3177.207     3255.081      85.1609      169.651     338.7301      1.750     3.93     997.3237     59.69482      277.556        21     1.270     1.077  77.12   0
       549    899.6577    202.2874 307.5671260  +6.6160556     2214.699     2826.716     2632.848     84.89267     169.3819     338.7974      1.364     3.10      991.875     59.69482     385.0259        18     1.337     0.789  58.32   0
       550    847.1566    203.0570 307.5889138  +6.6139846     2365.412     3067.209     3056.925     84.75824     169.3146     338.6964      1.339     2.86     993.3449     59.69482     365.2844        15     1.082     0.755  60.68   0
       551    527.2446    202.4585 307.7218507  +6.6035278     2565.905     3564.613     3764.039     84.75824     169.3146     338.7638      1.463     3.08     996.9067     59.69482     350.4889        18     1.123     0.940  47.00   0
       552    361.9288    199.1951 307.7906438  +6.5993299      5725.33     12179.81     13277.71     84.48874     168.9775     338.5281      2.200     5.94     1006.118     59.69482     648.5538        47     2.011     1.253 -85.14   0
       553    758.8365    199.7249 307.6257214  +6.6124087     43856.84     60850.18     62985.73     84.75824     169.4492     338.6964      1.463     3.04     995.0219     59.69482     6416.304        51     1.374     1.083  55.23   0
       554    992.6671    198.5094 307.5286080  +6.6207189     3364.848     4274.058     4056.609     85.02689     169.5165     338.6628      1.236     2.50     988.3983     59.69482     627.8279        17     1.105     0.763  59.21   0
       555    926.7369    196.8059 307.5560587  +6.6192224     8552.929     11129.09     11574.62     84.21838     169.1124     338.3933      1.334     2.85     990.7063     59.69482     1414.779        24     1.230     0.836  57.93   0
       556    470.3857    195.9807 307.7456920  +6.6042959     5091.852     7610.374      7864.35      84.6236     169.1124     338.5617      1.615     3.54     997.8091     59.69482     628.2617        26     1.287     1.052  54.65   0
       557    127.6342    187.2806 307.8883850  +6.5963736     4957.688     7162.679     6887.998     84.75824     169.4492     338.6964      1.592     3.62      1022.88     59.69482     653.9894        26     1.343     1.036  68.77   0
       558    947.1423    186.4087 307.5479290  +6.6241958     1028.376     1393.728     1663.119     84.21838     169.3146     338.3596      1.283     2.55     989.2344     59.69482     186.5201         7     0.829     0.561  75.99   0
       559    297.9759    183.9329 307.8177286  +6.6034829     33833.72     52745.96      54590.7     84.48874     169.3145     338.5954      1.649     3.52     1013.014     59.69482     4028.578        55     1.490     1.228  53.22   0
       560    273.2906    184.9657 307.8279496  +6.6022271     6775.199      10306.1     10179.32     85.02689     169.2472     338.6628      1.643     3.74     1014.816     59.69482     853.9504        32     1.356     1.139  63.97   0
       561    624.1761    186.1573 307.6821265  +6.6135044      636.247     1212.121      1527.87     84.48874     169.2472     338.4944      1.818     3.87     995.5692     59.69482     87.30011         5     0.823     0.649  48.83   0
       562    727.0786    183.3525 307.6394664  +6.6181057     920.4274      1136.94     1451.737     84.89267     169.4492     338.6291      1.249     2.45     995.0244     59.69482     165.4984         7     0.715     0.648   7.29   0
       563    422.0312    179.4370 307.7663394  +6.6095037     50548.02     77383.97     80072.29     84.48874     169.1124      338.427      1.662     3.55     999.3798     59.69482      6032.45        62     1.481     1.254  55.27   0
       564    178.0006    180.7887 307.8676795  +6.6007480     4105.861     6471.232     6486.697     84.48874     169.0449     338.4607      1.679     3.90     1019.698     59.69482     488.6371        24     1.310     1.055  65.52   0
       565    439.4205    180.1077 307.7590920  +6.6098101      1442.89     2150.615     2147.809     84.75824     169.1798     338.4944      1.650     3.88     998.5795     59.69482     187.2378        16     1.119     0.989  65.37   0
       566    326.0278    177.1439 307.8063031  +6.6072277     18164.16     28514.41     30048.24     84.48874     169.4492     338.5617      1.661     3.60     1009.846     59.69482     2108.609        47     1.483     1.215  61.81   0
       567    761.2719    175.6000 307.6255199  +6.6224497     36653.94     50358.11     51448.34     84.08286     168.8425     338.4944      1.470     2.99     994.0895     59.69482     5192.384        51     1.388     1.060  55.84   0
       568    333.4579    177.0973 307.8032177  +6.6074965     2065.327     3533.391     3869.718      84.6236     169.3146     338.8311      1.955     3.77     1008.996     59.69482     260.7243        21     1.211     1.103  85.65   0
       569    809.4933    176.1798 307.6054648  +6.6238221     1365.576     1994.208     3026.078     84.75824     169.1798     338.4607      1.438     3.29      992.789     59.69482     208.3306        11     1.099     0.651  58.65   0
       570     48.6853    176.0043 307.9215653  +6.5983707     747.5059     1116.885     1229.359     84.35366     168.9775     338.2922      1.647     4.63     1027.293     59.69482     109.8035         7     0.961     0.634 -37.58   0
       571     78.1866    172.8494 307.9094158  +6.6006665     9395.822     14007.13     14434.95     84.21838     169.3146     338.3596      1.573     3.42     1025.439     59.69482     1298.435        32     1.345     1.072  66.64   0
       572    112.2139    171.0320 307.8953406  +6.6025622     1609.057     2399.128     2654.743     84.48874     169.1124     338.5954      1.603     4.18     1023.184     59.69482     197.2695        19     1.315     0.971  65.58   0
       573   1019.5958    169.9203 307.5183771  +6.6334197     1235.218     1642.937     1812.469     84.48874     168.8425     314.7904      1.397     2.79     986.5812     59.69482     256.3038         9     1.006     0.559  60.38  16
       574    709.6082    177.5399 307.6469205  +6.6199210     1006.918     1589.339      1297.26     84.21838     169.1798     338.3933      1.660     2.73     994.9902     59.69482     162.3485         9     0.900     0.663 -31.46   0
       575    595.2097    160.2544 307.6950330  +6.6232279     933.7188     1327.629     523.5982     84.21838     169.3146     338.3596      1.447     4.69     994.5961     59.69482     119.8588         8     0.929     0.671  89.33   0
       576     11.8802    157.8653 307.9374696  +6.6046189      960.109     1414.981     642.5388      85.1609     169.4492     338.6291      1.613     3.84     1029.682     59.69482     177.1227         9     1.115     0.706  46.66   0
       577   1020.5830    156.0584 307.5184313  +6.6391754     2750.292     3797.474     4003.652     84.48874     169.3146      302.525      1.432     2.59     986.0913     59.69482     502.7064        20     1.109     0.891  64.21  16
       578    603.8466    153.7565 307.6916632  +6.6261997     997.0295     1422.263     1437.954     84.89267     169.3819     338.5954      1.486     4.28     994.3647     59.69482     146.9148        10     1.019     0.788  88.87   0
       579    296.8760    150.2141 307.8193234  +6.6173657     30440.42     47620.89      50035.5     84.35366     169.1124     338.4607      1.671     3.61     1013.905     59.69482     3676.435        58     1.513     1.246  59.58   0
       580    612.0707    152.0114 307.6883048  +6.6271955     2156.168     2978.732     3432.032     84.35367     169.0449     338.4607      1.488     3.32     994.2762     59.69482     277.4537        16     1.107     0.906  60.52   0
       581    356.3444    152.0544 307.7945537  +6.6186032     940.9924     1298.523     933.3733      85.1609     169.3819     338.6628      1.520     4.88     1005.863     59.69482     124.0763         9     0.987     0.684 -21.52   0
       582     42.2174    148.7242 307.9251753  +6.6094145     4486.948      6645.62     6676.005     84.35367     169.1124     338.5954      1.564     3.25     1027.373     59.69482     656.1349        27     1.339     1.044  60.53   0
       583    728.4648    146.8135 307.6401182  +6.6332367     8750.337     12079.98        12385     84.35367     169.1798     338.5617      1.467     3.00     993.4641     59.69482     1185.569        28     1.262     1.001  63.41   0
       584    205.9543    147.9736 307.8571743  +6.6152347     926.8383     1171.215     1171.286     84.35367     169.4492     338.5617      1.371     4.76     1017.673     59.69482     146.5334         8     0.914     0.871  59.05   0
       585    282.4190    145.1685 307.8255002  +6.6189629     725.7503     1233.458     1543.448     84.35366     169.1798     338.5281      1.680     6.11     1015.226     59.69482     85.16943        11     1.414     0.741  40.06   0
       586    139.1964    143.8560 307.8850491  +6.6146890     4934.707     7759.296     7882.329     84.21838     169.1798     338.3259      1.664     3.68     1020.419     59.69482     594.4942        29     1.397     1.075  57.77   0
       587    601.2963    141.8581 307.6931231  +6.6310263     858.2233     1478.865     1750.361     84.75824     169.3819     338.8311      1.876     5.00     993.7819     59.69482     126.8303         9     1.119     0.660 -86.43   0
       588    478.4183    141.1818 307.7442006  +6.6271877       1365.4     1836.384     1208.054      84.6236     169.1124     338.5954      1.401     4.27     995.1551     59.69482      182.778        11     1.061     0.714  48.76   0
       589    409.9647    140.0892 307.7726790  +6.6253425     3774.916     6240.069     5815.902     85.02689     169.3145     338.6628      1.745     4.01     998.6118     59.69482     491.9623        30     1.458     1.147  63.97   0
       590    667.1322    140.8578 307.6658021  +6.6336434     695.4233     1223.917     925.4174     85.02689     169.3146     338.6291      1.799     5.10     993.5713     59.69482      100.501         6     1.067     0.689  74.25   0
       591    374.5119    139.0576 307.7874438  +6.6245785     3239.816     4885.403     4650.555     84.89267     169.3145     338.7974      1.630     3.63     1003.263     59.69482     386.7888        23     1.305     1.029  58.78   0
       592    586.7186    139.2774 307.6992669  +6.6316035     686.6249     1253.992     1191.418      85.1609      169.651     338.7974      1.755     3.87     993.7051     59.69482     129.0125         6     1.094     0.392  77.52   0
       593    128.9438    138.7835 307.8894801  +6.6164380     1669.882     2515.434     2879.709     84.35366     169.3146     338.3933      1.545     3.85     1020.934     59.69482      208.265        18     1.247     0.951  53.30   0
       594    957.2023    138.4089 307.5453583  +6.6443477     584.2065     659.0692     344.6628     84.21838     169.0449      338.427      1.211     2.91     986.2352     59.69482     110.8043         5     0.738     0.435  22.69   0
       595    690.1055    137.0467 307.6563848  +6.6359855     788.5551     1373.953     1450.903     84.75824     169.3145     338.7974      1.810     4.69     993.1559     59.69482     113.2017         9     0.989     0.676  76.59   0
       596    764.7467    136.7959 307.6253796  +6.6385855     552.0801     734.4268      654.054     84.21838     169.1124     338.2922      1.468     3.85     991.7981     59.69482     105.1786         5     0.882     0.481  43.60   0
       597   1021.1282    132.9493 307.5189790  +6.6487339     1947.188     2554.037      2230.11     84.89267     166.2562     295.3923      1.316     2.74     985.0597     59.69482     348.6967        14     1.068     0.809  64.70  16
       598    747.1943    132.9767 307.6328010  +6.6395753     599.2698     573.6375     547.1821     84.35366     169.1124     338.5281      1.236     2.99     992.1094     59.69482     113.9699         5     0.802     0.480 -37.66   0
       599    226.3848    127.8233 307.8493666  +6.6242401     5569.203     8606.822     8938.091      84.6236     169.1798     338.5617      1.663     3.64     1016.828     59.69482     740.1037        28     1.349     1.068  59.86   0
       600    109.0384    127.6738 307.8981257  +6.6203543     2161.236      3193.08     3767.921     84.75824     169.3819     338.7301      1.640     3.84      1021.84     59.69482     253.1556        18     1.207     0.952  51.73   0
       601    688.0590    126.5497 307.6575880  +6.6402505     6926.321     9521.307     9776.177     84.89267     169.3819     338.6628      1.489     3.19     992.5583     59.69482     938.2967        28     1.222     1.040  54.56   0
       602    836.1607    126.3288 307.5960579  +6.6452934     1151.095     1332.823     1269.156     84.75824     169.3819     338.7301      1.289     3.54     989.0429     59.69482     206.9321        11     1.158     0.635  50.10   0
       603    640.2407    123.8131 307.6775487  +6.6397798     9940.925     14491.49     15725.68     84.35366     169.1798     338.3933      1.564     3.26     992.6861     59.69482     1313.374        32     1.320     1.066  59.11   0
       604    275.2657    124.8320 307.8291586  +6.6271179     959.7781       1474.5     1706.723     84.75824     169.4492     338.5954      1.761     4.99     1015.399     59.69482     128.2103        13     1.147     0.879 -64.07   0
       605     39.2118    122.7322 307.9273033  +6.6200430      1077.06     1847.321     1355.511     84.35367     169.2472     338.5617      1.799     5.54     1026.991     59.69482     135.6205        14     1.283     0.795 -85.78   0
       606    578.5652    123.4760 307.7031863  +6.6378536     610.7679     834.4359     1216.782     84.75824     169.4492     338.6291      1.508     4.06     993.1804     59.69482      96.5885         5     0.949     0.496  -4.04   0
       607    367.3299    119.4904 307.7910877  +6.6324152     3596.372      6060.51       6562.9     84.75824     169.5837     338.6628      1.826     4.00     1004.105     59.69482     444.1886        31     1.596     1.181 -68.69   0
       608    549.1744    118.8862 307.7155527  +6.6387637     1758.013     2324.011     2019.178     85.02689     169.1798     338.5281      1.410     3.44     993.5214     59.69482     255.2689        14     1.109     0.819  58.77   0
       609   1013.4520    118.2251 307.5226621  +6.6545566     935.5093     1289.488      831.186     84.48874     169.3819     338.5617      1.342     4.37     984.4958     59.69482     139.2101         9     1.147     0.590  61.62   0
       610    643.7654    115.3316 307.6763694  +6.6433993     57361.26     81503.03     84980.95     84.75824     169.4492     338.7638      1.548     3.16     992.1631     59.69482     7384.567        66     1.440     1.173  52.27   0
       611    322.8788    108.9651 307.8099116  +6.6352676     3471.063     5616.587      6058.15     84.75824     169.4492     338.6628      1.717     3.64     1010.298     59.69482     402.6739        25     1.347     1.062  66.51   0
       612    767.9349   1021.2141 307.5943682  +6.2735680     1396.577     1940.844     1692.369     84.35366     165.4311     293.9993      1.332     3.14      1030.09     59.69482     258.6849        12     1.126     0.649  71.42  16
       613    722.8701    103.7896 307.6438887  +6.6508112     1039.456     1546.505     1737.945     84.35366     169.1798     338.4944      1.487     2.84     990.6404     59.69482     169.6799         8     0.888     0.618  60.30   0
       614    694.3433    102.4212 307.6557880  +6.6504218     1447.431     1852.449     1269.142     84.48874     169.3819     338.4607      1.424     3.63      990.929     59.69482     236.5264        15     1.233     0.768  49.72   0
       615    708.1948     99.2243 307.6501399  +6.6522050     3483.172      4921.22     5055.271     84.35366     169.1124     338.4944      1.515     3.13     990.5319     59.69482     501.0774        20     1.169     0.917  65.20   0
       616    449.9861     90.4276 307.7577241  +6.6471868     4188.153     6396.765     6657.484     84.48874     169.1798     338.5617      1.682     3.58     994.6395     59.69482     519.5244        24     1.240     1.091  58.44   0
       617    904.4964     86.6610 307.5689942  +6.6639520     2447.544     3062.811     3385.061      84.6236     169.3819     338.7638      1.350     2.71     984.7416     59.69482     406.1925        15     1.098     0.730  59.89   0
       618    922.4337     85.6804 307.5615736  +6.6649556     4704.518     5846.333     6095.527     84.75824     169.3819     338.6628      1.308     2.82     984.2635     59.69482     703.5665        18     1.106     0.814  56.17   0
       619    634.8351     84.3471 307.6811223  +6.6558916     695.1548     1044.424     1156.796     84.75824     169.3819     338.6628      1.558     3.55     990.7681     59.69482     92.31165         5     0.992     0.366  86.14   0
       620    614.5224     84.2902 307.6895644  +6.6552349     1882.841     2714.453     2597.122      84.6236      169.651     338.6964      1.534     3.52     990.9008     59.69482     243.4619        16     1.163     0.853  53.83   0
       621    260.8613     83.8133 307.8365282  +6.6435671     850.2086     1386.952     2115.449     84.35366     169.1798     338.3933      2.084     5.55     1015.492     59.69482     130.3065        13     1.301     0.888  86.80   0
       622    413.2828     82.1943 307.7732520  +6.6493542     2022.078     3090.841     3184.462     84.48874     168.9775      338.427      1.648     3.38     996.3724     59.69482      272.257        18     1.078     1.021 -75.23   0
       623    161.2083     79.0372 307.8780943  +6.6421877     3300.942      5014.49     4925.232     84.08286     169.1124      338.427      1.623     3.73     1017.433     59.69482       409.65        23     1.322     1.033  61.94   0
       624     43.1236     76.9258 307.9272279  +6.6390841      13179.5     19520.91     20729.48      85.1609      169.651     338.7301      1.574     3.33     1024.697     59.69482     1689.658        40     1.390     1.142  61.89   0
       625    309.4437     77.5214 307.8165548  +6.6477969     1543.643     2381.512     2723.981     84.75824     169.3819     338.6964      1.791     4.32     1012.005     59.69482     188.1301        17     1.221     1.005  71.34   0
       626    777.9540     76.1333 307.6219294  +6.6640706     781.7217     1253.646     2518.153     84.89267     169.3145     338.6964      3.117     4.12     987.4743     59.69482     145.2871         9     1.310     0.734  68.29   0
       627      5.9385     77.2480 307.9426665  +6.6376983     533.7403     1218.228     2579.045     84.75824     169.3146     320.6762      3.282     4.75     1027.522     59.69482     81.89282         5     0.917     0.697  24.16  16
       628    964.1595     75.7569 307.5445680  +6.6704449     584.6334     758.4995     624.0196      84.6236     169.3819     338.5281      1.153     3.56      982.385     59.69482     101.8254         5     1.148     0.318  80.49   0
       629    911.8906     72.9852 307.5663804  +6.6698446     789.0256     1032.658     748.6776      84.6236     169.1798     338.4944      1.377     3.51     983.9091     59.69482     142.1518         7     0.890     0.504  44.45   0
       630    844.8078     71.4590 307.5943067  +6.6682345     7268.341     9448.818     9735.347     84.21838     169.2472     338.3596      1.359     2.90     985.3856     59.69482     1208.828        22     1.190     0.862  55.37   0
       631    789.8575     71.7484 307.6171305  +6.6662787     3738.998     5163.924     5267.001     84.89267     169.3819     338.6628      1.422     2.95     986.8922     59.69482     624.2104        21     1.248     0.862  60.58   0
       632    434.9987     72.3304 307.7645613  +6.6541549     1053.038     1423.253     1757.326     84.35366       168.91     338.4944      1.513     4.78     994.9463     59.69482     149.1414        12     1.103     0.940  28.77   0
       633    570.0895     76.8000 307.7082790  +6.6568389     731.4889     961.8184     760.0709     84.08286     168.8425     338.2922      1.316     4.26     991.8271     59.69482     106.2436         8     0.853     0.656  44.70   0
       634    114.8379     72.3732 307.8975858  +6.6433783     608.7513     933.2892     433.4691     84.48874     169.1798     338.4944      1.647     4.36     1019.483     59.69482     91.86597         6     0.773     0.700  66.12   0
       635     68.2722     69.8870 307.9170173  +6.6428368     1067.772     1490.572     1617.349     85.02689      169.651     338.6628      1.601     5.11     1022.407     59.69482      136.964        10     0.953     0.853 -80.16   0
       636    671.9865     69.3079 307.6661909  +6.6633438     727.0071     1192.732     1545.509      84.6236     169.1124      338.427      1.741     5.10     990.0366     59.69482     110.3615         9     0.990     0.805 -58.97   0
       637    552.0021     69.8140 307.7160298  +6.6591168     1006.375     1370.632     1437.349     84.48874     169.0449     338.4607      1.469     4.35      992.114     59.69482     133.4426        11     1.045     0.724  72.10   0
       638     83.4796     68.7771 307.9107364  +6.6438071     3658.029     5089.628     4899.635     84.48874     169.0449     338.6291      1.536     3.52     1021.269     59.69482     438.6708        20     1.245     0.959  64.84   0
       639    444.5415     68.5268 307.7607244  +6.6560453      1093.12     1422.124     2009.936     85.02689     169.3819     338.6291      1.568     5.41     994.4584     59.69482     159.7221        11     1.013     0.815  48.18   0
       640    607.4493     65.2524 307.6931440  +6.6628574     1251.848      1808.69     1687.385     85.02689     169.2472     338.6291      1.553     4.12     990.3131     59.69482     197.1041        12     1.085     0.830 -79.52   0
       641     25.9173     64.3097 307.9348036  +6.6437125     2812.516     4038.878     4386.162      84.6236      169.651     338.7638      1.547     3.75     1025.005     59.69482     367.7008        21     1.279     0.974  70.40   0
       642    784.7050     59.3393 307.6196883  +6.6712294     2286.605     3087.516     3215.189     84.75824     169.3819     338.7638      1.503     3.32     986.2427     59.69482     314.9405        18     1.188     0.874  53.47   0
       643    424.9872     59.4301 307.7691561  +6.6591446     1288.895     1681.849     2308.864     84.35366     169.1124     338.5954      1.576     4.63     995.3232     59.69482      156.796        12     1.037     0.846  75.72   0
       644     98.6181     59.7384 307.9047522  +6.6480480     828.4578       1111.8     967.7056     84.48874     169.3146     338.4944      1.197     3.02     1019.804     59.69482     151.2798         7     0.936     0.480 -84.54   0
       645    122.4229     58.6206 307.8948993  +6.6493108         1116     1633.044     1669.382      84.6236     169.1798     338.5954      1.581     5.35     1018.653     59.69482     130.2906        13     1.221     0.877  67.39   0
       646    111.2345     53.1054 307.8997345  +6.6512110      10108.5     14954.98     15130.65     85.02689     169.2472     338.7638      1.594     3.37     1018.955     59.69482      1246.34        36     1.417     1.088  65.21   0
       647    440.3576     52.9113 307.7629892  +6.6623514     2722.712     4187.273     4557.463     84.89267     169.3146     338.6964      1.670     3.54     994.4692     59.69482     343.0548        19     1.163     1.004  62.49   0
       648    653.9545     45.1021 307.6744978  +6.6727331      20003.7     28041.96      29336.6     84.89267     169.2472     338.8647      1.473     3.11     989.3365     59.69482     2851.242        41     1.374     1.058  53.95   0
       649    277.9458     47.0828 307.8306696  +6.6593042     1455.435     2185.385     2991.222     84.89267     169.3819     338.7638      1.776     3.79      1014.68     59.69482      167.025        16     1.101     0.994 -87.58   0
       650    553.7674     41.1345 307.7162618  +6.6710156     5417.852     7977.273     7970.192     84.75824     169.4492     338.6291      1.567     3.25     991.0625     59.69482     708.8668        28     1.288     1.073  74.34   0
       651    272.0034     41.3968 307.8333307  +6.6614518     2061.161     3062.613     4426.488     84.21838       168.91     338.4607      1.769     3.98     1014.736     59.69482     249.3484        21     1.347     0.983  68.89   1
       652    709.5654     39.8116 307.6515675  +6.6767782     512.8439     702.2395     1156.537     84.35367     169.1798     338.4607      0.991     2.80     987.5159     59.69482     99.02557         5     0.724     0.448  68.18   0
       653    279.8489     37.1595 307.8302138  +6.6634647      9492.39     14518.12     15639.73     84.75824     169.3819     338.5954      1.639     3.46     1014.523     59.69482     1223.033        35     1.428     1.134  61.12   0
       654     21.1513     39.5807 307.9376207  +6.6537603     1336.547     1753.178     1989.342     84.35366     169.4492     338.4607      1.499     5.56     1023.465     59.69482     175.9878        12     1.075     0.829  55.61   0
       655    640.3165     35.5440 307.6804862  +6.6762224     3460.253     5574.959     6259.256     84.89267     169.3819     338.7638      1.822     4.98     989.0883     59.69482     496.7411        27     1.891     0.911  66.83   0
       656    459.2809     36.7543 307.7556707  +6.6696561     23942.72     35288.24     37197.13     84.89267     169.3819     338.6628      1.604     3.41     993.0266     59.69482     2861.837        47     1.395     1.179  55.47   0
       657    936.9980     36.6679 307.5571655  +6.6856758     2222.319     2892.954     2864.214     84.21838       168.91     338.4607      1.327     2.68     981.2977     59.69482     425.8397        16     1.167     0.732  54.14   0
       658    339.7041     37.3027 307.8053385  +6.6654164      972.842     1308.406         1406     84.89267     169.9867     338.4944      1.662     5.46     1007.172     59.69482     142.8617         9     1.282     0.656  65.71   0
       659     45.3081     36.8771 307.9276753  +6.6556902     2577.909     3801.321      3615.17      84.6236      169.651     338.6628      1.563     3.47      1021.89     59.69482     356.7701        18     1.151     0.952  59.79   0
       660    267.8072     33.7413 307.8353327  +6.6644711     3075.385     4512.426     5205.645     84.21838     169.2472     338.3596      1.577     3.30     1014.736     59.69482     467.8501        23     1.325     0.996  63.24   0
       661    320.9130     32.0740 307.8133229  +6.6669438     922.8068     1325.156     1289.852     85.02689     169.7182     338.6628      1.478     5.05     1009.781     59.69482     135.8174         9     1.114     0.647  73.80   0
       662    957.7667     26.7822 307.5488666  +6.6904501     1172.865     1385.203     1175.281     84.48874     169.1798     338.4944      1.136     3.12     978.8273     59.69482     243.5946         8     0.993     0.506  58.20   0
       663    709.1302     26.2765 307.6522033  +6.6823513     2053.695     2860.011      2512.03      85.1609     169.5165     338.6628      1.496     3.46     986.8637     59.69482     283.2676        15     1.172     0.806  50.35   0
       664    114.0409     26.7463 307.8994597  +6.6621867     690.3077     1042.811     677.2202     84.75824     169.3819     338.6964      1.790     4.56     1017.825     59.69482     105.6703         5     0.973     0.606 -69.72   0
       665    220.7569     22.6376 307.8552575  +6.6674732      878.852     1377.965     785.3333      84.6236     169.3819     338.5281      1.629     4.97     1015.479     59.69482     115.1316         9     1.026     0.870  31.52   0
       666    275.4273     21.6846 307.8325735  +6.6697044     671.2726     795.9542     1149.323     85.02689     169.1124     338.5281      1.212     4.52     1014.452     59.69482     93.68353         7     0.869     0.667  19.18   0
       667    640.1723   1018.8481 307.6474957  +6.2702733     638.0334     766.9257     616.1764     84.48874     169.3819     322.7674      1.379     5.09     1032.126     59.69482     115.6244         6     1.307     0.560  74.22  16
       668     10.8139     19.4260 307.9425980  +6.6617320     976.8824     1314.716     1434.397      84.6236     169.1798     338.5954      1.489     5.60     1022.278     59.69482     146.6165        10     1.215     0.762  70.96   0
       669    975.2513   1015.3816 307.5084825  +6.2828958     8112.169     10655.09     11240.61     84.35367     169.4492     338.3933      1.372     2.79     1022.638     59.69482     1297.728        27     1.278     0.913  57.63  16
       670    729.7556   1016.1456 307.6103907  +6.2743846     1170.241     1562.643     2784.486     84.89267     169.3819     338.6964      1.335     3.21     1031.762     59.69482     222.3761         9     1.053     0.595  78.24   0
       671    259.7316   1015.3473 307.8055707  +6.2589677     1639.953     2157.302      1609.84     84.75824     169.3146     338.5617      1.310     2.67     1041.063     59.69482     290.9119        10     0.922     0.662  60.86   0
       672    458.2024   1014.4925 307.7231963  +6.2659785     1085.015     1382.224     1487.521     84.35367     169.0449     338.3259      1.324     3.74     1037.319     59.69482       169.78         9     1.070     0.556  66.20   0
       673    734.9383   1013.4013 307.6083309  +6.2756908     3358.952     4298.883     4693.023     84.21838     169.1798     338.3596      1.302     2.89     1031.661     59.69482     598.4939        15     1.106     0.740  52.96   0
       674    802.4199     12.8265 307.6138893  +6.6910235     622.3003     488.1223    -99.11236     84.35366     169.1124     338.5281      1.005     3.41      983.024     59.69482     121.6361         5     0.745     0.451 -70.19   0
       675    750.6713   1012.6703 307.6018229  +6.2765184     1401.554     1546.411     1317.948     84.89267     169.5165     338.5954      1.171     3.19     1030.837     59.69482     250.4038        10     0.929     0.734  56.82   0
       676    381.6385   1010.8392 307.7551082  +6.2649198     2183.834      2707.25     2681.177      84.6236     169.3146     338.5281      1.311     3.10     1039.774     59.69482      317.639        14     1.080     0.744  66.72   0
       677    992.0491   1008.8957 307.5017247  +6.2861335     755.4327     889.8627      697.688     84.75824     169.2472     338.8311      1.285     3.71     1021.639     59.69482     128.9397         7     0.881     0.545  47.64   0
       678    720.1494   1007.1393 307.6146816  +6.2777817      578.202     636.5037     1223.313     84.89267     169.3146     338.6628      1.322     4.03     1031.319     59.69482     79.20935         6     0.787     0.591  44.09   0
       679    632.6281   1004.9441 307.6510952  +6.2757611     577.7712     789.1428     871.3066     84.48874     169.4492     338.5617      1.202     3.46      1032.12     59.69482     124.5105         5     0.805     0.430  71.04   0
       680    607.6522   1003.6273 307.6615096  +6.2754690     679.2748     895.8483     388.5836     84.48874     169.5165     338.5954      1.413     4.69     1032.737     59.69482      104.551         6     1.056     0.590  62.17   0
       681    564.0430   1001.0687 307.6797025  +6.2750656     5168.667     6912.399      7555.95     84.89267     169.3145     338.7638      1.399     2.86     1034.506     59.69482     892.0472        23     1.276     0.824  69.80   0
       682    534.3145   1002.4210 307.6920005  +6.2735119     1347.633     1545.872     1270.314      84.6236     169.1124     338.5617      1.208     3.76     1035.386     59.69482     212.2214         8     0.955     0.548  70.15   0
       683    768.5048   1000.4832 307.5948270  +6.2821457     10003.91      12577.2     12961.38     84.75824     169.7853     338.7638      1.273     2.71     1029.326     59.69482     1619.519        23     1.171     0.823  64.31   0
