#   1 NUMBER                 Running object number                                     
#   2 X_IMAGE                Object position along x                                    [pixel]
#   3 Y_IMAGE                Object position along y                                    [pixel]
#   4 ALPHA_J2000            Right ascension of barycenter (J2000)                      [deg]
#   5 DELTA_J2000            Declination of barycenter (J2000)                          [deg]
#   6 FLUX_APER              Flux vector within fixed circular aperture(s)              [count]
#   9 FLUXERR_APER           RMS error vector for aperture flux(es)                     [count]
#  12 FLUX_RADIUS            Fraction-of-light radii                                    [pixel]
#  13 FWHM_IMAGE             FWHM assuming a gaussian core                              [pixel]
#  14 BACKGROUND             Background at centroid position                            [count]
#  15 THRESHOLD              Detection threshold above background                       [count]
#  16 FLUX_MAX               Peak flux above background                                 [count]
#  17 ISOAREA_IMAGE          Isophotal area above Analysis threshold                    [pixel**2]
#  18 A_IMAGE                Profile RMS along major axis                               [pixel]
#  19 B_IMAGE                Profile RMS along minor axis                               [pixel]
#  20 THETA_IMAGE            Position angle (CCW/x)                                     [deg]
#  21 FLAGS                  Extraction flags                                          
         1    251.7224     48.3162 307.8352687  +6.6645187     3208.965     4981.157     6119.481     79.96075     159.6059     318.5793      1.755     3.66     873.0496     56.13804     415.7883        26     1.554     0.956 -79.63   0
         2    463.6089     30.4902 307.7478389  +6.6790006     1916.822     2883.785     2557.347     79.45467     158.9728     318.2626      1.561     3.98     861.5976     56.13804     286.6573        19     1.398     0.821 -84.38   0
         3    431.4204     19.8888 307.7615698  +6.6822959     6435.199     9342.617     9292.761     79.70811     159.0362     318.3576      1.515     3.28     864.4202     56.13804     836.0743        28     1.405     0.930 -80.67   0
         4     32.3383     19.3662 307.9273911  +6.6690777     9049.298     13178.04     13368.62     79.70811      159.353      318.421      1.563     3.33     874.0193     56.13804     1175.053        36     1.413     1.044 -87.51   0
         5    327.9172     14.7879 307.8047448  +6.6809227     13514.11     20175.65     21445.24     79.45467     159.0362      318.326      1.569     3.45     869.7637     56.13804     1945.634        41     1.509     1.056 -81.42   0
         6    422.8323     15.5317 307.7652849  +6.6838060     850.0625     1138.261     981.5898     79.70811     159.2896     318.4843      1.657     4.66     865.2235     56.13804     132.6409        11     1.244     0.651 -81.23   0
         7    101.5175     15.0906 307.8987952  +6.6731753     2668.948     4141.146     4458.178     79.58149     159.5427     318.5793      1.666     3.96      874.314     56.13804     349.6317        23     1.321     1.098 -70.31   0
         8     92.8197     13.6886 307.9024562  +6.6734609     1606.205     2348.427      2260.95     79.58149     159.0362     318.3893      1.562     4.14     874.3724     56.13804     244.2778        14     1.277     0.794 -89.67   0
         9    796.6279     13.2584 307.6100537  +6.6972781     849.3455     1126.528     607.1403     79.45467      159.353     318.3893      1.406     3.41     855.6708     56.13804      129.985         9     1.050     0.586 -77.26   0
        10    393.9942     12.7646 307.7773598  +6.6839793     2436.987     3405.239      2714.29     79.07298     159.0362     318.2626      1.442     3.31     866.6729     56.13804     366.8152        18     1.231     0.869 -85.28   0
        11    654.8497      8.3714 307.6691263  +6.6945473     11840.93     16980.15     18271.33     79.45467     159.4162     318.1675      1.531     3.31      857.446     56.13804     1797.764        37     1.459     0.976 -88.58  16
        12    989.3763      9.6662 307.5300866  +6.7052050      732.277     1000.175     829.8041     79.45467     159.2896      318.421      1.546     5.20     847.5596     56.13804     113.9067         8     1.169     0.652  88.03   0
        13    819.4988      7.8422 307.6007328  +6.7002793     1760.289     2729.871     3144.891     79.83453      159.163     316.4832      1.585     3.46     855.1171     56.13804     264.7689        15     1.255     0.692  81.29  16
        14    532.5051      7.8807 307.7199758  +6.6906469     1356.218     1960.791     1989.764     79.58149     159.5427     316.5469      1.495     3.74     859.9119     56.13804     202.0505        14     1.291     0.743 -86.21  16
        15     73.2480      8.8657 307.9107506  +6.6747919      707.826     1148.182       766.29     79.70811     159.2263      318.516      1.623     3.95     873.9796     56.13804     121.7421         6     0.908     0.649 -14.85   0
        16    889.9653      5.7035 307.5715255  +6.7035190     1567.657     2216.305     2599.861     79.96075      159.163     299.2868      1.528     3.93     853.3547     56.13804     272.0913        14     1.279     0.712 -88.59  16
        17    255.2680      5.0540 307.8352570  +6.6824969     6769.587     10432.11     11559.93     79.83453     159.2263     292.2285      1.696     3.61     872.5389     56.13804     977.5786        39     1.686     1.171 -46.73  16
        18    676.4174      2.7919 307.6603528  +6.6975734     8774.944     12360.48        13174     79.45467     146.0107     262.4476      1.514     3.43     856.6664     56.13804      1182.01        27     1.363     0.939  87.07  27
        19    679.7017      1.3541 307.6590365  +6.6982770     8514.864     10748.36     11400.32     69.86423     127.1052     240.0504      1.111     2.24      856.552     56.13804     1910.747        15     0.991     0.753  -3.51  27
        20    646.5264      3.7222 307.6727410  +6.6961877     9998.131     14194.16     15141.08     80.08678     155.5095     275.6418      1.504     3.25     857.5775     56.13804     1302.499        36     1.412     1.004 -83.06  24
        21    416.3256      3.7190 307.7683867  +6.6884638     8637.582     12264.18     12443.06     80.08678     155.5095     275.6052      1.516     3.27     866.1949     56.13804       1124.8        32     1.378     0.986 -84.96  24
        22    958.4158      5.2452 307.5430993  +6.7059959      536.192     878.0523     1448.922     79.32764      159.163     294.1548      1.835     3.41      849.812     56.13804     78.33289         5     0.734     0.459  71.73  16
        23    731.9896      2.6619 307.6372670  +6.6994887      2038.68     2697.209     2419.851     79.20041     144.7621     260.3256      1.387     3.16     856.1697     56.13804      342.052        15     1.262     0.726  88.59  24
        24    157.9927      2.0263 307.8757740  +6.6804714     707.8181     819.3646      491.682     76.74298     136.6636     250.6952      1.222     4.89     872.9268     56.13804     100.5339         8     1.006     0.673  89.65  24
        25    194.9600      1.4032 307.8604364  +6.6819737     744.1436     1049.232     1119.338     69.86423     127.5013     240.6797      1.422     5.57     872.8588     56.13804     144.6176        10     1.446     0.604  -7.08  24
        26    655.8249      1.3142 307.6689586  +6.6974934     1133.995     1412.483     2241.351     69.13873     125.9095     239.1665      0.977     1.81     857.1872     56.13804     332.7177         6     0.706     0.464   2.04  24
        27    816.9434    986.5243 307.5689435  +6.2961642     2457.604     3451.471     3284.796     79.83453     159.2263      318.421      1.499     3.76     887.5742     56.13804     359.3593        19     1.270     0.896 -84.09   0
        28    733.2052    984.4734 307.6037782  +6.2942098     433.2106     567.7407     850.4874     79.45467     158.8459     318.3893      2.227     4.83     888.3961     56.13804     75.02832         6     1.137     0.582 -27.51   0
        29    551.8568    983.4298 307.6791033  +6.2885664     1068.208     1482.512     1801.718     79.70811      159.353     318.3893      1.488     4.75     891.9208     56.13804     164.8376        10     1.068     0.732  83.65   0
        30    234.5679    983.1138 307.8108378  +6.2780435      1379.83     2041.641     2030.069     79.83453     159.0996     318.4526      1.478     4.56      892.516     56.13804     205.8914        13     1.354     0.677 -75.65   0
        31    198.9889    982.7598 307.8256201  +6.2769930     979.9803     1692.596     1883.053     79.20041     159.0996     318.2309      1.932     5.23     892.2771     56.13804     125.3339        13     1.252     0.792  85.73   0
        32     59.4667    981.2364 307.8835923  +6.2729252     2883.441     4169.643     4682.161     79.70811     159.2263     318.5476      1.621     3.30     891.6965     56.13804     374.9288        23     1.341     0.986 -80.02   0
        33    953.4146    979.4020 307.5125222  +6.3036647     6502.077     10564.77     11311.73     79.45467     158.9728     318.2943      1.782     3.77     883.8503     56.13804     830.7462        39     1.625     1.142  87.91   0
        34    209.4724    975.1490 307.8215247  +6.2804875     562.9817     773.6419     1311.515     79.83453     159.2896      318.516      1.621     4.10     892.3143     56.13804     98.71393         7     1.015     0.472 -79.63   0
        35    635.4280    973.2133 307.6447507  +6.2955846     614.0193     827.9557     775.3199     79.45467     159.0996     318.3893      1.380     2.27     889.9337     56.13804     112.1465         5     0.687     0.467  70.94   0
        36    927.0626    970.8622 307.5237492  +6.3063102     2018.147     3304.476     3543.224     79.83453     159.2896      318.516      1.722     4.07     884.5864     56.13804      254.567        20     1.313     0.968 -83.67   0
        37    260.0313    967.2287 307.8008025  +6.2854573     4501.937     6782.085     7398.546     79.32764     159.0362     318.2626      1.567     3.75     892.4871     56.13804     710.6702        25     1.408     0.883 -85.22   0
        38    786.6802    967.5725 307.5821439  +6.3029761      1386.78     1808.412     2009.176     79.70811     159.0996      318.516      1.416     4.10      887.402     56.13804      196.548        10     1.106     0.637  81.45   0
        39    647.8599    966.9598 307.6397995  +6.2985826     4699.503     7043.462     6941.826     79.83453     159.2896     318.5476      1.569     3.42     889.4799     56.13804     670.5856        27     1.358     0.963 -82.86   0
        40    997.3925    966.6207 307.4946912  +6.3104095       622.86     1139.394     1327.534     79.45467     159.0362     318.2943      1.610     3.72     881.5051     56.13804     106.7905         7     0.971     0.472  81.49   0
        41    469.9962    965.1209 307.7137049  +6.2933793     1048.351     1494.668     1067.992     79.45467     158.7823     318.2626      1.384     3.64     891.9813     56.13804      171.694         9     1.079     0.551  80.06   0
        42     28.5698    964.4421 307.8969862  +6.2788172     2361.709     3339.249     3379.554     79.45467     159.2263      318.326      1.550     3.37     891.3072     56.13804     335.9557        20     1.227     0.944 -84.94   0
        43    879.6419    963.9600 307.5436689  +6.3075754     754.3682     1204.901     1637.139     79.58149     159.2896     318.3576      1.895     5.74     885.3283     56.13804     127.9435        10     1.311     0.709 -64.96   0
        44    971.6294    961.3510 307.5055642  +6.3117250     700.0538     1161.863     1048.367     79.45467      159.353     318.3893      1.738     5.26     882.3353     56.13804     89.85938         7     1.044     0.748 -47.71   0
        45    951.3069    960.0807 307.5140445  +6.3115709     656.3979     954.3539     677.3966     79.58149     159.5427     318.5476      1.585     5.52     883.1219     56.13804     105.3011         9     1.125     0.763  82.73   0
        46    295.9521    960.4620 307.7861180  +6.2894582     1166.086     1703.923      2024.41     79.70811     159.2263     318.5476      1.628     4.45     892.5845     56.13804     157.1924        12     1.065     0.807 -66.91   0
        47   1003.7149    959.4012 307.4923079  +6.3136010     886.6672     1592.887      1414.68     79.07298     158.8459     318.1675      2.082     4.64     881.0234     56.13804     110.8683        11     1.028     0.931   4.68   0
        48    572.4175    959.4302 307.6713742  +6.2991633     1872.189     2797.834       2718.8     79.45467     159.0996      318.421      1.580     3.10     890.7764     56.13804     290.0969        17     1.045     0.962 -74.83   0
        49    611.7750    955.8304 307.6551550  +6.3019683     1260.494     1745.248     1553.867     79.32764      159.163      318.326      1.527     3.30     890.0546     56.13804     201.6729        12     1.087     0.714 -86.32   0
        50     61.4543    955.7675 307.8836278  +6.2835060      781.146     1063.771     1423.801     79.70811     159.2263     318.4526      1.423     3.50     891.4364     56.13804     113.6237         5     0.778     0.454 -71.15   0
        51    291.5199    953.3751 307.7881970  +6.2922349     1547.156     2020.844     2251.567     79.58149     159.0996     318.4526      1.405     3.56     892.5831     56.13804     214.9077        14     1.189     0.784 -86.53   0
        52    559.8079    951.7525 307.6768675  +6.3019102     815.2836     1138.696     923.7495     79.32764      159.163     318.1358      1.582     5.14     890.7239     56.13804     109.0375         9     1.007     0.741 -86.93   0
        53    758.6322    949.7315 307.5943876  +6.3094031     734.7572     1383.785     1301.188     79.70811     159.2896     318.4843      2.086     5.12     887.0325     56.13804     113.4521         9     1.279     0.580  77.89   0
        54    896.0790    946.3310 307.5374353  +6.3154025      6903.58     10770.82     11064.68     79.96075     159.5427     318.4526      1.686     3.76     884.3477     56.13804     982.1232        36     1.501     1.115  88.77   0
        55    333.5367    941.7866 307.7711440  +6.2984307     9877.892     14394.98     15650.47     79.32764     159.0996      318.326      1.554     3.32     892.5914     56.13804      1377.63        34     1.466     0.970 -86.36   0
        56    431.8076    943.2770 307.7302949  +6.3011155     2104.977     3067.238     3696.452     79.45467     158.7823     318.2943      1.608     3.54     892.0823     56.13804     350.5477        19     1.371     0.814 -84.64   0
        57    105.0218    945.1113 307.8659011  +6.2893723     451.4814     797.0146     1040.841     79.83453     159.0996     318.3893      1.532     3.95      891.747     56.13804     83.54297         5     0.843     0.529 -61.73   0
        58    253.6005    940.6438 307.8043689  +6.2962158     7517.529     10951.64     12128.93     79.07298     158.9728     318.1041      1.543     3.34     892.3481     56.13804     1061.106        32     1.444     0.963 -84.06   0
        59    581.7099    934.9183 307.6683404  +6.3095939     1185.513      1583.77     1927.212     79.58149     159.5427     318.5476      1.411     3.88     889.8672     56.13804       177.95        13     1.101     0.786  85.28   0
        60    766.1470    935.0095 307.5917616  +6.3157323     741.4136     885.3356     692.2988     79.20041      159.163     318.1992      1.304     3.95     886.4087     56.13804     138.8973         6     0.762     0.588  58.61   0
        61    911.7289    931.3633 307.5314391  +6.3221045     1088.235     1877.774     2783.521     79.70811     159.2896     318.5476      2.339     4.52     883.1887     56.13804     160.8881        14     1.303     0.808 -89.15   0
        62    215.5788    930.6068 307.8204926  +6.2990807     602.9746     740.7424     1198.947     79.45467     159.0996     318.2943      1.292     4.07     892.0544     56.13804     127.0123         6     0.940     0.646 -67.43   0
        63    868.2661    929.9432 307.5495324  +6.3212385      784.322     1222.776     1138.026     79.96075     159.2263     318.4843      1.761     4.17     884.9629     56.13804     128.8134         9     1.028     0.705 -15.06   0
        64    410.5124    929.5394 307.7395987  +6.3060719     662.2462     823.4589     749.9191     79.96075     159.4795     318.5476      1.339     3.82     892.4244     56.13804     95.33838         6     0.997     0.420  72.58   0
        65    979.4190    926.4822 307.5034978  +6.3263802     796.5237     1190.784     1662.683     79.45467     158.9728      318.421      1.706     3.40     880.8461     56.13804     147.3002         9     1.041     0.744  83.85   0
        66    841.0259    924.0000 307.5610417  +6.3227815     537.8062     808.7918     754.2437     79.32764     158.9093     318.2626      1.628     3.43     885.1417     56.13804     79.22772         4     0.703     0.483  -1.32   2
        67    747.9854    924.4163 307.5996577  +6.3194978     1797.544     2505.427     3211.478     79.58149     158.9728      318.421      1.506     3.56     886.4034     56.13804      306.215        16     1.335     0.740 -84.22   0
        68    572.1932    924.6452 307.6726369  +6.3135160     715.0153     847.2225      829.585     79.32764     159.0996     318.1358      1.055     3.35     889.7328     56.13804     133.9161         5     0.922     0.386  84.37   0
        69    612.2255    920.6365 307.6561509  +6.3165125     762.1509     1183.904     822.6209     79.45467     159.0996     318.2626      1.559     5.35     889.1202     56.13804     130.4468        10     1.559     0.519 -80.13   0
        70    979.2672    919.9300 307.5037803  +6.3290801     1284.421     1954.247     2190.969     79.83453      159.353     318.4843      1.656     4.82     880.5264     56.13804     176.4229        14     1.283     0.773  84.44   0
        71    623.7191    920.1487 307.6513952  +6.3170989     586.5818     976.0656     397.2792     79.83453     159.2896     318.4843      1.646     3.87     888.8865     56.13804     112.6323         6     1.049     0.409  78.87   0
        72    533.1871    920.1005 307.6889845  +6.3140845     1146.775      1653.76     1827.196     79.58149     159.0362     318.2309      1.513     3.69     890.0545     56.13804     197.8013         9     1.115     0.533 -83.71   0
        73    666.6053    917.6788 307.6336723  +6.3195551     2649.024     3733.207     3780.519     79.45467     158.7823     318.2626      1.489     3.45     888.0676     56.13804     403.2111        20     1.357     0.792 -78.58   0
        74   1017.4099    917.1044 307.4880378  +6.3315198     481.8353     914.2954     898.4188     79.58149     158.9093     314.6295      1.792     3.86     879.0366     56.13804     90.73676         5     0.877     0.488  85.18  16
        75    956.8154    915.8303 307.5132396  +6.3300230     507.9125     562.7312     445.6533     79.45467     159.0362      318.421      1.419     5.04     881.0964     56.13804     81.72229         6     1.090     0.659 -88.79   0
        76     80.7290    913.1541 307.8770659  +6.3017466     1949.997      2980.19     3463.282     79.83453     159.2896     318.4843      1.630     4.01     891.2677     56.13804     293.5447        16     1.309     0.758 -87.54   0
        77     63.3042    913.4607 307.8842895  +6.3010331      3069.95     4747.552     5212.758     79.58149     159.2896     318.5793      1.724     4.18     891.0682     56.13804     443.9214        25     1.518     0.946 -80.18   0
        78    944.6262    913.1342 307.5183909  +6.3307290     828.4468     1195.497     1282.424     79.45467     159.2263     318.3893      1.434     5.20     881.4254     56.13804      110.156        10     1.211     0.631  84.30   0
        79    827.3674    913.8093 307.5670545  +6.3265320      865.956     912.2513     1089.921     79.32764     159.0996      318.326      1.208     2.24     885.0666     56.13804     180.7419         6     0.671     0.634  40.85   0
        80    206.7187    912.6699 307.8247763  +6.3061873     2396.062     3396.344     2674.469     80.08678     159.5427      318.516      1.530     3.38     892.0062     56.13804     371.8345        18     1.256     0.906 -85.48   0
        81    240.3058    909.7620 307.8109301  +6.3085173     886.1577      1678.53     1837.352     79.96075      159.163     318.6109      2.137     5.60      892.142     56.13804     168.0985        11     1.364     0.812 -65.46   0
        82    661.2985    906.8232 307.6362404  +6.3238589     7256.072     10427.58     11435.87     79.96075     159.0362     318.2943      1.554     3.42     887.8316     56.13804     1021.983        31     1.398     0.978 -89.71   0
        83    345.6857    908.6675 307.7672162  +6.3125111     886.0267     1208.515     1237.333     79.96075     159.5427      318.516      1.535     5.53     892.3416     56.13804     148.5082        11     1.396     0.766  80.96   3
        84    344.2483    899.9557 307.7681066  +6.3160593     17454.06     25231.62     26674.54     79.83453     159.2263     318.4526      1.529     3.33     892.2321     56.13804     2569.369        46     1.496     1.079 -88.41   2
        85    798.5919    907.6643 307.5792082  +6.3281066      859.898     1375.103     1376.594     79.32764     159.0362      318.326      1.593     4.13     885.4022     56.13804     131.6049         7     1.065     0.457 -79.17   0
        86     21.5769    904.6718 307.9019099  +6.3032553     1315.403     2033.713     2112.906     79.45467     159.0996     318.4843      1.581     4.82     890.6342     56.13804     184.2162        14     1.387     0.753 -77.94   0
        87    899.0643    903.1575 307.5376429  +6.3333258     2809.164     4398.515     4256.172     79.83453     159.2263      318.516      1.622     3.41     882.8741     56.13804     416.3308        24     1.347     1.002  89.97   0
        88    450.6868    904.3300 307.7237680  +6.3178274     642.5122     718.1104     760.9904     79.96075     159.5427      318.516      1.376     3.77     890.7739     56.13804     96.88232         5     1.029     0.396 -75.26   0
        89     34.4909    903.4707 307.8965892  +6.3041863     1142.997     1787.169     1877.168     79.70811     159.4795     318.4843      1.580     3.32     890.7446     56.13804       163.07         8     1.004     0.499 -88.48   0
        90    930.3683    902.5483 307.5246656  +6.3346230     472.1114     693.3773     156.2865     79.70811      159.353      318.421      1.235     3.44     881.7499     56.13804     83.68652         5     1.088     0.315  69.45   0
        91     78.9270    901.0792 307.8782220  +6.3066705     1430.331     2175.078     2107.038     80.08678     159.5427     318.4843      1.483     4.17     891.1181     56.13804     210.4312        14     1.317     0.670 -77.34   0
        92    215.3203    899.1129 307.8216626  +6.3120732     1335.661     2067.788     1936.919     79.58149     159.5427     318.6109      1.449     3.40      892.019     56.13804     245.3551        14     1.229     0.715 -88.69   0
        93    395.2418    898.4556 307.7469856  +6.3183912     778.8661     1296.252      1154.43     79.70811     159.2263     318.4843      1.682     4.05     891.6211     56.13804     143.5457        10     1.244     0.764 -72.79   0
        94    675.6158    886.9313 307.6309641  +6.3325504     845.1936      1458.49     2297.866     79.32764     159.2263     318.3893      3.272     4.79     886.8871     56.13804     133.1193         9     1.334     0.487 -85.59   2
        95    422.1595    890.9745 307.7360618  +6.3223833     1116.182     1480.015      768.714     79.45467     159.0996     318.2626      1.422     3.56     890.9966     56.13804     204.5601        10     1.221     0.507 -81.00   0
        96    107.6194    890.4707 307.8666684  +6.3120161     1889.461     2537.835     2949.706     79.45467      159.163      318.421      1.486     3.39      891.222     56.13804     241.1102        16     1.161     0.817 -82.50   0
        97    502.6935    887.4757 307.7027427  +6.3265302     770.8549     1125.816     1258.885     79.70811     159.4795     318.4843      1.370     2.60     889.8539     56.13804     164.8857         6     0.843     0.460 -87.46   0
        98    889.3880    884.9432 307.5422711  +6.3405220     1899.267     2611.645     2898.319     79.20041     159.2263     318.1675      1.377     3.76     882.6586     56.13804     308.6696        16     1.294     0.800  89.05   0
        99    860.0854    884.4064 307.5544558  +6.3397643     2085.071     2843.195     2611.443     79.32764     158.9728     318.2626      1.382     3.41     883.5211     56.13804     308.7162        16     1.238     0.746 -80.39   0
       100    823.5046    883.6613 307.5696696  +6.3388489     3205.429     4580.289     5093.785     79.58149      159.353     318.5476      1.545     3.31      884.467     56.13804     460.8615        25     1.433     0.939  79.09   0
       101     91.0259    884.0263 307.8737752  +6.3141177     2498.289     3486.479      3427.51     79.32764     159.0996     318.3576      1.443     3.17     890.9902     56.13804     430.2355        18     1.357     0.749  88.96   0
       102    454.3036    882.1888 307.7230117  +6.3270892     572.2155     1087.872     1471.447     79.58149     158.9728     318.2943      2.083     4.02     890.2889     56.13804     84.87939         6     1.139     0.406 -78.33   0
       103    559.3766    875.1714 307.6796220  +6.3335105     356948.9     514202.7     541647.9     79.32764      159.163      318.326      1.520     3.18     889.1802     56.13804     50925.11       190     1.707     1.282 -86.72   4
       104    339.0557    881.9911 307.7708679  +6.3233010     755.3214      1193.58     1420.743     79.20041     159.2263     318.1992      1.588     3.47     892.0248     56.13804     137.5023         7     0.874     0.652 -68.65   0
       105    403.6841    877.7420 307.7441782  +6.3272258     8102.498     11484.54     11718.69     79.83453     159.2896     318.5476      1.500     3.23     890.8912     56.13804      1192.51        32     1.446     0.936 -83.28   0
       106    647.1830    878.2325 307.6430617  +6.3351892     1299.271     1657.081     1809.695     79.45467     159.0996     318.3576      1.435     3.93     887.2695     56.13804     220.6531        14     1.243     0.770 -71.62   0
       107    346.8284    876.1295 307.7678384  +6.3259819     13282.26     19068.88     20577.39     79.58149     159.2896     318.4526      1.514     3.32     891.9214     56.13804      2089.46        44     1.488     1.045 -87.12   0
       108    897.8195    871.3253 307.5392267  +6.3464256      5238.82     7738.881     8367.612     79.45467      159.163      318.421      1.587     3.52     881.9507     56.13804     752.4308        28     1.397     0.955 -88.91   0
       109    665.2037    872.5959 307.6357689  +6.3381198     3972.116     5760.064     5767.459     79.20041     158.8459     318.2943      1.482     3.43     886.6693     56.13804     587.3542        25     1.316     0.946 -80.20   0
       110    736.8941    869.5569 307.6061045  +6.3417744     733.1394     1218.692      1516.22     79.83453     159.2263     318.6109      1.879     4.86     885.7156     56.13804     125.7247         8     1.222     0.546  83.36   0
       111    640.0438    866.4621 307.6464215  +6.3398093      3788.77     5474.405     6016.715     79.83453     159.2263     318.5793      1.583     3.37     887.1081     56.13804     607.0887        24     1.341     0.930 -86.95   0
       112    828.4268    865.6890 307.5682287  +6.3464331     1793.512     2485.144     2635.846     79.96075     159.0362     318.3576      1.450     3.16     883.9479     56.13804     244.3804        14     1.056     0.815 -74.26   0
       113    630.4996    865.0435 307.6504320  +6.3400752      1160.08     1830.023      2438.25     79.83453      159.163     318.7059      1.783     4.97     887.3467     56.13804     157.7191        12     1.575     0.500 -89.22   3
       114    633.0459    860.9505 307.6495123  +6.3418502     2286.829     3541.043     4364.321     79.83453      159.163      318.516      1.600     2.92     887.1849     56.13804     381.1676        19     1.395     0.745 -84.96   2
       115    955.4500    864.1100 307.5155392  +6.3513295     811.4069     1210.148     984.2665     79.83453     159.0996     318.6426      1.531     5.26     879.1744     56.13804     115.8082         9     1.178     0.664 -65.26   0
       116    916.6171    859.2719 307.5318255  +6.3520298     3247.206     4856.065     5184.627     79.32764     159.2263     318.3893      1.636     3.34     881.1255     56.13804     475.8588        23     1.399     0.905  89.51   0
       117    326.9415    859.9201 307.7766416  +6.3320054     1071.555     1505.113     871.0416     79.96075     159.2896     318.4526      1.528     3.23     891.7629     56.13804     196.0094        10     1.148     0.626 -87.63   0
       118    374.7350    854.9565 307.7569653  +6.3356600      2845.36     4216.083     4692.091     79.83453     159.2263     318.4843      1.534     3.37     890.9347     56.13804     449.8883        21     1.386     0.819 -83.88   0
       119    343.4076    847.3455 307.7702288  +6.3377497     459.2455     644.1906     89.15603     79.32764     159.0996     318.1992      1.023     3.54     891.3188     56.13804      99.2312         5     1.071     0.338 -69.44   0
       120    510.7206    844.7415 307.7008479  +6.3444412     3496.429     4831.063     4886.933     79.96075     159.2896     318.4526      1.469     3.25     889.1666     56.13804     605.0389        21     1.237     0.967  79.66   0
       121    855.6688    843.7016 307.5576547  +6.3564210         1182     1602.257       1799.6     79.83453     159.4162     318.4843      1.541     3.24     882.5094     56.13804     171.4895        11     1.002     0.742 -70.16   0
       122    576.4253    842.4447 307.6736439  +6.3475925     956.9176     1132.728     1176.486     79.32764      159.353     318.3576      1.364     4.34     888.0874     56.13804     146.2352         8     1.089     0.492 -87.02   0
       123    557.8206    841.0504 307.6814157  +6.3475445     6434.793      9430.93      10070.3     79.32764      159.353     318.3576      1.525     3.32      888.497     56.13804     1012.784        30     1.377     0.964 -86.50   0
       124    564.6485    840.3622 307.6786038  +6.3480575     1297.361      1760.04      1340.34     79.83453     159.2896     318.3576      1.254     2.92     888.3043     56.13804     219.1955         9     0.965     0.585 -87.60   0
       125    475.5447    839.8465 307.7156178  +6.3452820     1540.616     2251.694     2118.002     79.83453     159.2896     318.5476      1.563     3.63     889.3187     56.13804     259.2629        12     1.189     0.622 -81.10   0
       126    269.0622    840.7723 307.8013182  +6.3379645     743.5639     1030.436     1077.534     79.45467     159.2896     318.4526      1.512     4.96     891.6915     56.13804     115.6663         8     1.002     0.695 -64.29   0
       127    117.1987    838.7516 307.8644384  +6.3336890     1478.907     2172.317     2261.468     79.20041     158.9093     318.0407      1.555     4.41     890.8469     56.13804      214.406        13     1.378     0.680  89.18   0
       128    893.5936    838.8459 307.5420701  +6.3596931     1414.128     1995.475     1314.318     79.32764     159.0362     318.1358      1.395     3.39     881.3485     56.13804     214.6478        11     0.987     0.784  69.48   0
       129    693.6829    837.6733 307.6251171  +6.3534905     771.0531     1178.847      910.362     80.08678     159.6059      318.516      1.577     3.45     885.5883     56.13804     146.8109         8     0.915     0.649  89.43   0
       130    528.4888    834.8682 307.6938025  +6.3491131     21312.79     30342.96     31871.93     79.96075     159.4795     318.4526      1.504     3.30     888.8129     56.13804     2898.688        45     1.467     1.022 -86.05   0
       131    369.5663    836.5699 307.7597309  +6.3430768     701.0488     596.5225     720.6726     79.32764     159.0362     318.1992      1.073     2.74     890.5499     56.13804     135.8195         6     0.870     0.416 -69.31   0
       132    942.1584    833.0665 307.5220982  +6.3637015     3992.699      5913.37     6063.705     79.83453     159.2263     318.5476      1.515     3.44     879.4906     56.13804     571.9982        25     1.389     0.920 -86.45   0
       133     62.3463    830.8585 307.8874789  +6.3351000     488.5963     688.9214     702.3982     79.96075     159.2896     318.4843      1.156     2.92     890.5492     56.13804     111.7161         5     0.766     0.412 -68.39   0
       134     38.9002    825.2955 307.8974013  +6.3366064     1641.341     2379.007     2004.636     79.83453     159.7953      318.326      1.553     3.05     890.4709     56.13804     271.5493        11     1.011     0.687 -76.36   0
       135    321.1553    823.6001 307.7802684  +6.3468046     3589.905      5090.82     5202.042     79.07298     158.9093     318.0724      1.507     3.34     891.0394     56.13804     547.7223        21     1.286     0.854 -81.08   0
       136    786.6673    819.4325 307.5871201  +6.3641328     59279.59     84634.09     88547.59     79.70811     159.2896     318.4526      1.559     3.44     883.5247     56.13804     8849.653        76     1.551     1.152 -87.39   0
       137     20.9955    821.6436 307.9049585  +6.3375106     2282.846     3329.509     3190.091     79.20041     158.9728     318.1992      1.526     2.78     890.4129     56.13804     408.5345        16     1.231     0.707 -88.27   0
       138    725.2784    820.9731 307.6125588  +6.3614426     618.1171      1022.22     782.2791     79.70811     159.2263     318.4526      1.646     5.02     884.6799     56.13804      103.516         9     1.249     0.572  63.63   0
       139    430.0904    818.0030 307.7352263  +6.3527740     970.9506     1445.036     1382.996     79.20041     158.9728     318.2309      1.534     5.37     888.9943     56.13804     159.3297        11     1.158     0.704 -79.49   0
       140    243.9233    817.0336 307.8125567  +6.3469190     5566.203     8563.151     10969.85     79.70811     159.2896     318.4526      1.817     3.24     891.1885     56.13804     850.6516        36     1.529     1.158  76.69   0
       141    911.9681    814.6793 307.5352505  +6.3702839     9063.916     13280.13     14029.65     79.70811     159.2896     318.4526      1.557     3.51     880.3688     56.13804     1309.608        36     1.424     1.041  89.02   0
       142    714.8503    814.0870 307.6171201  +6.3639364     22660.28     33436.99     36507.24     79.83453      159.163     318.5793      1.557     3.26     884.7359     56.13804     3537.372        56     1.645     1.115  88.15   3
       143    708.6047    810.5220 307.6198331  +6.3651990     95327.91     134810.3     141790.3     79.45467     158.7823     318.2626      1.549     3.32     884.8113     56.13804        13865        82     1.578     1.115 -85.63   3
       144    353.4716    811.3464 307.7672635  +6.3529490     22278.25     31745.24     33500.93     79.70811     159.2263      318.421      1.539     3.26     890.1686     56.13804     3033.229        45     1.446     1.043 -84.42   0
       145    415.3362    809.1785 307.7416497  +6.3559216     23683.54     34155.16     36150.09     79.45467     159.2896     318.3576      1.527     3.17     888.8545     56.13804     3381.881        51     1.498     1.072 -86.22   0
       146    402.7192    811.4121 307.7468132  +6.3545759     1633.538     2273.325     2405.953     79.45467     158.9728      318.326      1.458     3.52     889.1483     56.13804     277.4105        15     1.328     0.663 -87.23   0
       147    243.4355    795.7191 307.8134784  +6.3557016     780353.5      1719385      1917681     79.70811      159.353     318.4843      2.250    13.62     890.7248     56.13804     63805.45       587     2.509     2.057 -88.32   4
       148    881.6646    807.4519 307.5480759  +6.3722550     792.4129     1142.821     1547.856     79.83453     159.2263     318.4526      1.682     3.40     881.0175     56.13804     118.6989         9     0.984     0.636 -84.61   0
       149    649.3912    805.1092 307.6446021  +6.3654507     6850.024     9476.975     9939.419     79.45467     158.9728     318.2309      1.449     3.34     885.8586     56.13804     995.1176        27     1.378     0.885 -81.87   0
       150    139.5422    805.0116 307.8563013  +6.3483697     481.4438     669.7383     902.7983     79.20041     159.2263     318.1992      1.381     5.57     890.7158     56.13804     87.38141         7     1.261     0.693 -84.54   0
       151    438.2198    803.1559 307.7323509  +6.3591761     1774.244     2705.768     2948.825     79.32764      159.163      318.326      1.623     3.97     888.6242     56.13804     260.3307        16     1.288     0.829 -85.33   0
       152    163.5014    802.3496 307.8464434  +6.3502751      801.933     1078.706     906.7949     79.83453     159.2896     318.6743      1.471     4.14     890.7734     56.13804     121.0161         7     1.013     0.482  81.49   0
       153    877.3722    797.2039 307.5502019  +6.3763423      867.403     1162.488     1309.839     79.32764     159.0996      318.326      1.277     3.76     880.9096     56.13804     140.2559         8     0.919     0.633  76.58   0
       154    684.5946    795.1484 307.6303193  +6.3707419     2480.078     3581.871     3342.376     79.20041     159.0996     318.1358      1.485     3.64      884.926     56.13804     360.3488        20     1.450     0.792  88.86   0
       155    602.4836    796.7360 307.6643609  +6.3673358     986.5672     1357.822     1705.704     79.96075     159.4162      318.516      1.525     3.23     886.2534     56.13804       159.95         8     1.010     0.499 -88.85   0
       156    418.3050    791.8835 307.7409996  +6.3631611     57152.31     82792.02     87245.89     79.70811     159.6691     318.6109      1.521     3.27     888.3234     56.13804     8035.521        75     1.549     1.154 -84.77   0
       157    153.6609    796.0294 307.8507426  +6.3525529      1008.34     1348.536     1424.432     79.58149     159.2896     318.4526      1.398     3.45     890.6763     56.13804     154.6405         9     1.037     0.571 -77.83   0
       158    128.7327    795.1672 307.8611219  +6.3520696     1074.065     1639.462     1820.505     79.70811      159.353     318.4526      1.575     4.46     890.5481     56.13804     194.5555        11     1.127     0.745  66.36   0
       159     70.3987    794.2081 307.8853744  +6.3505009     372.4623     545.1614     1002.771     79.20041     158.9728     318.2626      0.987     3.49     890.3055     56.13804      67.8092         5     0.776     0.453  72.92   0
       160    536.0635    790.9436 307.6921352  +6.3675004     7727.239     10991.79     11244.97     79.96075     159.2263     318.4843      1.478     3.20     887.5275     56.13804     1235.926        30     1.383     0.918 -85.28   0
       161    452.8083    789.5086 307.7267531  +6.3652997     5018.483     7270.468     8188.709     79.45467     158.9728     318.2626      1.584     3.46     888.1696     56.13804     745.5026        27     1.386     0.928 -89.99   0
       162    781.2936    787.5825 307.5904204  +6.3771018      12183.2     17611.33     18483.42     79.70811     159.0996     318.3576      1.540     3.27     882.6511     56.13804     1857.111        39     1.463     1.005 -86.41   0
       163    642.3387    810.4106 307.6473523  +6.3630259     894.3594     1292.682     1667.263     79.20041      159.163     318.2309      1.361     3.04      886.028     56.13804     161.5421         8     0.931     0.558 -69.95   0
       164    676.4075    786.3745 307.6340136  +6.3740898     491.2706     883.8147     1020.184     79.32764      159.163      318.326      1.537     4.10     884.6497     56.13804     80.61133         5     0.985     0.487  85.62   0
       165    449.4293    783.0422 307.7283738  +6.3678558     2544.945     3649.578     3640.793     79.45467      159.163     318.3576      1.475     3.23     887.9401     56.13804     384.0366        18     1.248     0.785 -78.25   0
       166     10.6735    783.4977 307.9105340  +6.3529096     1189.049     1602.684     1430.876     79.45467     159.4162     318.4843      1.546     4.33     890.0081     56.13804     173.8994        12     1.124     0.796  65.94   0
       167    802.9366    781.8433 307.5816259  +6.3801950     1235.859     1603.338     1255.898     79.83453     159.2263      318.516      1.435     3.29      882.076     56.13804     232.2521        11     1.138     0.622 -82.76   0
       168    147.1365    779.7344 307.8540018  +6.3590601     3136.265      4565.51     4710.243     79.83453     159.2896     318.4843      1.507     3.64     890.4622     56.13804     461.6296        21     1.374     0.797 -84.43   0
       169    139.0444    779.4385 307.8573717  +6.3589098     12424.58     17902.23     19536.79     79.58149     159.2263     318.3893      1.556     3.35     890.4008     56.13804     1844.629        39     1.458     1.015 -84.19   0
       170    952.6159    808.3412 307.5185843  +6.3742582     2239.164     3277.098     2951.883     79.20041     159.2263     318.2309      1.541     3.60      878.446     56.13804     308.2047        21     1.390     0.872  89.93   0
       171    926.8049    776.1255 307.5303818  +6.3866959     6578.449     9836.679     10348.27     79.45467     158.7823     318.3893      1.584     3.41     878.6396     56.13804      945.214        31     1.438     0.976 -85.31   0
       172    131.3842    776.9737 307.8606355  +6.3596694     2911.925     4537.817     5729.955     79.45467     159.0996      318.421      1.803     3.52     890.3249     56.13804      460.036        22     1.328     1.168  64.99   3
       173    131.2731    770.2925 307.8609073  +6.3624238     2160.778     2985.641     3340.895     79.70811     159.4162      318.516      1.501     3.49     890.2344     56.13804     352.3898        19     1.304     0.811 -86.57   3
       174    976.0213    775.8855 307.5099527  +6.3884387     1484.408     2540.051     3043.926     79.58149     159.0362     318.3893      1.735     4.03     876.6953     56.13804     205.4661        16     1.346     0.760 -85.08   0
       175    908.9059    806.1898 307.5368066  +6.3736863     6840.814      10306.4      11271.1     79.45467     158.9093     318.2943      1.587     3.49      880.267     56.13804     1100.455        38     1.588     1.000 -85.45   0
       176    682.3714    773.7488 307.6319614  +6.3795018     1916.731     2494.081     3062.094     79.45467     159.4162     318.3893      1.404     3.67     883.8909     56.13804     283.3034        15     1.192     0.744 -77.87   0
       177    569.1044    773.0223 307.6790184  +6.3760067     2430.048     3652.329     3677.137     79.83453     159.0996      318.326      1.552     3.22     886.0958     56.13804     412.2421        16     1.197     0.756 -88.28   0
       178    416.9421    771.9128 307.7422382  +6.3713597     1309.606     2096.971     2324.069     79.83453     159.2896     318.6109      1.710     5.94     887.6731     56.13804     209.1163        16     1.657     0.749  82.91   0
       179    700.3897    770.5627 307.6245864  +6.3814204     539.9343     804.5638     659.1039     79.32764     159.0996     318.1675      1.737     4.88     883.4436     56.13804     88.95972         6     1.516     0.445 -82.11   0
       180    950.4672    767.6784 307.5208390  +6.3909736     3332.286     5064.288     5051.527     79.96075      159.353     318.4526      1.637     3.24     877.4897     56.13804     457.0081        26     1.387     0.978 -88.56   0
       181    921.0482    768.1942 307.5330381  +6.3897780     3079.158     4535.345     4953.831     79.32764     159.0996     318.1675      1.544     3.32     878.5154     56.13804     474.9391        23     1.334     0.938 -82.52   0
       182    981.2316    767.5283 307.5080690  +6.3920629     2006.301     3028.478     3331.644     79.70811     159.2896     318.4526      1.659     4.16     876.3862     56.13804     257.4299        18     1.392     0.796  86.39   0
       183    673.3260    767.2483 307.6359358  +6.3818825      1526.34     2052.766     2714.139     79.83453      159.353      318.516      1.589     4.04     883.6546     56.13804     228.5618        12     1.254     0.637 -83.79   0
       184    820.7158    765.5426 307.5747901  +6.3875191     1225.758     2011.226     1999.164     79.83453     159.2896     318.5793      1.772     4.99     881.2554     56.13804     170.1658        13     1.054     0.978  86.69   0
       185    895.9420    763.2265 307.5436300  +6.3909900     708.2247     1096.715     1052.331     79.45467      159.353     318.2943      1.386     4.38      879.213     56.13804     132.4072         7     1.050     0.519 -60.64   0
       186    245.8717    762.0547 307.8136027  +6.3696808     2101.565     3345.613     3685.997     79.70811      159.163     318.4526      1.710     3.65     889.5956     56.13804     304.2529        18     1.363     0.805 -78.33   0
       187    685.0355    754.2996 307.6315086  +6.3876203     1123.404     1872.755       3108.7     79.83453      159.163     318.6426      2.420     3.48     882.8052     56.13804     178.1685        10     1.074     0.652 -75.69   2
       188    938.7767    757.7243 307.5260271  +6.3946925     958.2739     1424.641     1356.274     79.45467      159.163      318.421      1.429     3.61     877.5153     56.13804     171.7879        11     1.090     0.779 -72.11   0
       189    266.1920    758.0560 307.8053002  +6.3720149     911.2432     1349.984     1551.937     79.20041     159.0996     318.1992      1.498     3.90      889.509     56.13804     144.6256         9     0.961     0.681  73.15   0
       190    161.4178    757.2286 307.8488322  +6.3688316     814.4402     1012.628     500.1642     79.45467     159.0996      318.421      1.444     4.12      890.318     56.13804     125.0621         7     1.011     0.480 -82.59   0
       191    965.4307    755.4857 307.5150339  +6.3965069     2630.443     3735.316      4096.32     79.83453     159.0996     318.3576      1.556     3.16     876.6646     56.13804     373.1294        20     1.320     0.858 -89.61   0
       192    912.6005    756.2126 307.5369476  +6.3944422     1249.378     1747.911     2019.757     79.45467     158.9728     318.2943      1.634     3.73     878.3339     56.13804     163.6226        14     1.097     0.859 -89.19   0
       193    476.3892    750.0084 307.7182915  +6.3823978     642.7064     1023.497      683.294     79.32764     159.0996      318.421      1.547     3.91     886.6889     56.13804     123.4289         6     1.090     0.402 -74.19   0
       194   1007.1172    748.8042 307.4979469  +6.4006570     1844.462     2645.461     2585.763     79.32764     158.9093     318.2309      1.421     3.45      875.471     56.13804     251.6561        16     1.219     0.798 -86.27   0
       195    633.7401    748.5983 307.6530003  +6.3882558     636.0182       913.23     1121.236     79.20041     158.9728     318.1992      1.320     4.36     883.8054     56.13804     122.0806         6     1.350     0.438  88.68   0
       196    406.0452    749.0140 307.7475343  +6.3804470     645.5131     963.9721     834.8629     79.20041     159.0996     318.2626      1.411     4.19     887.1454     56.13804      110.816         7     1.025     0.595  64.06   0
       197    808.4595    747.2754 307.5804925  +6.3946506     1232.089     1667.704     1877.563     80.08678     159.2896     318.4526      1.487     3.95      880.947     56.13804     158.4246        12     1.240     0.705  89.60   0
       198    894.8662    744.5533 307.5447028  +6.3986630     1622.379     2366.306     2846.583     79.83453     159.2263     318.4843      1.569     3.33     878.6359     56.13804     254.8495        15     1.131     0.828 -73.21   0
       199    869.2086    739.6112 307.5555231  +6.3998458     858.0295     1248.225     1518.611     79.45467     159.0996      318.421      1.636     3.62      879.541     56.13804     148.3674         8     1.070     0.513  75.04   0
       200    851.5320    736.0941 307.5629814  +6.4007069     1648.697     2217.551     1578.187     79.70811     159.4795      318.516      1.468     3.90      879.835     56.13804     207.8898        17     1.263     0.820  89.45   0
       201     50.6152    734.6855 307.8956006  +6.3744060     2530.067     3742.179     4132.261     79.45467     159.0362     318.3893      1.585     3.30     889.4381     56.13804     369.0994        20     1.272     0.901 -87.15   0
       202    114.4529    732.0995 307.8691816  +6.3776240     845.8922     1758.445     1805.207     79.70811     159.2896     318.7059      2.530     3.85     889.5239     56.13804      117.568         8     0.888     0.669  55.09   2
       203    663.4062    723.4655 307.6415262  +6.3996251     6600.724     9337.854     9650.553     79.32764     159.0362     318.2943      1.542     3.46     882.0573     56.13804     878.9637        30     1.368     0.966 -87.29   0
       204    610.0987    722.5376 307.6636935  +6.3982222     1466.461     2223.776     2117.682     79.58149     159.4162     318.5476      1.571     3.65     883.5893     56.13804     234.6038        16     1.281     0.799 -74.86   0
       205    520.9432    723.1075 307.7006963  +6.3949978     838.2363     1105.005     1284.655     79.70811     159.2263     318.6109      1.717     3.91     884.9417     56.13804     142.4727        10     1.102     0.738 -77.17   0
       206    313.2220    719.6674 307.7870668  +6.3894435     659.1732     840.2803     765.7744     79.45467     159.2263      318.421      1.708     4.35     887.8741     56.13804     146.5398         6     1.309     0.411  87.18   0
       207    126.3988    719.2272 307.8646563  +6.3833402     3904.719      5917.26     6188.738     79.32764     158.9728     318.2626      1.550     3.25     889.2873     56.13804     575.2975        25     1.417     0.888 -86.81   0
       208   1000.3582    718.6465 307.5017637  +6.4128816     2759.616     3717.345     3780.237     79.70811     159.2896     318.3893      1.485     3.34     875.5724     56.13804     373.9487        19     1.251     0.874  81.85   0
       209    637.3013    719.0316 307.6525154  +6.4005811     2288.354      3360.27     3817.561     79.83453      159.163     318.6109      1.544     3.66     882.6945     56.13804     338.9799        16     1.224     0.800 -77.26   0
       210    780.2825    715.5831 307.5932569  +6.4067917     21602.26     30331.14     31724.89     79.45467     158.9728      318.421      1.511     3.33     880.6966     56.13804     3112.521        45     1.443     1.017  89.74   0
       211    248.5338    718.6953 307.8139604  +6.3876699     803.5596     1087.379     1188.249     79.83453     159.4162      318.516      1.424     3.71     888.2597     56.13804     133.8316         9     1.073     0.844  88.90   0
       212    910.3742    715.3912 307.5392406  +6.4112204     3911.035       5867.4     6470.925     79.45467     159.0996     318.3576      1.631     3.45     877.2656     56.13804     595.0991        23     1.405     0.844 -84.42   0
       213    479.2547    715.8526 307.7182515  +6.3965943     1452.982     2072.135     2530.885     80.08678     159.2263     318.4526      1.461     3.55     885.6125     56.13804     231.8843        13     1.204     0.728 -76.38   0
       214    507.7137    715.4630 307.7064471  +6.3977100     1027.176       1268.1     1111.752     79.96075     159.4795      318.516      1.367     3.39     884.9841     56.13804      192.174         9     1.032     0.583 -89.06   0
       215    325.4321    715.0007 307.7821541  +6.3917804     757.8317     986.3163     1014.812     79.20041     159.0996     318.2309      1.505     3.75      887.582     56.13804     142.7576         6     0.978     0.491 -85.60   0
       216    281.4095    714.9839 307.8004345  +6.3903075     721.8533      921.383     844.4296     79.58149     159.0362     318.3893      1.516     4.38       888.02     56.13804     109.4172         6     0.867     0.631 -51.28   0
       217    660.7465    708.3028 307.6431402  +6.4057957      7414.91     10613.22     11773.29     79.70811     159.2896     318.7059      1.550     3.30     881.8182     56.13804     1179.379        34     1.487     0.977 -81.07   0
       218    253.7543    709.0853 307.8121169  +6.3918126     6528.158     9371.372     10159.61     79.83453     159.2263     318.4843      1.515     3.32     887.9612     56.13804     986.0854        29     1.336     0.951 -88.50   0
       219    643.1544    709.3437 307.6504105  +6.4047767     1039.631     1577.232     2318.353     79.83453     159.2896      318.516      1.639     3.89     882.2659     56.13804     131.2181        14     1.105     0.913 -78.83   0
       220    920.6810    701.0392 307.5354415  +6.4174897     1293.072     1876.479     1910.023     79.83453      159.353      318.421      1.494     3.67     876.5591     56.13804     174.2609        12     1.159     0.676  87.70   0
       221    732.6804    696.7078 307.6136582  +6.4129911     3991.983     5575.853     6348.863     79.58149     159.5427     318.5476      1.528     3.66     880.7609     56.13804     527.2905        23     1.300     0.916 -89.41   0
       222    687.9374    697.3776 307.6322160  +6.4112166     1176.029     1650.012     1949.958     79.45467     159.2896     318.3893      1.579     2.92     881.2162     56.13804     212.5074        11     0.995     0.703 -77.05   0
       223    998.8651    693.4110 307.5032291  +6.4232499     9342.828     13491.77     13610.25     79.32764     159.0996      318.326      1.534     3.39     875.5291     56.13804     1398.095        34     1.430     0.989  89.00   0
       224    937.3108    693.9429 307.5287734  +6.4209748     2601.652     3731.772     3871.503     79.70811     159.2263     318.6109      1.541     3.51     876.0623     56.13804        373.1        21     1.263     0.947  82.96   0
       225     18.2635    692.9818 307.9104438  +6.3905314     1954.122     3161.804     3938.566     79.45467     159.2263     318.3576      1.730     3.59     889.2307     56.13804      308.062        16     1.254     0.801  78.04   0
       226    434.5378    691.1361 307.7376526  +6.4052970     563.4865     869.5028      1037.91     79.83453     159.2896      318.516      1.613     4.69      885.653     56.13804     104.4792         6     1.298     0.481 -83.84   0
       227    537.4443    689.1917 307.6949854  +6.4095527     2214.012     3296.427     3380.113     79.32764      159.163     318.2309      1.526     3.66     883.5912     56.13804     326.5716        21     1.348     0.924  87.90   0
       228     76.1589    688.0712 307.8865701  +6.3945096     27133.23     39807.39     41569.42     79.70811     159.2896     318.5476      1.525     3.32     888.8282     56.13804     4016.322        54     1.507     1.095 -85.05   0
       229    506.1270    686.3521 307.7080858  +6.4096745     1401.119     1961.517     2059.433     79.83453      159.353      318.516      1.522     3.84     884.1766     56.13804     217.9376        15     1.327     0.756 -74.53   0
       230    927.3192    685.2506 307.5332141  +6.4242296     1256.557     1673.974     1919.544     79.83453      159.353     318.4843      1.427     3.45     876.0329     56.13804     206.4655        12     1.078     0.740 -89.74   0
       231    546.5886    682.8535 307.6914014  +6.4124759     1037.278     1402.563     1516.303     79.20041     159.2263     318.1992      1.497     4.28     883.2021     56.13804     158.1066        11     1.200     0.700 -82.97   0
       232    722.2654    680.5086 307.6185273  +6.4193300     3787.244     5367.631     5738.559     79.70811     159.4795     318.4843      1.557     3.23     880.5221     56.13804      552.792        25     1.364     0.929  87.73   0
       233    744.2371    678.6479 307.6094655  +6.4208336     4482.876     6366.255     6754.409     79.70811     159.2896     318.3893      1.478     3.16     880.2489     56.13804     720.0255        24     1.337     0.882  86.08   0
       234    575.7078    676.5418 307.6795216  +6.4160579      3468.93     4901.079     4623.905     79.70811     159.2263     318.6109      1.446     3.47     882.4645     56.13804     510.6558        20     1.298     0.801 -79.39   0
       235    411.8354    676.9688 307.7475572  +6.4103834     1496.443     2334.336     2093.955     79.45467     159.0362     318.2309      1.566     3.26     885.8261     56.13804     247.7202        15     1.169     0.779 -87.70   0
       236   1017.1129    674.7137 307.4962773  +6.4315780     5169.771     7761.548     7779.207     79.58149     159.4795     316.5469      1.576     3.36     875.4153     56.13804     768.1884        27     1.396     0.973 -89.65  16
       237    319.7889    675.4305 307.7858317  +6.4079261     1476.096     2097.468     1883.781     79.32764     159.0362      318.326      1.569     3.92     886.4197     56.13804      212.225        15     1.238     0.822  89.75   0
       238    236.1952    676.0920 307.8205215  +6.4048422     1786.989     2634.335     2128.019     79.45467     158.9728     318.2626      1.527     3.23     887.2354     56.13804     286.6855        15     1.198     0.753 -75.15   0
       239    982.4943    673.8160 307.5106840  +6.4307929     8491.727     12504.15     12699.57     79.58149     159.0996      318.326      1.564     3.39     875.5526     56.13804     1112.469        33     1.427     0.988 -87.73   0
       240    702.4319    672.3356 307.6270382  +6.4220400     1055.026      1491.57     1496.601     79.58149      159.353     318.4526      1.557     5.09     880.5967     56.13804     163.3967        13     1.285     0.867 -72.34   0
       241    427.7419    668.2355 307.7412461  +6.4145228     3041.677     4387.295     4844.428     79.70811     159.2896     318.4843      1.565     3.39      885.295     56.13804     474.0038        21     1.415     0.838 -81.87   0
       242    140.9553    667.0079 307.8603760  +6.4053871     25400.83     37144.26     38888.79     79.32764      159.163     318.1992      1.519     3.26     887.8396     56.13804     3878.978        53     1.524     1.070 -83.66   0
       243     93.9081    670.2814 307.8798013  +6.4024514     918.1759     1238.681     1604.889     79.58149     159.5427     318.5476      1.443     2.91     888.4359     56.13804     167.5875         9     0.942     0.582  77.54   0
       244    809.2876    667.8470 307.5828141  +6.4274690      1133.96      1677.02     1964.747     79.83453      159.163      318.516      1.497     3.62      879.424     56.13804     173.0518        12     1.228     0.643  84.26   0
       245    645.8195    668.0048 307.6506934  +6.4219319     452.4642     425.9012    -43.08194     79.45467     158.9093     318.2943      1.115     3.71     881.2119     56.13804     78.59448         5     1.415     0.279 -79.01   0
       246    360.3990    662.1083 307.7694173  +6.4147904     736.0056     1117.772     780.7809     79.07298     158.8459     318.2626      1.410     4.88     885.6207     56.13804      105.335         9     1.295     0.522 -71.71   0
       247    977.3523    656.6149 307.5133957  +6.4377225     7415.096     11707.21     12357.89     79.20041     159.2263     318.2309      1.693     3.73     874.9761     56.13804       972.99        35     1.523     1.062  75.67   0
       248     22.0121    655.9880 307.9101385  +6.4059291     1181.166     1486.454     1319.685     79.70811     158.9728      318.421      1.426     5.53     888.9717     56.13804     167.5734        15     1.513     0.731 -85.90   0
       249    570.9241    651.9292 307.6823360  +6.4260583     51142.35     73363.19     76359.16     80.08678     159.4795     318.4843      1.502     3.28     881.9124     56.13804     7751.999        70     1.521     1.126 -84.76   0
       250    935.4932    653.7280 307.5308761  +6.4375163     808.6875     1142.971     1044.549     79.70811      159.353     318.5476      1.482     4.82     875.5628     56.13804     114.4803         8     1.070     0.615 -53.24   0
       251    530.0409    652.1696 307.6993057  +6.4245881     608.7612     756.0733     711.4091     79.32764     159.0996     318.3576      1.423     4.20     882.6658     56.13804     127.1486         6     1.258     0.400  73.76   0
       252    214.2170    653.2195 307.8304200  +6.4135451     767.8038     859.5735     974.3712     79.58149     159.0996     318.3893      1.224     2.85     886.9326     56.13804     155.6597         5     0.840     0.433  45.08   0
       253    795.6721    651.4158 307.5890198  +6.4337969     562.3256     870.5615     699.5345     79.32764      159.163     318.3893      1.697     3.75     879.1953     56.13804     100.1544         5     1.012     0.399 -74.62   0
       254    500.8838    648.9684 307.7115215  +6.4249315     679.4598     1034.569     1137.151     79.83453     159.0996     318.3576      1.886     4.94     883.2891     56.13804     98.66046         8     1.011     0.684 -69.38   0
       255    178.4617    648.4358 307.8454290  +6.4143166     2951.375     4357.173     4496.712     79.83453     159.2896     318.4526      1.571     3.36     887.2674     56.13804      390.851        22     1.307     0.896  87.57   0
       256    982.1804    648.4042 307.5116657  +6.4412734     739.6738     1074.372     1155.204     79.45467     158.9728     318.2943      1.457     4.82     874.5417     56.13804     111.7078         8     0.986     0.668  17.34   0
       257     71.3538    642.6561 307.8901006  +6.4130956     1445.562      2184.65     2360.079     79.83453     159.2896     318.5476      1.678     3.93     888.2888     56.13804     188.0597        15     1.284     0.745  88.19   0
       258    468.2017    635.6932 307.7255405  +6.4293152     65870.58      94602.1     99372.97     79.32764     158.9728     318.1992      1.561     3.34     883.6004     56.13804     9458.433        79     1.550     1.154 -83.47   0
       259     11.7497    637.0558 307.9150401  +6.4133985     1820.879      2964.19     3416.618     79.83453     159.2896      318.516      1.715     3.48     888.9626     56.13804     268.4771        15     1.217     0.768 -78.15   0
       260    654.2177    632.8220 307.6483884  +6.4367378     896.5439     1207.508     1099.365     79.58149      159.163      318.421      1.366     4.67     880.6363     56.13804     143.9718         8     1.031     0.600 -85.20   0
       261    142.7226    630.4418 307.8608775  +6.4205416     1648.102     2176.676     1542.681     79.70811     159.2896     318.5476      1.427     3.83     887.4704     56.13804     253.8857        16     1.353     0.696  88.62   0
       262    938.1482    628.2460 307.5306277  +6.4481249      622.296     974.1113     873.0408     79.96075     159.2263     318.5476      1.348     3.45     875.2488     56.13804     104.4459         5     1.111     0.309 -80.54   0
       263    421.9900    628.0532 307.7449883  +6.4309178     944.0051     1157.772     888.0974     79.20041     159.2263     318.1992      1.469     5.08     883.7123     56.13804     140.5896        10     1.127     0.647 -81.99   0
       264    613.9237    627.6049 307.6652973  +6.4375414     940.4876     1388.382     1223.277     79.45467     158.7823     318.3576      1.382     4.76     880.9147     56.13804     128.2111         9     0.947     0.678 -71.46   0
       265     14.7198    626.3903 307.9141676  +6.4179015     673.7109     891.1351     1800.669     79.45467     158.9093     318.3576      1.599     4.35     888.8546     56.13804     104.6086         6     1.201     0.449 -88.91   0
       266    313.7615    624.7906 307.7900424  +6.4286287     2232.156     3375.427     3733.494     79.07298     159.0996     318.1992      1.606     3.83      884.293     56.13804     322.2549        18     1.303     0.795 -88.49   0
       267    465.7397    623.7307 307.7269657  +6.4341709     1033.256     1849.125     2607.167     79.96075     159.2896     318.4843      2.326     5.16     883.2795     56.13804     143.6438        14     1.444     0.733 -72.74   0
       268    740.2944    619.1596 307.6131007  +6.4452603     5588.654     8032.709     7762.149     79.96075     159.2263     318.5793      1.469     3.34     879.0405     56.13804     831.2224        24     1.412     0.802 -84.10   0
       269   1010.8046    615.3984 307.5008837  +6.4558550     971.7149     1457.146      1105.02     79.20041     158.8459     318.2309      1.584     5.28     871.9626     56.13804     136.4959        14     1.274     0.905 -83.25   0
       270    793.8301    614.5206 307.5910232  +6.4489668     15042.84     20712.47     21962.88     79.70811     159.2896     318.4526      1.500     3.18     878.1642     56.13804     2372.026        42     1.433     0.986 -83.67   0
       271    536.3246    614.3809 307.6979679  +6.4403990     1371.197     2150.485     2743.833     79.45467     159.0362      318.421      1.896     3.88     881.4041     56.13804      205.895        15     1.169     0.897 -85.84   0
       272    617.7110    612.4987 307.6642324  +6.4439046     3129.462     4348.374     4303.693     79.83453     159.7322     318.4526      1.472     3.28     880.6309     56.13804     495.7507        22     1.247     0.908 -83.26   0
       273     38.7107    613.6364 307.9046368  +6.4239751      831.274     1029.197     1349.924     79.83453     159.2263     318.4843      1.474     3.41     888.4072     56.13804     143.3879         8     1.024     0.614  89.06   0
       274    934.9490    608.5677 307.5326159  +6.4561419     1182.609     1747.976     1555.476     79.70811      159.353      318.421      1.534     3.22     875.1976     56.13804     205.1547        10     1.025     0.596 -67.74   0
       275    229.9740    606.2380 307.8254627  +6.4334699     1416.289     2176.938     2517.252     79.45467     159.0996      318.326      1.587     3.86     885.4943     56.13804     221.0181        18     1.344     0.882 -70.09   0
       276    376.0542    606.0272 307.7648066  +6.4384678     938.7251     1300.458     1085.895     79.58149      159.353     318.3893      1.530     5.49     883.0117     56.13804     136.9309         8     1.071     0.793  79.76   0
       277    193.8010    606.6168 307.8404714  +6.4320964     689.7021     1117.095     1289.755     79.45467     158.8459     318.1675      1.856     5.04     886.3911     56.13804      111.015         6     1.114     0.645  72.81   0
       278    869.8087    597.7653 307.5600314  +6.4584248     2996.687     4444.117     4630.825     79.32764     159.0996     318.2943      1.554     3.42     875.7028     56.13804     470.9529        19     1.311     0.835 -87.55   0
       279    165.0153    597.6890 307.8527266  +6.4348130     785.6681       1143.5     1025.136     79.58149     159.0996      318.326      1.666     5.08     886.7566     56.13804     114.4611         8     1.095     0.666 -76.50   0
       280    828.5670    595.0132 307.5772517  +6.4581820     2614.361     3686.195     4313.194     79.32764     159.0362     318.3893      1.439     3.09     876.6611     56.13804     380.3873        19     1.198     0.893  87.32   0
       281    799.5775    591.2134 307.5894187  +6.4587811     2688.528     4018.408       5297.6     79.58149     159.0996     318.3893      1.670     3.50     877.2847     56.13804     383.2938        22     1.316     0.957  87.32   0
       282    256.5765    590.0413 307.8149621  +6.4410510     8269.149     12079.19     13027.33     79.45467     159.0996     318.2626      1.540     3.34     884.1996     56.13804     1161.665        32     1.466     0.962 -85.84   0
       283    742.2837    591.5025 307.6132034  +6.4567446     625.4137      968.606     1449.438     79.83453     159.6691     318.5476      1.286     3.83       878.31     56.13804     124.9596         6     0.935     0.450 -88.55   0
       284    809.2058    586.4146 307.5855811  +6.4610843     170602.2       238347     250762.5     79.45467     159.0362      318.326      1.512     3.23     876.9037     56.13804     25756.59       130     1.598     1.237 -87.38   0
       285    190.7802    584.5899 307.8424697  +6.4410878      61302.1     90000.85     96118.41     79.45467     158.9728     318.3576      1.594     3.39     885.6653     56.13804     9085.775        88     1.612     1.248 -84.11   0
       286    114.8576    580.8239 307.8741253  +6.4400862     6425.765     9879.137      10311.2     79.45467     159.2896      318.326      1.603     3.44     886.7521     56.13804     967.8627        35     1.509     1.047 -87.26   0
       287   1001.0842    577.2151 307.5061998  +6.4712940     873.8303     950.8514     1007.683     79.45467     159.0362     318.3893      1.332     4.98     870.9216     56.13804     170.4568         8     1.333     0.526  84.26   0
       288    980.1910    578.1826 307.5148447  +6.4701970     1584.644     2122.028       2404.2     79.58149     159.0362      318.326      1.469     3.17     871.9045     56.13804     220.1716        15     1.133     0.814 -88.35   0
       289    845.7506    573.7775 307.5708277  +6.4675234      4596.35     6771.367      7098.45     79.45467      159.353     318.3893      1.532     3.35     875.7363     56.13804     720.9714        27     1.410     0.907 -89.56   0
       290    229.2647    576.1526 307.8267729  +6.4458658     683.6927     818.4464     912.3317     79.70811     159.2263     318.5476      1.275     3.35     884.3593     56.13804     111.4289         5     0.940     0.347 -47.49   0
       291    364.1964    571.8033 307.7708846  +6.4521978     17508.23     25831.79     27067.98     79.20041     158.8459     318.2943      1.553     3.37     882.1697     56.13804     2461.357        48     1.454     1.105 -83.84   0
       292    454.4623    571.4163 307.7334110  +6.4553890      801.265     1052.678     1457.573     79.32764     159.2263     318.2943      1.383     5.20     881.2149     56.13804     107.8241         9     1.138     0.672 -62.94   0
       293    166.3110    570.5769 307.8531044  +6.4460489     1962.655     3033.193     3824.169     79.83453     159.0996     318.3576      1.707     3.67     885.8315     56.13804     316.0379        20     1.280     0.978 -67.93   0
       294    530.5873    566.6971 307.7019554  +6.4598917     6860.486     9722.574      9913.15     79.70811     159.0362     318.2309      1.538     3.20     880.1456     56.13804     906.7643        31     1.426     0.975 -87.37   0
       295    799.8105    567.0245 307.5901339  +6.4687748     6034.227     8945.955     9856.708     79.45467     159.0996     318.3576      1.519     3.13     876.4707     56.13804     933.0807        29     1.407     0.940 -78.34   0
       296    241.4487    568.3544 307.8219763  +6.4494949     1000.815     1513.027     2002.065     79.83453      159.163      318.516      1.764     3.11     883.8157     56.13804     166.2596         9     1.079     0.534 -58.73   0
       297    171.4417    567.8011 307.8510675  +6.4473675      728.249     1209.865     1883.445     79.20041     158.9728     318.1675      1.793     4.15     885.5954     56.13804     107.1976         6     0.998     0.492 -85.50   0
       298    103.5036    567.7631 307.8792817  +6.4450954     990.9636     1313.076     1135.507     79.83453      159.163     318.6426      1.414     4.13     886.6087     56.13804      154.463         7     1.005     0.485 -82.04   0
       299    388.8705    563.4091 307.7609207  +6.4564921     1521.619     2391.162     3128.124     79.32764     158.9093      318.326      1.707     4.32     881.4942     56.13804     216.0071        14     1.316     0.701 -78.82   0
       300    272.8024    556.2749 307.8093633  +6.4555361      90624.8     133196.4     140040.8     79.32764     158.7823     318.3576      1.580     3.37      882.865     56.13804     13320.82        92     1.589     1.200 -83.07   0
       301    177.6015    559.7673 307.8487808  +6.4508913     6986.356     10385.53     11416.29     79.07298     159.0996     318.2309      1.607     3.33     885.1274     56.13804     929.2524        33     1.440     0.992 -80.97   0
       302    575.4475    559.7367 307.6835590  +6.4642695     2572.605      4106.49     4187.271     79.70811      159.163      318.516      1.765     4.14     879.4805     56.13804     356.8759        22     1.411     0.999 -52.39   0
       303    858.7697    559.6882 307.5658934  +6.4737753     559.9856     727.9679     1140.188     79.96075     159.0996      318.421      1.515     3.67     875.1909     56.13804     95.77399         5     0.942     0.412 -84.22   0
       304    816.2555    559.4373 307.5835587  +6.4724572     1584.453     2185.879     2838.981     79.83453      159.353      318.516      1.471     3.52     875.9189     56.13804      210.937        13     1.026     0.821 -84.76   0
       305     49.2204    558.4489 307.9021389  +6.4471113     5191.053     7578.841     7633.465     79.32764      159.353      318.326      1.557     3.39     887.3496     56.13804     779.1523        26     1.351     0.929 -89.03   0
       306    562.3309    553.5970 307.6892130  +6.4663643      1044.25     1393.398     1571.163     79.20041     158.9093     318.2626      1.442     4.40     879.4331     56.13804     135.8166         9     0.989     0.684 -81.25   0
       307    795.9658    548.8419 307.5923411  +6.4761526     17025.31     23934.28     25198.94     79.58149     159.2896      318.326      1.454     3.16     875.9424     56.13804     2703.868        40     1.423     0.990 -87.74   0
       308    256.5691    551.1977 307.8162761  +6.4570861     1580.781     2220.262      2014.69     79.20041     159.0996     318.2626      1.558     3.48     882.9683     56.13804     232.0604        16     1.169     0.851  79.45   0
       309    499.5540    547.1392 307.7155020  +6.4669246     41458.98     66183.55     71334.53     79.70811      159.163      318.516      1.748     3.42     879.8557     56.13804     5759.563        80     1.598     1.422 -82.99   0
       310    650.0247    545.2672 307.6530730  +6.4727425     902.5081     1344.644      1575.36     79.45467      159.163     318.3893      1.490     3.47     878.3508     56.13804     162.3156        10     1.124     0.661 -89.13   0
       311    212.0510    543.5250 307.8350230  +6.4587558      2082.93     3210.694     3878.305     79.83453      159.353     318.4843      1.784     3.73     883.5795     56.13804     293.1862        17     1.246     0.898 -83.04   0
       312     47.6629    543.5599 307.9032892  +6.4532051     1345.066      1932.03     2171.923     79.83453     159.2263      318.516      1.615     3.72     887.1326     56.13804     192.4305        14     1.153     0.834  82.43   0
       313    659.4835    542.2168 307.6492472  +6.4743186     3129.088     4541.178     4464.093     79.45467     158.9728      318.421      1.520     3.33     878.1328     56.13804     416.0751        23     1.367     0.871 -83.12   0
       314    972.2782    550.2418 307.5190674  +6.4814678       1647.5     2352.085     2375.678     79.70811     159.2896     318.5476      1.503     3.72     871.1973     56.13804     230.9462        15     1.182     0.836 -84.41   0
       315    721.9393    541.7294 307.6233246  +6.4766114     1366.949      2267.31     2101.649     79.96075     159.2896      318.516      1.762     5.96     877.1746     56.13804      215.721        16     1.513     0.809  58.14   0
       316    669.6603    542.0206 307.6450272  +6.4747405     1397.241     2079.905     2266.508     79.45467     159.2263      318.421      1.386     3.30     878.0267     56.13804     257.0217        11     1.173     0.581 -88.98   0
       317     97.5375    543.2407 307.8825882  +6.4550176     573.5652     858.5392     1047.148     79.83453     159.2263      318.516      1.496     3.48      886.236     56.13804     98.57922         5     0.749     0.466 -72.43   0
       318     78.6414    539.7748 307.8905525  +6.4558116     607.9235     1124.793     1335.286     79.45467      159.163     318.2626      1.421     3.54     886.5174     56.13804     131.3421         5     1.088     0.474 -85.70   0
       319    397.3195    537.8677 307.7582727  +6.4673199     1850.953     2651.777     2681.176     79.96075     159.5427     318.4843      1.491     3.17     880.4641     56.13804     269.1444        16     1.171     0.807 -76.02   0
       320    328.7693    535.9666 307.7868057  +6.4658014      4053.08      5844.43     5623.375     79.32764     159.0362     318.2309      1.480     3.25     881.5618     56.13804     585.9083        24     1.294     0.932 -81.49   0
       321    143.8808    534.6014 307.8636346  +6.4601448     26750.17     39522.19     41405.07     79.07298     158.7823     318.1992      1.569     3.41     885.2318     56.13804     4064.708        56     1.527     1.099 -82.70   0
       322    871.9803    534.7971 307.5612417  +6.4844928     1690.562     2376.306     2354.476     79.45467     158.8459     318.2309      1.432     3.64     874.2812     56.13804     292.1485        18     1.350     0.842  86.80   0
       323    508.6805    535.3151 307.7121098  +6.4721121     2128.999     3312.996     3572.213     79.58149     159.6059     318.5793      1.619     3.60     879.3365     56.13804     307.7828        15     1.301     0.716  85.01   0
       324    109.0443    532.8040 307.8781624  +6.4597136     2819.528     4069.633     4335.915     79.20041     158.9093     318.1675      1.491     3.57      885.851     56.13804     401.8865        21     1.367     0.842 -86.72   0
       325    969.4999    529.3256 307.5209223  +6.4900099     5501.951     7716.812     8320.159     79.32764     159.4162     318.3893      1.466     3.16     870.8633     56.13804     809.6559        25     1.307     0.905 -85.80   0
       326    346.1093    531.1478 307.7797669  +6.4683735     1045.766     1271.859     1028.622     79.70811     159.0996     318.6426      1.262     2.57     881.1578     56.13804     183.7719         8     0.764     0.684 -62.14   0
       327    542.5936    521.6743 307.6984844  +6.4788810     1560.077     2181.675     2092.213     79.45467     158.8459      318.326      1.528     3.93     878.5704     56.13804     235.9527        15     1.265     0.730 -83.00   0
       328      8.2036    518.9037 307.9205098  +6.4620531     26393.41     38612.15     40674.79     79.58149     158.9728     317.5965      1.537     3.35     887.3984     56.13804     3722.181        54     1.500     1.105 -84.29  16
       329    440.9157    515.7557 307.7409120  +6.4779123     44071.91     64380.14     67343.51     79.83453     159.2263     318.4843      1.561     3.44     879.1893     56.13804     6370.627        60     1.529     1.101 -84.12   0
       330    648.9481    515.5538 307.6545191  +6.4849729     13032.54     18493.98      19415.7     79.96075     159.2263     318.5476      1.531     3.43     877.0949     56.13804     1921.619        37     1.417     1.034 -89.91   0
       331    206.0671    513.3644 307.8385265  +6.4710052     19597.47     30604.79      31581.7     79.70811      159.353     318.5476      1.675     3.58     883.2183     56.13804     2583.282        52     1.556     1.180  85.35   0
       332    288.8716    515.6937 307.8040591  +6.4728291     1022.415     1394.221     966.8022     79.70811      159.353      318.516      1.339     3.60      881.232     56.13804     153.7301        11     1.019     0.721  83.33   0
       333    171.9012    514.4116 307.8526801  +6.4694229      1642.14     2357.988     1975.384     79.58149     159.0362     318.2626      1.498     3.68     884.1876     56.13804     263.5906        14     1.252     0.731 -82.60   0
       334    982.9786    513.9073 307.5158407  +6.4968252     1097.822     1615.457     1639.047     79.70811     159.0996     318.2943      1.496     3.16     870.2902     56.13804     173.8668        10     0.989     0.673 -80.93   0
       335    822.9889    513.6271 307.5822997  +6.4915943     934.2264     1289.623     1352.051     79.45467     159.0996     318.3576      1.600     4.20     874.4041     56.13804     152.8779        10     1.301     0.715 -66.20   0
       336    911.3770    513.0880 307.5456071  +6.4947718     741.6594     1217.814     1227.721     79.83453     159.0996     318.3576      1.771     4.50     872.1389     56.13804     110.6579         8     1.189     0.484 -88.53   0
       337    570.7491    512.3611 307.6871043  +6.4836699     2859.344     4286.702     4431.823     79.58149     159.2896     318.4526      1.591     3.51       877.89     56.13804     397.5244        22     1.308     0.897  85.34   0
       338    944.6346    509.5459 307.5319127  +6.4973452     5036.828     7173.146     7549.662     79.70811     159.2896     318.4843      1.539     3.34     871.0255     56.13804     738.2722        26     1.327     0.971 -84.96   0
       339    617.7436    507.8411 307.6677385  +6.4871113     6756.466     9752.399     10110.23     79.70811     159.2896      318.516      1.517     3.33     877.1564     56.13804     966.7445        30     1.394     0.951 -88.33   0
       340    105.5607    508.2784 307.8804381  +6.4697207     1342.917     2194.545     2466.089     79.70811      159.353     318.4843      1.846     4.20     885.4553     56.13804     165.2855        11     1.090     0.712  87.51   0
       341    517.2739    507.6447 307.7094724  +6.4838234     586.0317     1084.756     693.3005     79.70811      159.353      318.516      1.758     5.72     878.3042     56.13804     91.77771         9     1.515     0.608 -22.90   0
       342    967.2130    501.8043 307.5227945  +6.5012953     3473.013     5005.543     5196.795     79.45467     158.9728     318.3576      1.520     3.43     870.4354     56.13804     512.6447        23     1.271     0.929 -86.77   0
       343    529.9658    499.1197 307.7044882  +6.4877685     7491.198     10987.75     11316.57     79.70811      159.353      318.516      1.539     3.44     877.8745     56.13804     1105.301        33     1.439     0.971 -84.68   0
       344    375.9344    499.1140 307.7684605  +6.4825999     2788.843     4181.319     4354.291     79.83453     159.4795     318.5476      1.574     3.61     879.3674     56.13804     397.3214        20     1.333     0.894  85.56   0
       345    745.5662    499.5170 307.6149297  +6.4948289     632.5263     683.7013     434.5674     79.83453     159.2896     318.4526      1.313     3.91     875.1229     56.13804     106.9377         5     1.142     0.384 -73.05   0
       346    405.8020    500.1439 307.7560213  +6.4831780     638.2852     875.3839     1777.559     79.20041     158.9728     318.1675      1.302     3.99     879.0084     56.13804     108.2548         6     0.779     0.586 -41.80   0
       347     99.3060    498.0206 307.8833823  +6.4737445     596.2189     835.2509     573.0165     79.70811     159.0996      318.326      1.429     5.61      885.414     56.13804     96.80585         8     1.218     0.807  33.99   0
       348    886.5001    495.0311 307.5565451  +6.5013949     3337.565     4685.902     5353.875     79.83453     159.0362     318.6426      1.471     3.29      872.393     56.13804     489.6858        19     1.217     0.831 -82.89   0
       349    234.7308    493.7459 307.8272848  +6.4800685     766.8295     1062.004     905.6889     79.70811     159.2263     318.3893      1.384     4.47      882.066     56.13804     121.3114         9     1.152     0.775  87.44   0
       350    893.8580    489.6436 307.5536697  +6.5038649     2295.711     3478.485     3718.102     79.70811     159.2263     318.5476      1.548     3.79     871.9309     56.13804     377.0072        16     1.278     0.768 -73.97   0
       351    933.1364    488.6933 307.5373875  +6.5055697       1476.3     2009.417     2182.906     79.83453      159.353     318.5476      1.367     3.80     870.4244     56.13804     221.5717        12     1.126     0.679 -81.14   0
       352    112.8434    488.4196 307.8780848  +6.4781639     778.1222      1338.89     1229.842     79.32764      159.163      318.326      1.796     4.36     884.9515     56.13804     112.3027         7     0.894     0.604 -84.47   0
       353    717.7997    485.3181 307.6269392  +6.4997611       3366.3     4801.185     4748.637     79.07298     158.7823     318.1358      1.553     3.43     874.8828     56.13804     524.5137        21     1.343     0.823 -78.15   0
       354     79.6192    484.1330 307.8920277  +6.4788141     1991.973      2897.17     3082.017     79.45467     159.2896     318.3893      1.615     3.43     885.5071     56.13804     313.2087        16     1.274     0.768 -87.56   0
       355    388.6544    483.3743 307.7637082  +6.4895249     3858.754      5693.78     5325.722     79.45467      159.353      318.326      1.564     3.38     878.6089     56.13804     545.9907        22     1.331     0.899 -82.32   0
       356    428.9646    483.3228 307.7469683  +6.4909000     976.9445     1428.582     1033.626     79.70811      159.353      318.516      1.548     3.47     878.2164     56.13804     196.7716        10     1.174     0.560 -75.11   0
       357    616.3757    480.0060 307.6692428  +6.4985565     10307.17     14939.74     15935.03     79.32764     159.0362      318.326      1.497     3.21     876.0493     56.13804     1410.438        34     1.435     0.948 -83.77   0
       358    779.1138    476.7255 307.6017616  +6.5053607     17256.29     24553.58     26027.25     79.96075     159.6059     318.5476      1.520     3.34      873.824     56.13804     2617.709        43     1.443     1.033 -87.32   2
       359    783.0854    471.8969 307.6002741  +6.5074870     1642.586      2542.61     2923.684     79.83453     159.6691     318.5476      1.616     4.38     873.6512     56.13804     196.7913        15     1.239     0.858 -88.18   3
       360    298.7939    476.7982 307.8012506  +6.4892195     2886.351     4220.944     4029.389     79.20041     158.9728     318.2943      1.514     3.40     879.5605     56.13804     407.2721        21     1.281     0.908 -85.32   0
       361    422.4610    476.4757 307.7499001  +6.4935082       591.62      893.017     459.6515     80.08678     159.2896     318.4843      1.663     3.68     877.9988     56.13804     90.45343         6     0.953     0.409  70.66   0
       362    808.3406    473.6987 307.5897240  +6.5075881     1266.591     1760.283     2146.133     79.58149     159.2263     318.6109      1.300     3.17     873.3559     56.13804     206.6995        10     1.090     0.567 -87.41   0
       363    397.5103    474.0541 307.7603443  +6.4936699     590.9891     917.5849     231.1708     79.83453     159.0996     318.6109      1.379     4.72     878.1542     56.13804      89.0722         6     1.352     0.467  81.91   0
       364    382.1978    473.2693 307.7667304  +6.4934795     1597.936     2303.158     2848.646     79.32764     158.9093     318.2943      1.604     3.54     878.2784     56.13804     277.0081        16     1.144     0.986 -89.06   0
       365    964.3581    471.7034 307.5249892  +6.5136267     2129.057      3123.15     3833.456     79.83453     159.2263     318.6743      1.701     3.89     869.6243     56.13804      292.424        17     1.266     0.805  88.27   0
       366    370.4479    469.4690 307.7717386  +6.4946536     840.9128     1085.523      970.559     79.83453     159.2263      318.516      1.430     4.61     878.2476     56.13804     127.2606         8     1.212     0.497  89.87   0
       367    116.5032    468.5037 307.8772381  +6.4865087     4721.877     6881.742     7016.622     79.83453     159.8584      318.326      1.576     3.43     884.3896     56.13804     652.7181        27     1.333     1.000 -83.09   0
       368    754.7174    467.4445 307.6122062  +6.5083758      2478.53     3524.247     3410.332     79.83453     159.2896     318.4526      1.502     3.14     873.8729     56.13804     389.1021        17     1.226     0.836  82.17   0
       369   1018.2902    466.2519 307.5027709  +6.5176780     4267.544     6899.419     6739.636     79.83453     159.0996     308.7082      1.747     3.75     868.6466     56.13804     500.1655        29     1.355     1.147  58.83  16
       370    274.3150    465.5182 307.8117978  +6.4930529     1560.678     2108.005     2087.838     79.58149     159.6059     318.5476      1.499     3.94     879.8038     56.13804     206.8311        15     1.241     0.850 -77.39   0
       371    352.5819    463.3334 307.7793656  +6.4965861     3305.488     4870.269     5037.498     79.45467     159.2263     318.3893      1.604     3.44     878.2112     56.13804     421.8419        25     1.411     0.975 -87.52   0
       372    281.3114    463.8515 307.8089483  +6.4939763     612.1722     855.4907     1217.751     79.83453     159.0996     318.5793      1.702     6.23     879.4592     56.13804     88.58044         7     1.213     0.898  85.99   0
       373    708.4197    461.2765 307.6316430  +6.5093722     1790.127     2685.097     2994.133     79.45467     158.9728      318.421      1.609     4.34      874.113     56.13804     264.2644        18     1.372     0.867 -67.34   0
       374    982.5839    459.5597 307.5178260  +6.5192487     560.9512     869.0177     599.9045     79.32764     159.0996     318.2626      1.490     3.63     868.7198     56.13804     105.7354         6     0.875     0.493 -89.65   0
       375    240.3221    459.0999 307.8261323  +6.4945590     775.7348     1097.696     914.4149     79.58149     159.5427      318.516      1.458     3.75     880.8105     56.13804     122.8367         6     0.976     0.418 -76.34   0
       376    549.8514    453.9905 307.6977481  +6.5070660     983.7186     1477.372     1323.854     79.32764      159.163     318.1992      1.273     4.93     875.3379     56.13804     181.0835        10     1.230     0.628 -54.03   0
       377    450.9789    454.8975 307.7387829  +6.5033737     565.9255     829.2455     252.4124     79.70811     159.0996     318.2626      1.381     4.42     876.7869     56.13804     103.5604         5     1.174     0.474  73.07   0
       378    472.1201    452.0043 307.7300997  +6.5052778     1460.823     1940.989     2026.532     79.45467     158.7823     318.2309      1.430     3.30      876.455     56.13804     217.8964        13     1.137     0.717 -85.75   0
       379    834.7992    451.1702 307.5794907  +6.5177735     1673.652     2191.542     1930.874     79.20041     159.0996     318.2943      1.350     3.60     872.1328     56.13804     229.2446        12     1.107     0.672 -76.62   0
       380    820.0730    450.1953 307.5856400  +6.5176835     1956.667     2772.124     2599.763     79.45467     158.8459     318.3893      1.497     3.64     872.4778     56.13804     290.6052        16     1.198     0.911  78.92   0
       381    717.6216    448.3635 307.6282549  +6.5150111     15701.36     22191.64     23569.08     79.45467     159.0362     318.2309      1.505     3.31     873.6033     56.13804     2254.062        39     1.456     0.970 -86.85   0
       382    619.8599    449.9372 307.6688070  +6.5110865     721.4142     1022.586     942.5804     79.83453     159.2263      318.516      1.488     4.20     874.5069     56.13804     119.9556         7     1.168     0.477 -72.45   0
       383    638.6560    444.3226 307.6611890  +6.5140343     2743.457     3910.247     4236.895     79.83453     159.2896     318.4526      1.512     3.48     874.0151     56.13804     388.2654        19     1.270     0.811 -87.71   0
       384    711.4236    443.1616 307.6310040  +6.5169511     629.6921     1067.852      1645.55     79.45467     159.0362     318.2943      1.531     4.52     873.4639     56.13804     107.2105         8     1.491     0.390 -77.81   0
       385    613.7269    441.3873 307.6716419  +6.5144106     5868.611     8809.923     9483.623     79.32764     158.9728     318.2626      1.609     3.40     874.1224     56.13804     839.5045        23     1.387     0.870 -81.18   3
       386    610.0233    438.8159 307.6732667  +6.5153480     15054.66     22139.37      23697.2     79.58149     159.0996     318.3893      1.563     3.42     874.0601     56.13804     2248.337        40     1.482     1.038  88.90   3
       387    942.8862    438.2973 307.5350276  +6.5267006     4017.068     5927.836     6113.729     79.83453     159.6691     318.5476      1.557     3.19     868.7014     56.13804      629.854        27     1.412     0.980 -80.93   0
       388    381.9843    434.1651 307.7681375  +6.5096153     29534.99     43550.62     45779.15     79.45467     159.0362      318.326      1.555     3.43     876.7034     56.13804     4255.264        60     1.545     1.141 -87.53   0
       389    419.6118    435.2751 307.7524719  +6.5104210     595.8752      836.287      985.633     79.45467     158.9728     318.2943      1.411     4.02     876.1917     56.13804     110.1203         7     0.990     0.472  82.08   0
       390    898.3647    433.9561 307.5536657  +6.5270052     1684.227       2561.7     2938.918     79.58149     159.2263     318.3576      1.594     3.80     869.7997     56.13804     263.4805        15     1.265     0.722 -75.37   0
       391    128.0139    433.5976 307.8736374  +6.5013060     2454.685     3743.308     3497.104     79.45467     158.9728      318.326      1.575     3.67     882.9764     56.13804     336.1862        17     1.263     0.807 -81.37   0
       392     61.3471    429.5428 307.9014623  +6.5007336     1651.214     2465.367     2557.147     79.83453     159.2896     318.4843      1.616     5.33     884.7672     56.13804          205        19     1.550     0.896 -68.61   0
       393    911.6218    428.6886 307.5483359  +6.5296228     5410.188      7635.72     7756.855     79.83453     159.0996     318.3893      1.492     3.26     869.3337     56.13804      792.275        22     1.281     0.860  88.67   0
       394    894.8746    429.8144 307.5552543  +6.5285984     776.6943     1313.484     1406.663     79.32764     159.0362     318.3576      1.562     4.44     869.7245     56.13804     149.8215         7     1.235     0.453  50.30   1
       395    593.2520    429.4718 307.6805470  +6.5186432     750.0781     963.2405     1225.323     79.70811     159.2896      318.516      1.323     2.94     873.6128     56.13804     121.8839         8     0.790     0.752 -87.07   0
       396    239.5223    424.6743 307.8276267  +6.5087435     14581.89     21231.84     22080.79     80.08678     159.5427      318.516      1.604     3.28     879.5428     56.13804     1999.104        43     1.477     1.070 -84.59   0
       397    967.4128    426.1660 307.5252467  +6.5325281     644.7087     955.2414     1298.191     79.32764     159.0362     318.3576      1.377     4.90     867.2868     56.13804     99.98065         9     1.031     0.679 -63.65   0
       398    734.4044    418.2486 307.6222959  +6.5280053     781.3061     988.2753      1132.44     79.20041     159.0996     318.1358      1.543     4.15     872.5881     56.13804      107.343         7     1.077     0.457 -79.41   0
       399     75.0889    418.5701 307.8961262  +6.5057264     803.4544     1165.564     1492.652     79.96075     159.0362      318.421      1.633     4.11     884.2256     56.13804     119.7414         8     0.927     0.745 -84.32   0
       400   1011.6506    417.6516 307.5071570  +6.5375202     574.1107     716.4839     1071.504     79.96075      159.163     318.4843      1.144     3.04     864.6877     56.13804     128.2249         5     0.949     0.356 -68.88   0
       401    962.8827    417.0981 307.5274324  +6.5361203     1078.286      1525.22     1693.634     79.83453     159.6691     318.5793      1.527     3.66     867.0327     56.13804     168.7365        11     1.173     0.603 -76.43   0
       402    702.4732    417.5009 307.6355840  +6.5272448     934.5654     1185.179     923.4052     79.45467     159.4162     318.4526      1.418     4.32     872.5932     56.13804     127.1805         8     1.065     0.499 -89.89   0
       403    352.5265    414.2493 307.7810439  +6.5168471     1433.878     2117.946      1919.18     79.83453      159.353      318.516      1.523     3.64     876.3228     56.13804     213.3278        13     1.140     0.740 -82.47   0
       404    185.2024    414.4627 307.8505322  +6.5111309     798.4914     1290.489     1223.031     79.20041     159.0996     318.2309      1.618     4.41     880.5837     56.13804     123.8167         8     1.056     0.721 -73.38   0
       405    139.7685    413.2818 307.8694421  +6.5100885     5368.852     7845.398     8114.031     79.70811      159.163     318.4843      1.583     3.40     881.8819     56.13804     773.3591        28     1.349     0.987 -79.20   0
       406    244.7741    412.3496 307.8258616  +6.5140080     1445.624      1759.23      1814.73     79.45467      159.353     318.3893      1.322     3.58     878.8452     56.13804     218.7673        12     1.127     0.683 -76.65   0
       407    437.1630    411.8219 307.7459726  +6.5206924     786.1086     1077.831     1207.471     79.45467     159.0362     318.2626      1.544     4.25      874.954     56.13804     124.1906         9     1.138     0.568  82.21   0
       408    380.5143    413.4671 307.7694458  +6.5181105     571.1019     998.6097     570.0694     79.83453     159.5427      318.516      1.627     4.23     875.8023     56.13804     79.62775         5     1.216     0.421 -34.74   0
       409    161.9215    409.0904 307.8603829  +6.5125648     2496.896     4106.145     4492.872     79.58149     159.5427     318.5476      1.729     4.34     881.0511     56.13804     382.7875        21     1.520     0.808 -77.41   0
       410    557.3326    408.7296 307.6961642  +6.5260017     1031.041     1490.396     1163.818     79.83453     159.4162     318.4526      1.572     4.58     872.5955     56.13804     149.7329        11     1.224     0.750 -73.34   0
       411    973.4866    404.1987 307.5234602  +6.5417998     800.9453     1813.682     2175.045     79.07298     158.8459     318.1992      2.395     6.72     865.9332     56.13804     131.3816        13     1.878     0.674 -66.90   0
       412    385.3151    403.9734 307.7677719  +6.5221909     2097.336     3167.232     3264.325     79.96075     159.0362     318.3576      1.553     3.68     875.2234     56.13804     281.4567        19     1.384     0.805 -78.72   0
       413    273.5616    404.4803 307.8141708  +6.5182250     891.7751     1308.072     1487.521     79.70811      159.353     318.4526      1.681     5.27     877.4142     56.13804     119.7462        10     1.276     0.614  80.36   0
       414      4.2716    404.1217 307.9260267  +6.5093033      881.371     1133.705      996.717     80.08678     158.9093     282.8288      1.418     4.01     885.6045     56.13804     130.0406         7     0.860     0.602 -60.93  16
       415    319.1719    401.5583 307.7953256  +6.5209650     652.5079     798.8488     1459.973     79.45467     159.2263      318.326      1.352     4.21     876.2062     56.13804     98.40491         7     0.888     0.598 -78.41   0
       416    592.8029    400.3434 307.6817136  +6.5306531     496.3882     654.4974     610.3398     79.20041     159.0996     318.1675      1.463     4.74     872.1319     56.13804     67.34058         6     0.967     0.658 -78.26   0
       417    439.1811    397.5511 307.7456153  +6.5266514     7675.594     11135.24     11922.55     79.32764      159.353     318.2626      1.567     3.27     874.1345     56.13804     1140.919        32     1.398     0.982 -75.90   0
       418     35.6318    398.1707 307.9132035  +6.5128174     3250.372     5027.283     4687.675     79.32764     159.0362     318.2309      1.671     3.70     884.6315     56.13804     415.6899        28     1.576     1.000 -65.16   0
       419    771.8894    396.6032 307.6074531  +6.5381958     2093.467     3143.048     2957.747     79.32764     158.9728     318.1675      1.566     3.68      871.515     56.13804     302.3883        16     1.349     0.686 -82.66   0
       420    779.7558    394.9809 307.6042401  +6.5391288     13324.71      18972.9     19983.21     79.32764      159.163     318.2626      1.470     3.23     871.3811     56.13804     2059.979        37     1.401     0.972 -85.39   0
       421    199.7891    396.5676 307.8450784  +6.5190093     528.1973     639.0876     300.6116     79.32764     159.0362      318.326      1.298     4.32     879.8253     56.13804     84.79437         5     0.908     0.586 -47.53   0
       422    343.2134    393.2095 307.7856217  +6.5252197     1097.745     1637.617     1491.157     79.58149     159.0362      318.421      1.487     3.92     875.2299     56.13804      177.338        10     1.165     0.586 -71.18   0
       423   1023.3564    390.1430 307.5032164  +6.5492675     3358.026      4534.52     4762.911      73.2467       131.55     244.9163      1.353     3.50     862.9003     56.13804     556.8762        19     1.379     0.739 -89.80  24
       424    954.5282    386.7430 307.5319203  +6.5483729     676.9822      866.444     695.2295     79.96075     159.2896     318.4526      1.442     3.42     865.9975     56.13804     93.64227         5     0.742     0.455  69.44   0
       425    188.2927    385.7697 307.8502180  +6.5230798     766.7681      1159.16     756.8136     79.96075     159.0362      318.421      1.525     4.20     880.0025     56.13804     120.9758         7     1.141     0.441 -83.81   0
       426    905.2941    384.8409 307.5524349  +6.5475131     638.1588      1006.13     1321.232     79.96075     159.2263     318.5793      1.622     4.10     867.8199     56.13804          113         5     1.148     0.418  80.21   0
       427    487.3132    381.1967 307.7261743  +6.5350187     3368.812      5006.54     5531.367     79.32764     158.9093     318.2309      1.615     3.53     872.2266     56.13804     425.7691        22     1.313     0.905 -82.54   0
       428    459.5356    381.8038 307.7376915  +6.5338357     2351.733     3277.462     3299.481     79.07298     159.0996     318.2626      1.490     3.39     872.8114     56.13804     334.7639        18     1.212     0.905  80.35   0
       429    915.9677    380.6630 307.5481415  +6.5495946     925.3731      1291.56     1421.194     79.58149      159.353     318.4526      1.748     4.66     867.3271     56.13804     146.8927         8     1.170     0.526 -68.98   0
       430    845.1652    377.8892 307.5776445  +6.5483729     34239.57     50731.25     53345.81     79.96075     159.2263     318.4843      1.567     3.43     869.3256     56.13804      5294.04        66     1.615     1.098 -82.94   0
       431    990.9352    377.8694 307.5170949  +6.5532521     681.7577     841.4678     626.0792     79.83453      159.353      318.516      1.455     5.15     863.8832     56.13804     87.33063         8     1.070     0.699 -77.84   0
       432    430.0505    376.1694 307.7501282  +6.5351716     498.5016     681.3599     119.0237     79.45467     159.4162      318.421      1.697     5.18     873.0721     56.13804       75.008         5     1.178     0.644 -86.51   0
       433    337.4591    373.4288 307.7886790  +6.5331921      728.655     1073.458     817.1115     79.45467      159.353     318.3893      1.471     4.60     874.2972     56.13804     111.1727         7     0.919     0.653  81.31   0
       434     63.0047    374.2270 307.9026447  +6.5236243     682.6906     1047.819     1053.831     79.32764     159.0996      318.326      1.649     4.38     883.1806     56.13804     102.2494         7     0.758     0.720 -52.45   0
       435    616.8405    370.0818 307.6727473  +6.5439517     2919.609     4176.448     4259.739     79.83453      159.353      318.421      1.508     3.47     870.6559     56.13804     465.8646        21     1.313     0.877  86.79   0
       436     25.1911    370.3600 307.9184808  +6.5239458     1171.838      1770.55     1574.346     79.20041     159.0996     318.2309      1.564     3.90     884.3362     56.13804     162.4729        11     1.073     0.769 -68.26   0
       437    701.5844    363.8587 307.6377561  +6.5493601     83239.88     119473.8     125487.8     79.20041     159.2263     318.2309      1.516     3.18     870.3109     56.13804     11894.75        84     1.541     1.162 -87.75   0
       438    859.8765    365.4134 307.5719524  +6.5540152     1376.002     1917.472     2159.038     79.45467     158.9728     318.2943      1.516     4.56     868.5985     56.13804     191.6465        14     1.262     0.712 -86.26   0
       439     80.8438    363.2153 307.8956080  +6.5287713     1387.422     1996.923     2044.567     79.32764     159.0996     318.2309      1.598     4.15     882.2214     56.13804     207.3339        13     1.166     0.821 -80.47   0
       440    563.9758    360.4746 307.6950290  +6.5461453     2840.841     3965.107      4446.25     79.45467     159.0996      318.421      1.528     3.51     870.1774     56.13804     424.7629        20     1.291     0.862 -76.37   0
       441    391.4907    360.8693 307.7666602  +6.5401926      558.836     834.4703     1017.184     79.83453     159.4162     318.4843      1.731     4.81     872.7365     56.13804     89.57611         6     1.331     0.494 -86.31   0
       442    101.3422    359.2650 307.8872278  +6.5310927     6485.668     9430.628     10270.59     79.96075     159.2263      318.516      1.582     3.28     881.4804     56.13804     838.7178        32     1.419     1.023 -79.89   0
       443    942.7770    360.4979 307.5376815  +6.5588151     748.4528     1084.261     1193.428     79.96075     159.0362      318.326      1.411     5.01     865.2552     56.13804     148.4963         7     0.986     0.721  51.76   0
       444    547.3737    356.7788 307.7020495  +6.5471142     7598.747     11087.11     11881.59     79.45467     159.0996      318.421      1.577     3.23     870.0262     56.13804     1007.983        34     1.395     1.027 -82.27   0
       445    276.3536    354.2905 307.8147052  +6.5390380     2811.997     3907.762     3945.834     79.83453      159.163     318.6109      1.515     3.29     875.9128     56.13804      376.782        20     1.202     0.948 -85.43   0
       446    410.2220    351.8847 307.7591828  +6.5445309      27206.7     39951.99     41657.68     79.70811     158.9728      318.421      1.543     3.23     872.1787     56.13804     3663.807        54     1.495     1.128 -81.59   0
       447    588.9691    351.5438 307.6849481  +6.5506702      600.087     840.0345     696.8192     79.70811      159.353      318.421      1.472     4.13     869.7703     56.13804     91.55389         5     0.751     0.648  83.23   0
       448    676.6457    350.2520 307.6485726  +6.5541419     558.6237      887.519      616.422     79.96075     159.2263     318.5476      1.554     4.27     869.6307     56.13804     97.61462         5     1.129     0.460 -82.75   0
       449    517.9731    350.5121 307.7144726  +6.5487148     1296.707       1840.8     1987.818     79.96075     159.0362     318.3893      1.489     3.29     869.9465     56.13804     221.5253        12     1.046     0.740 -84.04   0
       450    390.2253    349.8494 307.7675573  +6.5446993     1215.716     1785.259     3093.494     79.45467      159.353     318.3893      1.632     4.75      872.191     56.13804     184.5981        13     1.186     0.752 -74.87   0
       451    804.8512    344.2739 307.5955188  +6.5609018     889.8865     1552.852     1503.936     79.83453      159.353      318.516      1.733     5.23     868.8168     56.13804     139.4755        10     1.427     0.541 -89.78   0
       452    489.8111    347.3385 307.7262772  +6.5490799     1271.521     1988.979      1815.96     79.20041     159.0996     318.2626      1.621     4.06     869.9762     56.13804     182.1997        15     1.290     0.876 -83.76   0
       453    499.3795    342.2504 307.7224741  +6.5515016     9057.742     13074.54     13530.36     79.32764      159.353     318.3576      1.547     3.29     869.6162     56.13804      1206.99        31     1.419     0.947 -79.16   0
       454    641.1959    343.8376 307.6635134  +6.5556022     620.5767      1030.24      561.581     78.94534     159.0362     318.2626      1.709     3.89     869.1909     56.13804     83.33698         6     0.772     0.563 -41.79   0
       455    768.4640    341.0630 307.6107415  +6.5610098     3227.408     4567.112     4334.402     79.83453     159.2896      318.516      1.446     3.22     868.9472     56.13804     455.0284        20     1.256     0.829  86.64   0
       456    923.5850    340.6592 307.5463191  +6.5663639     916.1403     1444.641     1128.033     79.20041     159.2896     318.2309      1.531     5.54     865.2239     56.13804     147.9756        11     1.382     0.626  73.73   0
       457    716.1216    340.6032 307.6324993  +6.5594474     791.1818     1176.059     1107.867     79.32764     158.7823     318.2943      1.525     5.10     869.0919     56.13804     108.9185         9     1.070     0.686  82.47   0
       458    325.8926    338.7849 307.7946519  +6.5471048     987.6171      1471.63      926.103     79.58149     159.0996     318.2943      1.351     3.33     873.2261     56.13804     166.4402        11     1.154     0.638 -69.86   0
       459    213.0784    340.2012 307.8414626  +6.5427253     532.9343     630.0873     665.3198     79.07298     158.7188     318.2943      1.392     4.50     877.5167     56.13804     90.11139         6     0.965     0.597 -58.28   0
       460    261.5827    333.3301 307.8215479  +6.5471939     685.0916     940.0163      981.946     79.32764      159.163     318.3893      1.548     4.16     875.4133     56.13804     87.45325         7     1.051     0.470  80.94   0
       461    161.3056    332.7129 307.8632197  +6.5440736     1248.452      1768.97     1809.645     79.83453     159.7322     318.5476      1.403     3.73     880.2206     56.13804     181.3438        11     1.146     0.635 -74.88   0
       462    437.9637    332.9555 307.7482978  +6.5532769     590.6072     935.7897     876.7967     79.58149     159.2263     318.3576      1.376     3.72     870.7117     56.13804     100.3182         5     0.656     0.605 -88.57   0
       463    389.2680    326.4499 307.7687439  +6.5543269     7828.593     11399.89     11826.31     79.70811     159.2263     318.4843      1.568     3.20     871.3779     56.13804     1061.312        34     1.404     1.035 -85.83   0
       464    245.0095    327.0519 307.8286438  +6.5492280     2305.885     3346.434     3540.863     79.20041      159.163     318.2309      1.494     3.45     875.7822     56.13804     363.3616        19     1.244     0.877 -76.24   0
       465    742.6075    326.4153 307.6219741  +6.5661913     1009.924     1423.545      2173.41     79.45467     159.0362      318.326      1.614     5.04     868.2484     56.13804     156.2542        10     1.057     0.680 -76.28   0
       466    757.1024    322.4001 307.6160879  +6.5683341     56529.17     80279.95     84376.67     79.32764     158.9093     318.1358      1.512     3.19     867.9616     56.13804      9006.22        71     1.505     1.122 -85.28   0
       467    428.7098    321.8434 307.7525161  +6.5575534     2335.965     3433.762     3607.658     79.83453     159.2263     318.5476      1.529     3.24     870.5402     56.13804     336.7993        19     1.191     0.924 -80.03   0
       468    991.8953    319.4501 307.5186540  +6.5774015     1718.645     2429.673     2551.574     79.70811     159.2263     318.6426      1.572     3.16     862.0404     56.13804     297.8089        13     1.135     0.673 -83.78   0
       469    932.9393    318.6314 307.5431721  +6.5757703     2553.135     3461.135     3700.543     79.58149      159.353      318.421      1.456     3.28     863.9197     56.13804     366.4348        19     1.243     0.963  51.61   0
       470    574.8936    319.1024 307.6918865  +6.5635909     1410.832     1750.201     1762.547     79.83453     159.8584     318.3893      1.337     3.75     867.5885     56.13804     196.6753        11     1.115     0.655 -78.62   0
       471    465.9278    317.9954 307.7371863  +6.5603917     1144.311     1674.897     2411.521     79.45467     158.8459      318.326      2.151     3.76     869.0436     56.13804     209.9001        12     1.258     0.642 -80.05   2
       472    415.3424    317.3675 307.7582195  +6.5589522     2092.112     3031.336     3131.899     79.70811      159.353      318.421      1.564     3.33      870.784     56.13804     254.4673        16     1.093     0.883  88.33   0
       473    295.3350    316.9869 307.8080801  +6.5550759     835.6335     1329.137     1689.423     79.32764     159.0996     318.3893      1.588     3.40     873.4593     56.13804     158.0313         9     1.065     0.591 -80.62   0
       474    836.6013    311.9451 307.5834154  +6.5753102      1135.92     1519.593     1262.229     79.20041     159.0362     318.1358      1.476     3.61     866.7735     56.13804     195.4297        13     1.163     0.736  82.39   0
       475    191.7376    308.7739 307.8513883  +6.5549805     2336.597     3514.359     4390.187     79.45467     159.2263     318.3893      1.663     3.30     877.7067     56.13804     354.5075        21     1.405     0.826 -80.59   0
       476    755.5486    307.0594 307.6172488  +6.5746151     6462.301     9180.843     9671.873     79.83453     159.2263     318.4843      1.492     3.56     867.1296     56.13804     977.9568        30     1.424     0.928 -87.93   0
       477    445.9634    308.8515 307.7457872  +6.5634961     1131.318     1643.066      1896.61     79.70811     159.2896     318.4526      1.506     3.39     869.3474     56.13804      196.098        11     1.058     0.636 -88.88   0
       478     88.1034    306.4382 307.8945128  +6.5524539     1130.969     1848.775     1397.205     79.83453      159.163     318.6426      1.696     6.12     881.2112     56.13804     142.8214        17     1.404     0.940  87.45   0
       479    227.3940    307.1250 307.8366335  +6.5568613     799.8901     1031.666     749.8554     79.45467     158.7823      318.326      1.361     3.99     875.9188     56.13804     120.6782         8     1.008     0.661  55.73   0
       480    772.1310    304.7509 307.6104380  +6.5761232     2777.863     4016.324     4353.639     79.83453     159.2263     318.4843      1.524     3.19     866.9863     56.13804     436.8837        19     1.289     0.813 -71.33   0
       481    361.5090    299.5365 307.7811819  +6.5645044     1698.857     3531.642     3468.401     79.83453     159.4795     318.5793      2.119     6.26     870.8826     56.13804     176.1465        27     1.510     1.234 -24.91   0
       482     75.1798    300.0352 307.9000973  +6.5546616      1416.94     2249.767     1972.371     79.32764     159.0996     318.2943      1.600     3.72     881.2867     56.13804     180.9641        14     1.187     0.788  80.85   0
       483   1010.1185    295.8732 307.5118742  +6.5877433     6329.542     9008.291     9728.825     80.08677     159.6059      318.516      1.479     3.19      861.175     56.13804     1004.364        30     1.370     0.942 -82.81   0
       484    488.3165    295.6086 307.7286405  +6.5703850     2185.447     2989.599     2972.213     79.45467     158.9728      318.326      1.485     3.56     867.2267     56.13804     313.4867        19     1.263     0.877 -78.14   0
       485    250.7958    291.1372 307.8274530  +6.5642488     6042.615     9168.496     9685.428     79.20041     159.0362     318.2309      1.591     3.46     874.2642     56.13804     838.7548        34     1.473     1.034 -80.67   0
       486    918.5521    290.5687 307.5500899  +6.5868747      565.283     1057.546     998.8954     79.58149     159.2896     318.3893      1.898     3.79     863.2246     56.13804     117.0157         6     1.063     0.484  83.05   0
       487    815.2003    289.8307 307.5930480  +6.5837238     646.7739     985.0463     1303.777     79.20041     159.0996     318.2943      1.489     4.30      866.007     56.13804     104.9892         5     0.746     0.706  51.59   0
       488    770.3524    284.1968 307.6118673  +6.5845489     840.2941     1136.943     1276.623     79.20041     159.0362     318.0724      1.393     2.87     865.9715     56.13804     187.6984         7     0.945     0.472 -84.74   0
       489    227.3008    284.3488 307.8374415  +6.5662605     707.8465     989.8331     617.2664     79.83453     159.2896     318.7059      1.546     4.46     875.4226     56.13804     108.4262         7     1.046     0.541 -63.24   0
       490    122.6012    285.2254 307.8809010  +6.5623732     568.6567     934.4019     1040.969     79.45467     158.9728     318.2626      1.616     3.33     879.8627     56.13804     107.6459         5     0.770     0.417 -66.70   0
       491    385.0554    281.8386 307.7719980  +6.5726016     1633.047     2599.442     3133.022     79.83453      159.353     318.4843      1.809     3.70     869.9783     56.13804     260.6373        19     1.313     0.950  84.24   0
       492    971.6819    280.6139 307.5283528  +6.5927593     1184.049     1421.103     1588.755     79.45467     159.0362     318.2943      1.327     3.15     861.7009     56.13804     220.7313         9     1.021     0.580 -84.92   0
       493    191.0820    278.8971 307.8526700  +6.5672919     594.7835     978.4385     780.8294     79.70811     159.6691     318.5476      1.497     3.92     876.9158     56.13804     89.30225         5     0.816     0.539  58.16   0
       494    154.7438    277.7849 307.8678015  +6.5665274     1958.911     2915.517      3174.45     79.20041     159.2263     318.1675      1.646     3.73     878.3815     56.13804     293.7216        17     1.311     0.813 -78.93   0
       495    307.2763    277.7936 307.8044427  +6.5716570     1276.879     1633.923     1626.806     79.45467     158.7823      318.326      1.417     3.35     871.6733     56.13804     170.6143        12     0.988     0.792 -80.33   0
       496    907.7737    272.7393 307.5551655  +6.5938750     1728.801     2792.888     2734.008     79.45467     159.2896     318.3576      1.749     5.19     863.1553     56.13804     259.6333        20     1.372     1.272  66.73   0
       497    564.3053    273.4384 307.6978218  +6.5820868     2356.398     3027.957     3255.756     79.96075      159.163     318.6109      1.446     3.28      865.424     56.13804     300.0803        16     1.143     0.849  88.56   0
       498    727.8925    271.0419 307.6299476  +6.5885582     5452.401     7581.794     7897.194     79.83453     159.2896     318.5793      1.440     3.15     865.6365     56.13804     857.8152        25     1.287     0.913 -86.41   0
       499    668.9530    270.9254 307.6544354  +6.5866322     2265.382     3494.513     3938.731     79.70811      159.353     318.4843      1.688     3.40     865.0933     56.13804     345.8543        19     1.275     0.932 -89.13   0
       500    965.8810    270.7713 307.5310926  +6.5966289     763.3514     931.4255     642.8581     79.70811     159.0996     318.4526      1.207     3.64     861.6272     56.13804     154.0383         7     1.004     0.551 -86.21   0
       501    383.7427    265.1600 307.7731058  +6.5794427     797.2937     1315.779      979.289     79.83453      159.353      318.516      1.739     4.51     869.5044     56.13804     129.1323         8     0.912     0.634 -87.97   0
       502    924.0873    263.0302 307.5487142  +6.5984284     1244.527     1813.711     1793.932     79.96075     159.0996     318.3893      1.523     4.70     862.3622     56.13804     181.1441        12     1.092     0.768 -86.25   0
       503    227.5569    256.2060 307.8382856  +6.5778868     2395.473     3669.104     3826.549     79.20041     158.9728     318.1992      1.589     3.53     875.1816     56.13804     343.8849        19     1.285     0.850 -79.10   0
       504    870.1898    255.1922 307.5713674  +6.5998626     1952.769     2698.874     2607.481     79.32764     159.0996     318.3893      1.434     3.64     863.8087     56.13804     324.8459        14     1.223     0.676 -84.96   0
       505    760.7238    254.8683 307.6168525  +6.5963343     1897.426     2591.356     2339.376     79.96075     159.4162     318.4843      1.420     3.79     865.1538     56.13804     272.6225        16     1.201     0.850 -86.14   0
       506    787.3833    245.4053 307.6060955  +6.6011331     14144.35     20343.32     22187.51     79.45467     158.9728      318.326      1.572     3.31     864.5677     56.13804     2023.561        50     1.492     1.200 -80.03   0
       507    461.4261    246.1936 307.7414756  +6.5898817     23682.02     35036.18     37088.59     79.32764     159.0996     318.2943      1.594     3.26     865.5395     56.13804      3097.05        51     1.530     1.106 -86.49   0
       508    284.5103    248.0250 307.8149041  +6.5831802     489.6741     594.7574     412.7822     79.96075     159.0996      318.326      1.401     3.98     872.1355     56.13804     113.5936         5     0.916     0.496 -85.23   0
       509    466.9744    240.8116 307.7393522  +6.5922898     1517.444     2394.246     2937.287     79.45467     159.0996      318.421      1.722     4.46     864.9568     56.13804     205.4686        15     1.276     0.839 -84.37   0
       510    726.2804    240.8663 307.6316314  +6.6009615     805.2974     1104.812     922.9138     79.96075     159.4795     318.4526      1.365     4.83     865.0265     56.13804     114.3336         8     0.978     0.677  24.72   0
       511    149.5381    239.5330 307.8712567  +6.5821427     2624.737     3901.343     3961.667     79.83453     159.2263     318.4843      1.629     4.20     877.5018     56.13804     366.5145        22     1.382     0.973 -63.19   0
       512    124.2104    238.5172 307.8818118  +6.5817089     1170.855     1855.933     1356.813     79.45467     158.9728      318.326      1.720     3.87     878.4809     56.13804     169.8189        10     0.990     0.676  85.84   0
       513    176.4324    236.9789 307.8601716  +6.5841028     582.8644      1174.85     1171.082     79.32764     159.0996      318.326      2.265     4.51     876.5738     56.13804     90.78748         7     1.223     0.473  82.51   0
       514    923.8453    235.7243 307.5497307  +6.6096930     1579.649     2009.212     2543.698     79.70811      159.353      318.516      1.500     3.45     861.7718     56.13804     264.6332        13     1.215     0.669 -79.12   0
       515    585.5488    231.9634 307.6903932  +6.5999211     4794.175     6939.147     6838.264     79.70811     159.2896     318.4526      1.504     3.21     864.6703     56.13804     638.8381        26     1.340     0.945 -85.74   0
       516    548.2031    231.8489 307.7059110  +6.5987157     2206.918      3199.64     3096.622     79.20041     159.0362     318.0724      1.514     3.57     864.5389     56.13804     301.8908        17     1.208     0.875 -77.70   0
       517    305.8160    232.2574 307.8065861  +6.5904059     1066.313     1438.051     979.6553     79.20041     159.2263     318.2309      1.452     4.29     871.2765     56.13804     163.1162        12     1.216     0.740  66.34   0
       518    390.0672    230.9457 307.7716324  +6.5937795     1563.512     2196.683     1664.776     79.83453     159.2263     318.3893      1.419     3.60      868.279     56.13804     265.2104        16     1.277     0.811  87.28   0
       519    946.3430    229.3034 307.5405998  +6.6130954     2735.725     4059.862     4047.242     79.70811     159.2263     318.7059      1.548     3.55     861.1901     56.13804     367.5764        21     1.360     0.848 -82.50   0
       520    892.5093    228.5883 307.5629880  +6.6115916     12033.25     16642.49     17190.75     79.58149     158.9728     318.2943      1.476     3.31     862.2865     56.13804     1683.284        39     1.429     0.974 -88.95   0
       521    567.6263    228.5195 307.6979544  +6.6007417     887.2193     1200.841     496.8891     79.70811     159.0996      318.516      1.455     4.95     864.5508     56.13804     147.3333         8     1.140     0.607  82.57   0
       522    979.1442    226.4580 307.5270685  +6.6153657     10676.99     14674.17     15301.35     79.96075      159.353      318.516      1.476     3.26     860.5096     56.13804     1618.427        27     1.342     0.894 -88.04   0
       523    320.1939    228.8061 307.8007300  +6.5923141     997.1945      1697.12     2125.868     79.20041     159.0996     318.2943      1.800     3.61     870.7929     56.13804     149.8746         9     0.916     0.675  79.31   0
       524    211.8661    228.6133 307.8457355  +6.5887492     686.9451     1072.745       1213.2     79.32764     159.0996     318.3893      1.666     4.38     875.4839     56.13804      107.273         7     0.896     0.610  80.09   0
       525     18.6495    225.0349 307.9261158  +6.5837160     26414.15     39021.46     41182.42     79.70811      159.353     318.3893      1.570     3.28     881.7629     56.13804      3726.95        52     1.512     1.116 -87.02   0
       526    690.5914    226.4070 307.6469434  +6.6057354     3065.046     4401.626     4427.782     79.20041     159.0996      318.326      1.524     3.31     864.7642     56.13804     435.0016        23     1.326     0.895  88.81   0
       527    265.0494    225.9530 307.8237332  +6.5916372     1135.522     1723.443     1616.972     79.83453      159.163      318.516      1.643     4.53      873.041     56.13804     149.9224        12     1.153     0.741 -88.65   0
       528    499.1990    221.3418 307.7266218  +6.6014090     1984.602     2801.683     2674.256     79.20041     158.9093     318.1675      1.540     3.79     863.5088     56.13804     266.8378        16     1.233     0.825  82.03   0
       529    831.0703    217.9798 307.5888678  +6.6139167     2123.444     2922.807     2812.805     79.45467      159.163      318.421      1.415     3.42     862.8645     56.13804     342.3433        15     1.239     0.728 -74.24   0
       530    883.3779    217.0195 307.5671697  +6.6160623     2134.678     3090.968      3770.24     79.58149     159.2263      318.421      1.528     4.01     861.9359     56.13804     277.5511        17     1.339     0.785  80.83   0
       531    511.1141    217.1945 307.7218118  +6.6035209     2616.618     3763.057     3853.461     79.32764     158.9728     318.1992      1.473     3.58      863.575     56.13804     369.8549        16     1.241     0.761 -82.35   0
       532    742.6771    214.5279 307.6257050  +6.6123837     43099.52     59893.39     62839.17     80.08678     159.5427     318.4843      1.525     3.28     864.2532     56.13804     6377.776        63     1.479     1.121 -83.36   0
       533    630.6094    217.5195 307.6721602  +6.6073945      438.828      617.592     420.0971     79.45467     158.9093     318.3576      1.541     3.92      864.498     56.13804     83.41235         5     1.078     0.409  74.54   0
       534    345.7513    213.7911 307.7906200  +6.5993717     6097.968     11774.18     13091.93     79.32764     159.0996     318.1675      2.070     6.00     869.8933     56.13804      773.903        46     2.125     1.036 -79.29   0
       535    976.4850    213.3685 307.5286121  +6.6206807     3081.178     4054.044     4150.904     79.83453     159.0996     318.3893      1.401     3.21     859.6962     56.13804     426.2435        19     1.234     0.791  87.60   0
       536   1014.7729    212.0685 307.5127493  +6.6224959     1795.674     2582.224     2386.868     79.45467      159.163     318.3893      1.436     3.36     858.6212     56.13804     287.3179        15     1.231     0.724 -86.09   0
       537    910.6190    211.7443 307.5560298  +6.6191506     8015.248     11488.74     12045.02     79.32764     159.2896     318.2943      1.491     3.40     861.1622     56.13804     1236.555        31     1.375     0.934 -82.82   0
       538    454.0827    210.6991 307.7457223  +6.6042878     5229.905     7772.931     8431.396     79.83453     159.7953     318.5793      1.586     3.60     864.3999     56.13804     735.3926        29     1.412     0.972 -87.89   0
       539    228.8551    207.9636 307.8393758  +6.5978454      871.782     1318.603     1443.564     79.70811     159.2896      318.516      1.512     5.17     874.6099     56.13804     146.3129        12     1.355     0.692  79.43   0
       540    111.5079    201.8765 307.8883272  +6.5964064     5195.278     7633.033     7728.936     79.58149     159.4795     318.4843      1.561     3.17     877.9884     56.13804     707.8632        29     1.357     1.022 -77.14   0
       541    281.7872    198.6241 307.8177031  +6.6034819     35484.28     52748.17     55880.84     79.58149     159.0996      318.421      1.609     3.42     872.6676     56.13804     4958.962        62     1.565     1.143 -81.23   0
       542    257.0849    199.7174 307.8279276  +6.6021995     6758.974     10348.87     11254.69     79.58149     159.4795     318.5476      1.663     3.48     873.5042     56.13804     915.2316        35     1.487     1.048 -82.60   0
       543    607.8344    198.7341 307.6822536  +6.6143860     604.5273      1270.78     1144.381     79.70811     159.2896      318.516      2.278     5.29     863.8118     56.13804     116.7542        10     2.128     0.372  89.78   0
       544    710.8127    198.1077 307.6394944  +6.6180953      984.642     1431.518     1954.772     79.58149     159.0362     318.2626      1.820     4.99     863.8621     56.13804     136.6659        11     1.226     0.648 -81.76   0
       545    405.8489    194.1294 307.7663180  +6.6095080     52405.54     77620.46     81748.27     79.83453     159.2263      318.516      1.576     3.39     865.9073     56.13804     7430.455        79     1.577     1.213 -84.46   0
       546    161.7603    195.3102 307.8676746  +6.6008099     4271.362     6063.178      6000.01     79.83453     159.2896      318.516      1.519     3.46     875.9171     56.13804     594.3459        23     1.370     0.896 -81.14   0
       547    423.4322    194.8439 307.7589895  +6.6098037     1410.325     2090.965     2050.421     79.45467     159.2896     318.3576      1.579     3.84      864.991     56.13804     207.2839        17     1.312     0.817 -78.82   0
       548    309.8416    191.8222 307.8062786  +6.6072334     19033.11     28623.27     30112.56     79.45467     159.0996     318.2626      1.598     3.45     871.6158     56.13804     2586.671        48     1.507     1.119 -81.68   2
       549    317.5747    191.2270 307.8030863  +6.6077392     2011.074     3646.941     5031.122     79.32764     159.0996     318.3576      2.190     7.31     871.2502     56.13804     259.3527        27     2.138     0.892 -74.14   2
       550    745.1205    190.4073 307.6255006  +6.6224230     35396.31      50019.1     52341.68     79.45467     158.8459     318.2626      1.517     3.26     863.3494     56.13804     5438.404        59     1.518     1.059 -87.38   0
       551    693.3312    192.2924 307.6469523  +6.6199105     942.0425     1261.197     997.9615     79.83453     159.4162     318.4843      1.487     4.02     863.7275     56.13804     170.9358         7     1.027     0.451 -81.54   0
       552    793.3869    190.7867 307.6054361  +6.6238819     1275.508      1932.59     2466.999     79.70811     158.9728      318.421      1.619     3.46     862.3793     56.13804     190.4783        10     1.093     0.574 -81.71   0
       553     61.9224    187.5664 307.9094088  +6.6006423     9734.098     14409.62     14906.73     79.70811     159.2896     318.4526      1.587     3.41     879.9044     56.13804     1420.371        38     1.525     1.040  89.36   0
       554     32.5574    190.3946 307.9215111  +6.5984846     557.9322     809.8302     1047.968     79.20041     158.9728     318.1992      1.604     4.08     881.2884     56.13804     105.3677         5     0.986     0.483 -82.23   0
       555     95.9385    185.3997 307.8953519  +6.6026834     1606.958     2347.758     2608.378     79.07298     159.0362     318.1675      1.592     3.53     878.2119     56.13804     231.7993        14     1.165     0.808 -89.45   0
       556   1003.5487    184.5289 307.5183354  +6.6334903      1192.04     1820.677     2589.492     79.70811     159.2896      318.516      1.629     4.14     856.5859     56.13804     172.9609        14     1.209     0.784 -74.46   0
       557    971.4634    184.2686 307.5316740  +6.6325262     655.4979     882.2934     1089.812     79.83453      159.353     318.5476      1.613     4.47     857.8442     56.13804     95.04816         7     1.143     0.498 -88.26   0
       558    729.6682    178.6630 307.6323148  +6.6267540     654.5554     1058.373     1089.428     79.83453     159.2263     318.5476      1.610     3.87     863.1749     56.13804     114.3077         7     1.011     0.645 -79.74   0
       559   1004.7320    171.5070 307.5182803  +6.6389056     2309.987      3605.91     4307.902     79.70811     159.4162      318.516      1.843     7.37     855.4224     56.13804     370.7609        22     2.088     0.761  74.80   0
       560    578.7826    175.1203 307.6951174  +6.6231601     822.0365     1079.169     1200.034     79.45467     158.9728     318.3893      1.416     4.00     862.6073     56.13804     112.2701         9     1.111     0.569  85.35   0
       561    587.4240    168.4569 307.6917518  +6.6262007     978.6375     1552.118     1912.498     79.45467     159.2896     318.2943      1.775     5.06     862.4543     56.13804      136.122         9     1.182     0.612  79.31   0
       562     25.9784    163.6355 307.9251496  +6.6093090     4638.677     7448.754     8124.995     79.32764     159.0362     318.2309      1.756     4.03     881.6861     56.13804     689.3388        35     1.766     1.055 -83.10   0
       563    595.9096    166.5869 307.6882895  +6.6272572     2041.054     2899.501     3480.295     79.58149     159.0362      318.326      1.553     3.27     862.5499     56.13804        302.4        15     1.171     0.785 -84.62   0
       564    280.6835    164.9009 307.8193001  +6.6173661     32143.39     47638.91     50441.34     79.83453     159.7953     318.5793      1.565     3.32     873.3615     56.13804     4461.056        58     1.526     1.133 -83.46   0
       565    340.2470    166.6626 307.7944967  +6.6186419     1068.763      1656.56     1387.065     79.70811      159.163     318.5476      1.613     3.34     870.2826     56.13804     197.7242         9     1.103     0.563 -80.21   0
       566    712.3544    161.6471 307.6400797  +6.6331988     8647.895     12111.33     12522.35     79.83453      159.163      318.516      1.493     3.27     862.7006     56.13804     1249.122        31     1.384     0.925 -87.20   0
       567    189.7719    162.5462 307.8571457  +6.6152784     1000.894     1400.326     1436.662     79.58149      159.353     318.3893      1.593     3.61     874.5613     56.13804     156.8589        10     0.983     0.688 -82.95   0
       568    266.4131    159.7171 307.8254033  +6.6190259      960.984     1269.367     1139.518     79.45467     159.0362      318.326      1.445     4.75     873.5289     56.13804     128.8999         9     0.920     0.843  72.15   0
       569    123.1242    158.6111 307.8849649  +6.6146579     5027.065     7462.646     7825.263     79.45467     158.9728     318.2943      1.571     3.31     876.5295     56.13804     704.2904        28     1.327     1.009 -78.63   0
       570    419.3282    158.3877 307.7619235  +6.6247155     565.1979     730.0344     682.1609     79.32764     158.9093     318.2943      1.499     3.88     863.1847     56.13804     82.77045         5     1.008     0.429  14.68   0
       571    584.8163    156.6918 307.6932311  +6.6309701     621.2729     1027.325       1108.4     79.58149     159.0996     318.3893      1.498     3.56     862.0438     56.13804     129.4456         5     0.958     0.382 -85.79   0
       572    462.1098    155.9072 307.7442343  +6.6271764     1463.182     2151.453     1916.102     79.83453     159.7953      318.516      1.501     4.00     862.6636     56.13804      220.037        14     1.233     0.736  88.78   0
       573    393.7988    154.6779 307.7726543  +6.6253893     3957.626     6335.032     6594.409     79.07298     158.7188     318.2943      1.719     3.81     865.4667     56.13804     532.0892        30     1.545     1.045 -88.88   0
       574    650.9670    155.5806 307.6657868  +6.6336465     922.9337     1336.353     1109.103     79.32764     159.0996     318.2943      1.488     3.63      862.564     56.13804      144.719        10     1.071     0.688 -73.72   0
       575    358.2010    153.6164 307.7874784  +6.6246312      3381.64      4930.52     5113.159     79.45467     158.8459     318.1992      1.571     3.55      869.022     56.13804     446.1926        22     1.318     0.917 -72.88   0
       576    112.5408    153.5333 307.8895330  +6.6163974     1777.807     2736.209     2844.526     79.96075     159.2263     318.4843      1.592     3.97     876.7322     56.13804     233.7564        18     1.412     0.810 -77.27   0
       577    569.8032    153.5387 307.6995744  +6.6317683     588.7391     1050.235     1130.499     79.20041     159.0362     318.1992      1.455     2.40     861.7524     56.13804     107.8027         5     0.700     0.469  18.99   0
       578    748.3847    151.5623 307.6254500  +6.6385685     667.3759     1077.072     857.7355     79.58149     159.0996     318.2309      1.689     4.03     861.9065     56.13804     114.5627         7     1.004     0.462  80.17   0
       579    674.0966    151.3192 307.6563210  +6.6361808     825.8037     1251.795     1080.699     79.58149     159.6059     318.5476      1.516     2.93     862.4736     56.13804     156.4711         8     0.928     0.611 -63.28   0
       580   1005.4424    147.7140 307.5187828  +6.6487518     1690.286     2365.728     2163.308     79.83453      159.163     318.4843      1.528     4.19     853.9606     56.13804     247.0541        18     1.138     1.123  -3.79   0
       581    731.3027    148.1069 307.6326629  +6.6394230     514.5792     466.2414      164.289     79.83453     159.8584      318.421      1.007     2.54     862.0855     56.13804     127.6755         5     0.748     0.419  72.24   0
       582    210.0464    142.3243 307.8494066  +6.6243088     5689.153     8506.378     8881.795     79.70811      159.353     318.4843      1.582     3.43     873.9892     56.13804     821.7675        29     1.365     1.010 -84.70   0
       583     92.7724    142.2513 307.8981266  +6.6203885     2275.163     3309.251     3614.108     79.45467     159.4162      318.421      1.593     3.99     877.0823     56.13804     267.8887        19     1.339     0.860 -82.71   0
       584    671.8776    141.2958 307.6575800  +6.6402443     6770.914     9513.632     9710.606     79.58149     159.4795     318.5476      1.512     3.09     862.0825     56.13804     1038.822        30     1.359     0.976 -82.85   0
       585    819.9328    141.1297 307.5960755  +6.6452698     1135.673     1684.397     1833.189     79.83453     159.4162     318.4843      1.559     3.73     859.3696     56.13804     159.3038        12     1.118     0.717  88.69   0
       586    624.0219    138.5461 307.6775542  +6.6397756     9937.438     14628.98      16002.1     79.32764     159.2896     318.2943      1.588     3.43       861.79     56.13804     1491.359        41     1.559     1.038 -86.05   3
       587    627.5902    130.1323 307.6763548  +6.6433685     55686.49     81047.58     85174.06     79.32764     159.0996     318.3893      1.554     3.30     861.4684     56.13804      7672.43        72     1.533     1.145 -85.43   2
       588    258.8253    139.6058 307.8292346  +6.6270727     719.6611     987.1833     867.4167     79.32764     159.0996      318.326      1.447     4.73     873.5649     56.13804     127.0912         8     1.044     0.609 -84.12   0
       589     22.8546    137.6075 307.9273283  +6.6199480     965.4784     1617.502     1210.685     79.32764     159.0996     318.1992      1.776     4.86     881.3199     56.13804     147.9559        12     1.209     0.701 -81.21   0
       590    562.1712    137.2606 307.7032931  +6.6382322     612.3916     994.0867     1059.886     79.45467     159.2896      318.421      1.812     3.30     861.2651     56.13804     109.0688         5     0.839     0.468  48.00   0
       591    351.2499    134.2671 307.7910190  +6.6323851     3987.336     6419.354      6509.11     79.70811      159.163      318.421      1.742     3.68     869.6372     56.13804     575.3438        33     1.612     1.101 -69.72   0
       592    532.9590    133.6783 307.7155498  +6.6387310     1910.093     2806.081      2463.31     79.70811     159.2896      318.516      1.543     3.54     861.2333     56.13804     291.1288        17     1.288     0.804 -85.16   0
       593    997.4680    133.1471 307.5225842  +6.6544991     794.9521     1091.252     1599.876     79.70811     159.2263      318.421      1.405     4.41     853.7545     56.13804      114.809         8     1.191     0.465 -80.54   0
       594    693.6322    131.2382 307.6488803  +6.6451251     586.8964     919.0588     624.6598     79.45467     159.0362     318.2943      1.526     3.44     861.6072     56.13804     90.95544         5     0.761     0.449 -73.33   0
       595    306.7287    123.8218 307.8098671  +6.6352000     3667.484     5659.617     5991.388     79.45467      159.163     318.4526      1.641     4.01     872.3013     56.13804     459.6269        26     1.508     0.903 -76.75   0
       596    502.4317    121.6436 307.7286376  +6.6426746     561.2385     645.1511     441.8253     79.45467     159.2896     318.3576      1.422     4.28     861.3833     56.13804     101.0952         6     1.273     0.409 -60.31   0
       597    706.7510    118.3450 307.6438635  +6.6508871      899.795     1195.165     750.1842     79.83453     159.2896     318.5476      1.401     2.82     861.0577     56.13804     170.7911         8     0.894     0.574  83.61   0
       598    678.0734    117.3540 307.6558112  +6.6503355     1392.027     1977.578     1593.851     79.70811      159.353     318.4843      1.431     3.81     861.1288     56.13804     212.7499        12     1.055     0.814  81.18   0
       599      4.3500    106.8354 307.9360571  +6.6320264     735440.6      1547966      1678890     79.70811     158.9093     283.7543      2.149     7.21     881.9047     56.13804     61560.14       297     2.179     1.667 -85.26  28
       600    433.8220    105.0590 307.7577003  +6.6472172     4369.328     6513.322     7065.595     79.45467     159.2263      318.326      1.604     3.73     862.5237     56.13804      602.868        29     1.427     0.968 -83.92   0
       601    906.3077    100.5101 307.5615534  +6.6649269     4201.979     6131.851     6117.614     79.83453     159.7953      318.516      1.526     3.24      855.699     56.13804     640.9803        26     1.458     0.847  89.39   0
       602    888.2994    101.3744 307.5690064  +6.6639681     2225.441     3175.508     3299.099     79.96075     159.0362     318.3893      1.503     3.57     855.9952     56.13804      337.789        19     1.406     0.776  86.48   0
       603    586.2145    100.7964 307.6945319  +6.6540917     771.1844       1135.9     1016.697     79.45467     158.9728     318.3576      1.446     4.79      860.386     56.13804     115.7805         9     1.159     0.560  83.96   0
       604    598.5690     99.0979 307.6894563  +6.6552071     1713.486     2616.763     2553.782     79.83453     159.0362     318.5793      1.595     3.77     860.2769     56.13804     232.9941        17     1.312     0.824 -89.56   0
       605    397.2232     97.0382 307.7731757  +6.6492988     1955.646     2981.732     2804.883     79.45467     159.0362     318.2943      1.566     4.74     865.0081     56.13804     274.1877        19     1.465     0.855 -87.84   0
       606    244.2498     97.7160 307.8367045  +6.6438747     929.7435     1470.641     1662.766     79.83453     159.2896     318.5793      1.523     4.06     873.6331     56.13804     138.3553         8     1.011     0.608  56.94   0
       607    145.1734     93.6654 307.8780012  +6.6422107     3443.689     4942.495      5351.95     79.45467     159.2263     318.3893      1.552     3.61     874.0618     56.13804     475.8402        24     1.281     1.004  88.83   0
       608     26.9615     91.5230 307.9271822  +6.6391102     13272.18      19656.6     21390.22     79.70811      159.353     318.4843      1.602     3.47      879.668     56.13804     1901.313        40     1.454     1.078 -85.77   0
       609    692.1125    114.0614 307.6500892  +6.6521651      3494.02     5237.575     5161.064     79.96075     159.4795      318.516      1.529     3.65     860.9606     56.13804     536.0587        25     1.379     0.950 -78.02   0
       610    293.1883     91.9970 307.8165667  +6.6478822     1384.408     2112.748      2563.74     79.45467     158.9728     318.3576      1.463     3.97     873.0793     56.13804     185.5328        14     1.196     0.816 -72.46   0
       611    761.0000     86.3433 307.6224007  +6.6659146     671.1785     1197.146     1856.668     79.07298     158.9093     318.1358      2.674     3.62     858.7493     56.13804     118.0549         5     1.006     0.374 -83.39   2
       612    566.9476     90.9854 307.7028669  +6.6574956     695.3027     1008.914     1531.167     79.20041     159.2263     318.2309      1.456     3.24     860.2961     56.13804     103.7994         7     0.865     0.539  44.81   0
       613    553.8980     91.0756 307.7082854  +6.6570206     735.1678     1037.857      1255.46     79.45467     159.4795     318.4526      1.425     2.57     860.3638     56.13804     135.8128         6     0.730     0.560 -52.62   0
       614    156.5705     90.1283 307.8733861  +6.6440547     586.5789      625.033      218.293     79.70811     159.2896     318.4526      1.131     3.45      873.787     56.13804     112.2986         5     0.753     0.456 -71.27   0
       615    895.4576     87.6979 307.5664913  +6.6698535      645.075     790.6515     802.1885     79.58149     159.2263     318.6743      1.310     4.84      855.438     56.13804     99.72742         6     0.983     0.676  73.56   0
       616    828.6870     86.2426 307.5942819  +6.6682213     6720.662     9244.645     9856.021     79.83453      159.163      318.516      1.449     3.40     856.6341     56.13804     1015.877        24     1.318     0.843 -86.07   0
       617    773.8132     86.6542 307.6170667  +6.6662152     3477.697      4731.29     5134.763     79.20041     159.2263     318.2309      1.423     3.29     858.2693     56.13804     557.5339        16     1.228     0.711 -81.15   0
       618    418.7446     87.1210 307.7645690  +6.6541158     1022.709     1264.906      1492.08     79.96075     159.2896      318.516      1.432     3.97     863.2296     56.13804      165.624        11     1.064     0.792 -79.31   0
       619    919.1728     86.1312 307.5566908  +6.6712929     536.3824     852.3738     960.7626     79.45467      159.163     318.3893      1.640     4.39     854.9431     56.13804     91.73706         6     1.189     0.461 -61.78   0
       620    536.1255     84.8898 307.7158775  +6.6589779     1152.262      1709.95     2338.478     79.83453     159.5427      318.516      1.714     4.03     860.4474     56.13804      190.655        11     1.259     0.623 -74.08   0
       621     67.2045     83.3584 307.9107405  +6.6438376      3498.62     4957.984     5095.894     79.20041     158.9728     318.1992      1.517     3.37     876.6592     56.13804     466.7365        22     1.272     0.907 -78.46   0
       622     52.0354     84.4481 307.9170053  +6.6428763     977.5813     1361.182      1359.15     79.58149      159.353     318.4526      1.665     4.95     877.5775     56.13804     123.4276        10     1.108     0.625 -68.23   0
       623    655.8885     83.7084 307.6661600  +6.6634817     645.3671      930.356     1410.776     79.83453     159.7322     318.6109      1.489     4.12     859.8886     56.13804     96.27167         6     0.772     0.629 -70.66   0
       624    428.4573     82.8612 307.7606775  +6.6562006     994.8517     1457.634     1822.496     79.96075     159.2263      318.516      1.516     4.52     863.0015     56.13804     146.0029         9     1.187     0.489 -84.87   0
       625    591.1530     80.3949 307.6931670  +6.6626794     1325.203     2070.709     1526.559     79.20041     159.0996     318.1675      1.638     4.17     860.0367     56.13804     219.2333        14     1.356     0.810  85.16   0
       626      9.6169     78.7622 307.9348196  +6.6437927      2741.68     4004.322     4770.802     79.45467      159.163     318.2309      1.649     3.53     879.5686     56.13804     393.6677        21     1.282     0.929 -89.29   0
       627    768.4679     74.0996 307.6197094  +6.6712191     2147.028     3080.918     3753.372     79.83453     159.4162     318.4526      1.547     4.15     858.0838     56.13804     296.3384        15     1.295     0.731 -87.52   0
       628    409.1823     74.1397 307.7689795  +6.6591534     1186.755     1824.922     1749.732     79.45467     159.2263     318.2626      1.634     4.09     864.4252     56.13804     179.4995        14     1.303     0.705  84.24   0
       629     82.1736     74.6767 307.9048156  +6.6479261     874.0359      1123.19     1052.436     79.70811     159.2263     318.4526      1.477     5.10     875.6138     56.13804     115.7295         9     1.001     0.736  86.26   0
       630    660.2025     73.4283 307.6647135  +6.6678701     536.2592     1013.187     710.2164     79.32764     159.0362     318.2943      1.520     3.68     859.5063     56.13804     78.04425         5     0.996     0.390 -84.04   0
       631    106.0417     72.5874 307.8949707  +6.6495931     902.2797     1280.094     1490.161     79.20041     159.0996     318.2309      1.416     4.11     874.6699     56.13804     133.6236        10     1.025     0.643  69.87   0
       632    424.0255     67.5851 307.7630338  +6.6623579     2713.722      3869.65     4243.242     79.58149     159.0996      318.421      1.548     3.79     863.6035     56.13804     360.1742        18     1.381     0.775 -79.04   0
       633     95.0215     67.7294 307.8997132  +6.6512271     9836.714     14984.03     15387.38     79.45467      159.163     318.4526      1.601     3.60     874.9026     56.13804     1368.073        36     1.519     1.032 -86.27   0
       634    245.6596     67.0135 307.8371560  +6.6565963     714.5059     1265.275     1299.092     79.20041     159.2263     318.1992      1.888     4.58     873.3046     56.13804     127.0144         8     1.075     0.554  66.95   0
       635    637.7557     59.8382 307.6744968  +6.6727280     19373.24     28049.76     29847.14     79.58149     159.2263     318.3893      1.529     3.47     859.3064     56.13804     2850.198        48     1.476     1.055 -85.36   0
       636    261.7012     61.8427 307.8306661  +6.6592707     1541.705     2349.685     3682.955     79.83453      159.163     318.7059      1.943     3.92     873.1243     56.13804     213.4291        15     1.234     0.868  83.21   0
       637    667.3491     61.0669 307.6621601  +6.6732126     623.9785     745.9851     871.7956     79.70811      159.163     318.4843      1.296     4.19     859.0227     56.13804      91.3645         6     0.837     0.699  76.89   0
       638    537.5491     55.8948 307.7162627  +6.6709953     5264.027     7772.229     7543.409     79.70811     159.2263     318.7059      1.559     3.42     860.2316     56.13804      719.451        26     1.453     0.871 -83.79   0
       639    255.8085     55.9267 307.8333141  +6.6615146     2008.473     2975.052     4497.632     79.45467     158.8459      318.326      1.669     4.16     873.1041     56.13804     272.8574        18     1.381     0.839 -80.79   0
       640    773.6616     55.0503 307.6181917  +6.6792569      532.861     665.1318     608.8888     79.83453     159.2263     318.5476      1.347     3.48     857.2922     56.13804     116.3867         5     0.834     0.419 -72.31   0
       641    624.0778     50.2342 307.6805029  +6.6762342     3207.967     5471.574     6276.363     79.70811     159.2896     318.4526      1.898     5.06     859.2582     56.13804     513.5462        34     1.979     0.932  80.41   0
       642    443.1301     51.4680 307.7556400  +6.6696530     23947.66     34847.44     36521.08     79.83453     159.4162     318.4526      1.564     3.53     862.9066     56.13804     3367.985        52     1.521     1.097 -84.61   0
       643      5.1948     53.7187 307.9375046  +6.6539814     1110.084     1412.014     1050.455     79.45467     158.8459       293.64      1.359     5.05     877.3373     56.13804     164.9227        10     1.149     0.629 -80.50  16
       644    263.7361     51.7811 307.8301606  +6.6634927     9532.258     14501.23     15903.06     79.45467     159.2896      318.326      1.622     3.44     872.9893     56.13804     1350.462        37     1.433     1.084 -81.88   0
       645    921.0218     51.6085 307.5570809  +6.6856065      2106.49     3184.758     3433.003     79.45467     159.0996     318.2626      1.664     3.38     853.8646     56.13804     321.0439        16     1.233     0.760 -84.02   0
       646    323.5039     52.0603 307.8053202  +6.6653880     1009.038     1433.914     1425.313     79.58149     159.2896     318.5793      1.464     5.37     870.5849     56.13804     159.4182        13     1.451     0.677 -69.16   0
       647     28.8659     51.4687 307.9277469  +6.6557087     2471.608      3492.05     3672.726     79.83453      159.353      318.516      1.528     3.46     876.4255     56.13804     384.1697        20     1.327     0.884 -77.14   0
       648    556.2671     51.0028 307.7086507  +6.6736428     842.3055     1121.254     1342.533     79.20041     158.9728     318.2943      1.440     4.36     860.0448     56.13804     134.2736         9     1.120     0.596  81.99   0
       649    547.7301   1015.8867 307.6797251  +6.2750290     4311.605     6478.307     7024.645     79.96075     159.5427      318.516      1.624     3.51     893.1578     56.13804     617.2293        28     1.605     0.867 -84.38  19
       650    941.5806     41.5990 307.5488748  +6.6904257     1080.813     1496.351     1673.051     79.45467     158.8459     318.1992      1.443     5.09     852.5098     56.13804     172.7833        10     1.062     0.690 -80.29   0
       651    692.9896     41.0026 307.6521819  +6.6823546     1982.035     2883.537     3161.834     79.45467     158.9728      318.326      1.513     3.25     858.0464     56.13804     310.0073        15     1.245     0.710  89.79   0
       652     98.4352     40.8408 307.8992047  +6.6624417     540.0961     842.2171      451.507     79.58149     159.2896     318.2943      1.465     3.48     874.5968     56.13804     89.21344         5     0.787     0.444 -70.10   0
       653    204.1334     36.7436 307.8554308  +6.6676940      649.252      779.809     46.37728     79.96075     159.2263     318.4526      1.475     4.92      873.194     56.13804     106.7851         7     1.165     0.589 -86.80   0
       654    181.2300     33.8308 307.8650446  +6.6681251      11311.4     16622.61     17354.48     79.32764     159.0362     318.2309      1.544     3.31     873.1665     56.13804     1556.923        36     1.447     0.999 -81.97   0
       655    304.7567     46.6238 307.8132925  +6.6670017     1115.661     1787.304     2240.536     79.32764      159.163     318.2943      1.778     3.77     871.6998     56.13804     169.7864        13     1.152     0.753 -68.94   0
       656    525.3677     32.1939 307.7221222  +6.6803706     3008.208     4423.656      4159.03     79.20041     159.0996     318.2943      1.516     3.31     860.1182     56.13804     382.3929        20     1.264     0.868 -89.73   0
       657    926.7985     31.5860 307.5553526  +6.6940653      4489.59     6190.583     6270.654     79.45467     158.9728     318.2626      1.434     3.26     853.0983     56.13804     743.5256        23     1.324     0.840 -84.76   0
       658    727.6664     30.2802 307.6381347  +6.6879425      2157.96     3036.698     2917.988     79.96075     159.4795     318.4526      1.516     3.45     857.3505     56.13804     369.5612        18     1.318     0.760 -89.80   0
       659    544.9036   1008.2281 307.6811561  +6.2780959     8446.647     12486.32      13575.7     79.96075     159.0362     318.4526      1.599     3.33     892.9383     56.13804     1339.379        37     1.555     0.969 -83.30   3
       660    786.4372     27.4997 307.6138094  +6.6910580     633.5239     1059.043     858.6359     79.83453      159.163     318.7059      1.876     4.50      856.204     56.13804     102.0379         7     1.161     0.496  89.04   0
       661    710.9371     24.3397 307.6452853  +6.6898346     8108.666     11335.67     11907.12     79.83453     159.2263      318.516      1.490     3.31      857.225     56.13804     1301.996        31     1.368     0.954 -89.32   0
       662    631.2314     23.7086 307.6784233  +6.6874242     3988.019     5692.589     5766.863     79.96075     159.0996     318.4843      1.535     3.41      858.557     56.13804     573.2241        23     1.280     0.935 -85.76   0
       663    333.3110     22.9919 307.8022269  +6.6777174     1037.058     1650.247     1804.603     79.32764     158.9728     318.2309      1.722     3.46     869.5686     56.13804     139.1259         9     0.894     0.769  52.10   0
       664    752.2159   1015.3443 307.5948494  +6.2821014     7946.874     12172.82      12504.7     79.20041     159.2263     318.1992      1.653     3.49     889.2902     56.13804     1142.302        32     1.463     1.013 -88.85  16
       665    386.8000     21.7429 307.7800459  +6.6800312     621.6801     882.2924     453.7554     79.07298     158.9093     318.1358      1.638     5.32     866.8262     56.13804     86.00043         7     1.127     0.708  57.09   0
       666    517.8708   1017.2193 307.6920764  +6.2734777     1178.645      1715.96     1309.411     79.45467      159.163     315.8452      1.599     4.27     893.6389     56.13804     160.0784        15     1.205     0.916 -87.73  16
       667    678.3636     18.5681 307.6590134  +6.6911260     956.7339     1211.533     666.6481     79.45467     159.0362     318.2309      1.423     4.76     857.2786     56.13804     140.7687         9     1.141     0.563 -76.10   0
       668    298.0071   1014.5701 307.7834408  +6.2671904     15512.29     23440.04     25673.42     79.32764     159.0996     318.2626      1.640     3.56     892.5892     56.13804     2169.667        60     1.758     1.265 -61.57  16
       669    506.9170     16.5612 307.7303147  +6.6862047     1020.507     1293.723     1733.856     79.83453     159.2263     318.4526      1.407     3.79     860.0485     56.13804     147.7777        11     1.016     0.772 -58.51   0
       670    422.2063   1015.4016 307.7318525  +6.2710185     1012.164     1468.889     1240.475     79.20041     158.9728     318.2943      1.395     4.57     892.7526     56.13804     150.0884        10     1.113     0.663 -75.58   0
       671    813.4335   1014.5226 307.5694617  +6.2844882     1153.208     1710.583     1419.072     79.70811     159.2896     318.4526      1.620     5.23     888.7462     56.13804     155.6554        14     1.248     0.782  69.49   0
       672    269.2585   1012.3185 307.7954513  +6.2671536     924.0178     1414.181     1561.716     79.83453     159.2896     318.4843      1.709     4.56     892.6365     56.13804     119.9252         8     1.008     0.585 -84.14   0
       673    913.6034   1008.8629 307.5280640  +6.2901725     8356.014     13697.68     14395.22     79.20041     159.0362     318.2309      1.751     3.72     886.4873     56.13804     980.8279        40     1.554     1.158 -86.01   0
       674    887.2603   1005.0575 307.5391284  +6.2908634     11829.63      19430.6     21262.03     79.96075     159.2263      318.516      1.787     3.72     886.3556     56.13804     1557.115        51     1.617     1.302 -88.36   0
       675    991.7045     27.9986 307.5285045  +6.6977147     2014.737     3114.415     3629.664     79.32764     159.0362     318.1041      1.710     3.47     848.3906     56.13804     295.9172        17     1.252     0.787 -88.49   0
       676   1008.9081   1004.5561 307.4886401  +6.2951327     4638.586     7837.065     8289.972     79.83453     159.2263     318.6109      1.810     3.94     881.8351     56.13804     529.2347        31     1.501     1.127 -80.40   0
       677    599.9453   1005.3975 307.6584003  +6.2811093     1473.538     2201.024     2483.187     79.20041     159.0362     318.1675      1.504     3.75     891.6985     56.13804       241.88        14     1.305     0.651 -80.77   0
       678    531.3579   1004.0085 307.6869216  +6.2793837     4204.535      6587.88     7450.267     79.20041     159.0996     318.2309      1.666     3.41     892.9691     56.13804     610.4452        31     1.541     1.145  61.23   0
       679    640.9588   1003.1254 307.6414495  +6.2834212     1548.076      2383.79     1947.955     79.70811     159.2896      318.516      1.584     3.88     890.4199     56.13804     250.7847        18     1.356     0.924 -72.15   0
       680     66.1141   1002.2902 307.8801214  +6.2644579     1018.215     1290.016     1109.972     79.58149     159.7322     318.6109      1.496     5.21     891.9149     56.13804     161.4719        10     1.109     0.691 -78.95   0
       681    796.5421   1002.2654 307.5768856  +6.2889835     658.5349     874.6979     631.2272     79.96075     159.2263      318.516      1.355     3.56     888.7161     56.13804     98.51208         5     0.805     0.675  45.38   0
       682    484.6004   1000.4416 307.7064532  +6.2792880     2432.376         3450     3595.142     79.07298     158.9728     318.1358      1.549     3.47     893.3646     56.13804     323.5261        16     1.150     0.855  80.23   0
       683    918.9662    992.5921 307.5263826  +6.2970688     42037.93     68138.67     72426.69     79.32764     159.0996     318.2943      1.750     3.71     885.7545     56.13804     5448.083        73     1.675     1.282 -88.33   2
       684    916.1184    987.8251 307.5277247  +6.2989417     6090.615     6530.437     6831.149     79.58149     159.0362     318.4526      0.581     0.92     885.5562     56.13804     3629.186         7     0.463     0.432  73.73   3
       685     27.5604    994.9417 307.8963743  +6.2661926     240.7542     498.3374     584.0473     79.83453      159.353     318.5476      1.450     3.46     891.8661     56.13804     67.79529         5     1.761     0.197  54.26   0
       686    324.3307    993.5851 307.7732201  +6.2767379     697.3421      1047.28     818.7067     79.32764     159.2263     318.3893      1.729     4.48     892.5914     56.13804      136.351         8     1.287     0.444 -82.59   0
       687    226.4267    990.9891 307.8139519  +6.2745187     1711.991     2848.075     3260.791     79.45467     159.0996     318.3576      1.759     4.17     892.5698     56.13804     278.2105        16     1.290     0.983  81.97   0
       688    114.1037    989.9942 307.8606149  +6.2711499      635.775     814.6883     366.0807     79.58149     158.9728     318.2943      1.373     4.80     891.8556     56.13804     111.2477         7     1.208     0.541 -77.07   0
       689    625.2975    989.0499 307.6484244  +6.2887074      911.642     1381.157     1435.092     79.70811     159.2263     318.6426      1.663     4.95     890.5897     56.13804     124.9603        11     1.065     0.889 -46.11   0
       690    765.0406    984.4240 307.5905627  +6.2952954     6669.265     10608.11     11877.14     79.45467     159.0996     318.2626      1.753     3.95     888.1729     56.13804     987.6309        39     1.767     1.077 -79.36   0
