#   1 NUMBER                 Running object number                                     
#   2 X_IMAGE                Object position along x                                    [pixel]
#   3 Y_IMAGE                Object position along y                                    [pixel]
#   4 ALPHA_J2000            Right ascension of barycenter (J2000)                      [deg]
#   5 DELTA_J2000            Declination of barycenter (J2000)                          [deg]
#   6 FLUX_APER              Flux vector within fixed circular aperture(s)              [count]
#   9 FLUXERR_APER           RMS error vector for aperture flux(es)                     [count]
#  12 FLUX_RADIUS            Fraction-of-light radii                                    [pixel]
#  13 FWHM_IMAGE             FWHM assuming a gaussian core                              [pixel]
#  14 BACKGROUND             Background at centroid position                            [count]
#  15 THRESHOLD              Detection threshold above background                       [count]
#  16 FLUX_MAX               Peak flux above background                                 [count]
#  17 ISOAREA_IMAGE          Isophotal area above Analysis threshold                    [pixel**2]
#  18 A_IMAGE                Profile RMS along major axis                               [pixel]
#  19 B_IMAGE                Profile RMS along minor axis                               [pixel]
#  20 THETA_IMAGE            Position angle (CCW/x)                                     [deg]
#  21 FLAGS                  Extraction flags                                          
         1    697.8235     17.8264 307.6453149  +6.6898913      8432.49      11604.7     11724.85     80.24472      161.003     322.0701      1.440     2.94     893.9778     56.78703     1478.878        29     1.278     0.997 -77.01   0
         2    617.9987     17.0573 307.6785067  +6.6875358     4237.113     5762.077     5664.398     80.11603     160.8106     321.8778      1.426     3.03     895.5914     56.78703     678.3035        21     1.215     0.921  89.08   0
         3    418.2021     13.1695 307.7616486  +6.6824409     6814.652     9599.546     9740.857     80.11602     160.9389      321.974      1.457     3.08     901.4098     56.78703     997.5322        31     1.318     1.066  85.54   0
         4     19.2159     12.7937 307.9274234  +6.6691747     9287.221     13462.25     13833.54     80.37322     160.8748      322.006      1.516     3.04     913.5789     56.78703     1301.969        35     1.376     1.039 -81.36   0
         5    665.3096     12.2496 307.6590115  +6.6911053     931.1883     1294.146     1218.627     80.75748     160.9389     322.3263      1.380     2.66     894.8241     56.78703      157.017         7     0.788     0.597 -74.19   0
         6    493.9435     10.2382 307.7302788  +6.6861927     994.4858     1416.058     1015.892     80.75748     161.1952     322.1662      1.472     3.95     898.6323     56.78703     166.1755        12     1.196     0.726 -89.22   0
         7    314.7749      8.1482 307.8047889  +6.6810402     14066.54     20429.62      21664.4     80.37322     161.1311     321.1396      1.540     3.21     910.0718     56.78703     2092.587        39     1.415     1.085 -80.99  16
         8    409.7220      8.9448 307.7653143  +6.6839005     793.3806     1134.214     1739.266     80.88515     161.1311     322.1982      1.568     4.03     902.0714     56.78703     146.2588         9     1.133     0.734 -88.19   0
         9     88.4036      8.3545 307.8988298  +6.6733388     2768.486      4050.76     4530.183     80.11603     160.8106      321.525      1.524     2.99     911.0946     56.78703     416.8929        20     1.240     0.900 -77.38  16
        10     79.6401      7.5997 307.9024961  +6.6733552      1680.21     2266.398     2344.366     79.72868     160.8106     318.3317      1.445     3.44      911.345     56.78703     257.0967        14     1.054     0.916 -81.25   0
        11    783.3749      7.0408 307.6101316  +6.6972067     917.3844     1078.625     1262.198     80.37321      161.003     314.6145      1.289     3.69     891.9207     56.78703     163.8772         9     1.052     0.657  86.75  16
        12    380.8960      5.9604 307.7773914  +6.6841647     2571.603     3704.237     3207.588     80.75748      161.003     305.2925      1.506     3.54     904.5977     56.78703     389.0137        20     1.283     0.913  80.35  16
        13    641.8250      2.0900 307.6691109  +6.6945136     11763.52     13979.17     14185.08     78.55518     139.1364     254.7302      1.252     2.87     894.8642     56.78703     2067.681        20     1.062     0.854 -43.29  24
        14    976.0631      3.1518 307.5302004  +6.7052498     781.6496     996.6642     549.7112     80.62959     151.7649     270.7926      1.362     2.97     885.8808     56.78703     124.0809         8     0.822     0.648 -50.03  16
        15     59.7571      2.2338 307.9109381  +6.6749008     789.7823     1107.596     1129.295      79.4694     141.2708     256.9888      1.506     4.63      911.687     56.78703     120.1106         7     1.021     0.689  55.73  24
        16    806.5765      1.6247 307.6006734  +6.7002187     1543.924     1774.486     1613.615     73.67448     132.5269     247.1639      1.052     2.13     891.4467     56.78703      361.441        11     0.889     0.706   8.94  24
        17    519.6215      1.8302 307.7198933  +6.6905254     1248.301     1450.916     1163.319     75.88244     135.5296     250.5229      1.148     2.53     897.4177     56.78703      236.566         9     0.840     0.680 -25.70  24
        18    240.9308      1.3339 307.8356986  +6.6813711     681.0292     958.8231     1175.502      70.2325     128.1728     242.3576      1.280     2.03     912.0244     56.78703     241.4858         5     0.736     0.618 -42.12  24
        19    627.7020    996.8061 307.6415349  +6.2833366     1581.471     2183.765     2119.827     80.50151     160.7464     321.9419      1.524     3.23     928.2609     56.78703     226.0514        14     1.054     0.841 -57.81   0
        20    945.9271   1022.9759 307.5085428  +6.2831660     6123.386     8249.077     7977.492       77.763     138.3181     253.8781      1.402     3.20     921.5902     56.78703     895.7179        25     1.307     0.949   8.75  24
        21    705.6335   1021.6771 307.6083461  +6.2756750     2959.435     4159.481     4320.401     80.62959     153.5226     273.2584      1.447     3.30     926.8095     56.78703     442.4762        20     1.195     0.971 -80.74  24
        22    700.7839   1023.5890 307.6102953  +6.2747235     649.2659     967.0601      1453.49     71.10862     128.9753     243.6316      1.432     2.99     926.9785     56.78703     147.8879         5     0.812     0.573  45.50  24
        23    428.7107   1022.4916 307.7232819  +6.2660645     1083.107     1417.679     1182.958     80.75748     145.0195     261.4474      1.468     3.46     930.5251     56.78703     164.4398        10     0.973     0.878 -45.97  24
        24    230.4623   1023.1667 307.8055583  +6.2591310     1427.085     1940.585     1847.579     76.01831     135.8338     250.7699      1.342     2.46     930.5707     56.78703     231.8299        11     0.861     0.754  12.00  24
        25    471.2461    993.9728 307.7065834  +6.2792657     2433.176     3348.177     3402.965     80.24472     161.1952     322.0701      1.402     2.81     930.2043     56.78703     382.0635        18     1.153     0.895 -75.19   0
        26     53.0042    995.9355 307.8801444  +6.2644063     1003.347     1209.992     1089.876     79.98711     160.8106     321.9419      1.245     4.54     930.5882     56.78703     156.1088         8     0.985     0.614 -60.03   0
        27    783.4910    995.0093 307.5769177  +6.2892889     610.1658     578.7943     280.0864     80.37322     160.8106     321.9099      1.272     3.65     924.3489     56.78703     111.6125         6     0.795     0.498 -86.16   0
        28    905.8122    985.8605 307.5264404  +6.2971520     46213.67     69880.17     73322.14     80.11602      161.003     321.8778      1.593     3.06     921.8211     56.78703      6711.79        72     1.494     1.283  85.08   0
        29    310.4381    988.3774 307.7735305  +6.2761809     1166.545     1531.955     1682.581     80.37322     160.8748      321.974      0.972     0.53     930.3832     56.78703     726.9017         6     1.161     0.228 -52.71   0
        30    213.1115    983.9724 307.8140831  +6.2747304     1889.051     2755.238     2495.381     80.88515     160.8748     322.0701      1.493     3.32     930.4501     56.78703        305.7        17     1.213     0.888  74.95   0
        31    101.5242    983.3200 307.8604287  +6.2712476     745.1184     1002.967     524.3928     81.01263     161.3871     322.2943      1.295     3.45     930.3312     56.78703     106.4785         9     0.883     0.767 -73.98   0
        32    612.0915    982.1924 307.6485067  +6.2888479     1111.372     1398.813       1124.6     80.37322     160.8106     321.9419      1.320     3.17     928.2955     56.78703     165.3145        10     0.892     0.758  61.76   0
        33    751.9216    977.5381 307.5906104  +6.2954474      7356.77     10409.29     11462.02     80.88515     161.1952     322.1982      1.528     2.84     924.7615     56.78703     1088.277        34     1.529     1.057 -79.29   0
        34    803.8330    979.5910 307.5689895  +6.2963348     2558.973     3647.422     3796.843     80.24473     160.9389      322.006      1.536     3.11     923.7889     56.78703     409.2858        20     1.142     1.041  86.24   0
        35    538.5180    977.0424 307.6792246  +6.2885104     1103.895     1447.272      1138.78     80.75748     161.1311     322.1021      1.372     4.79     928.7521     56.78703     142.7495         9     0.914     0.713 -22.60   0
        36    221.4207    976.5881 307.8108827  +6.2780585     1571.701     2132.806     1717.679     80.37322     160.8106     322.0701      1.361     3.61     930.4413     56.78703     261.0208        13     1.089     0.828  78.67   0
        37    185.8962    976.2674 307.8256412  +6.2769968     896.6863     1254.487     1351.323     80.75748     161.1952     322.1662      1.327     5.01     930.3488     56.78703      132.854         9     1.217     0.584 -69.14   0
        38     46.3814    974.6093 307.8836143  +6.2729883     2948.227     4372.395     4646.402     80.50151     160.8748      322.006      1.587     2.87     930.2955     56.78703       477.72        21     1.201     0.982 -50.74   0
        39    940.1378    972.7277 307.5126291  +6.3037201     7073.314     10557.42     10788.68     80.88515     161.1311     322.2303      1.596     3.17     920.4268     56.78703     959.7941        34     1.345     1.125  89.22   0
        40    196.4384    968.8089 307.8215163  +6.2804307     552.1003      715.178     407.1422     79.98711     160.9389     321.8778      1.102     2.06     930.3317     56.78703     126.2865         5     0.683     0.454 -66.88   0
        41    622.3923    966.8947 307.6447442  +6.2955090      822.408     965.1498     672.3767     80.50151     160.7464      321.974      1.380     4.15     927.5544     56.78703     112.2949         8     1.020     0.578 -68.82   0
        42    913.9604    964.4374 307.5237752  +6.3062695     2307.783     3358.006     3240.253     80.50151     161.0671     322.0381      1.488     3.43     920.9932     56.78703     352.3419        18     1.245     0.876 -85.55   0
        43    773.3942    960.8796 307.5822545  +6.3030434     1495.386     2002.184     1975.437     80.37322      160.618     321.9419      1.363     3.64     924.1212     56.78703     237.4332        15     1.142     0.859 -58.67   0
        44    634.7344    960.2426 307.6398437  +6.2986686     5016.349     6810.626     6642.385     80.75748     161.0671     322.1982      1.434     2.95     926.9728     56.78703     809.2209        23     1.187     0.972  89.21   0
        45    246.8652    960.4050 307.8008655  +6.2855950     4780.063     6656.861     6830.197     80.24473     160.8106     321.9419      1.436     2.78     930.4081     56.78703     819.4928        24     1.253     0.918 -71.49   0
        46    984.0884    960.2072 307.4948009  +6.3103560     711.4646     969.4847     1086.012     80.24472     160.8106     321.9099      1.367     3.89     918.7426     56.78703     108.7383         7     0.868     0.590 -25.03   0
        47    456.8361    958.4946 307.7137596  +6.2934309     1226.363     1543.299     1065.494     80.88515      161.003     322.2623      1.296     3.31     929.5811     56.78703     235.4358        11     1.076     0.708  84.30   0
        48     15.6205    957.7785 307.8969528  +6.2789016     2318.969     3163.273     3459.352     80.50151     161.0671     322.1021      1.492     2.90     930.0733     56.78703     406.3505        20     1.153     0.994  73.17   0
        49    866.4836    956.8419 307.5437411  +6.3078206     969.0232     1415.711     1697.365     80.75748     161.0671     322.1021      1.624     4.08     922.2321     56.78703     141.6176        11     0.990     0.892 -46.58   0
        50    958.4117    954.6379 307.5056479  +6.3117990     637.3997     770.1838     539.6526     80.24473     160.9389     321.8458      1.404     4.04     919.3973     56.78703     106.0957         5     0.951     0.491 -87.20   0
        51    938.1504    953.5820 307.5140955  +6.3115589     735.4709     1124.515     1257.098     80.24473     161.1952      321.974      1.794     3.70     920.0191     56.78703      125.732         7     1.030     0.571  79.11   0
        52    282.9677    953.8511 307.7860985  +6.2895137      990.045     1321.059     1570.524     80.62959     161.1952     322.1021      1.323     2.95     930.3954     56.78703      172.673         8     0.836     0.622 -41.29   0
        53    990.5966    952.2067 307.4923666  +6.3138765     941.7468     1572.458     1822.193     80.11603     160.8106     322.0381      1.755     5.41     918.2139     56.78703     153.2596        10     1.280     0.644 -72.87   0
        54    559.4543    952.6744 307.6713520  +6.2992729     2060.293      2701.82     2671.139     80.62959     161.1311     322.1342      1.394     2.76      928.229     56.78703     311.0498        15     0.973     0.916  69.16   0
        55    598.7761    949.2192 307.6551429  +6.3020163     1337.303     1923.729     1542.968     80.50151     160.9389     322.1021      1.430     3.41     927.5469     56.78703      268.247        13     1.193     0.759  62.39   0
        56     48.4229    949.4858 307.8836157  +6.2834298     770.8986     964.0346     1014.908     80.75748     160.9389      322.006      1.172     2.85     929.9142     56.78703      147.668         6     0.882     0.410  69.32   0
        57    278.4174    946.7152 307.7882281  +6.2923071     1654.377     2450.031     3011.294     80.37322     160.8748     322.1021      1.615     3.81     930.3776     56.78703      248.032        17     1.332     0.874 -79.95   0
        58    546.8916    944.8080 307.6768321  +6.3021000     687.9786     870.2554     652.3541     80.37322     160.8106     321.9419      1.375     3.81     928.3261     56.78703      107.465         8     0.845     0.755 -10.61   0
        59    745.6319    942.9510 307.5943824  +6.3095179     1009.529     1194.707     1152.599     80.50151     161.1311     322.1021      1.282     3.49     924.1436     56.78703     172.4961        10     0.949     0.790 -79.98   0
        60    882.8434    939.5389 307.5375287  +6.3155111     7551.995     10708.77     10480.64     80.75748     161.1311     322.2943      1.507     3.06     921.2045     56.78703     1111.113        30     1.311     1.059 -88.75   0
        61    121.0314    940.9730 307.8537605  +6.2893878     605.1708      736.116     833.6961     80.24473     160.8748      321.974      1.436     4.35     929.8344     56.78703     111.3219         6     1.166     0.462  56.05   0
        62    587.7501    936.6757 307.6601421  +6.3068262     615.0763     1101.105     1093.851     80.62959     161.1952     322.1662      1.949     6.09     927.4422     56.78703     81.71979         7     1.288     0.811  80.15   0
        63    418.6974    936.7115 307.7303266  +6.3011458     2427.686      3363.99     3384.234     80.75748     161.5788     322.1982      1.467     2.85     929.6362     56.78703     417.5126        17     1.208     0.812 -75.66   0
        64    320.4432    935.0410 307.7711743  +6.2985384     10840.55      15231.3     15929.07     80.50151     161.1311     322.0381      1.456     2.66     930.2692     56.78703     1821.047        35     1.296     1.072 -73.10   0
        65    240.4803    933.9177 307.8044094  +6.2963165     8214.457     11041.18     10994.66     80.75748     161.3871     322.2623      1.432     2.80     930.3406     56.78703     1381.566        31     1.243     1.055 -82.70   0
        66    159.3741    932.7043 307.8381218  +6.2940912     556.8759      620.563     691.9042     80.88515     160.8748     322.0381      1.097     4.05     929.8374     56.78703     111.4158         5     1.140     0.412 -52.05   0
        67    568.5243    928.7025 307.6683923  +6.3094744     1444.471     1942.602     1984.259     80.37322     161.3871     322.1982      1.411     3.28     927.6827     56.78703     226.8188        12     1.080     0.738 -59.68   0
        68    753.1805    928.0445 307.5917485  +6.3159250     863.5005     1030.857     1332.077     80.37322      161.003      322.006      1.224     3.13       923.78     56.78703     127.0159         8     0.830     0.631 -45.20   0
        69    898.7664    924.7073 307.5314147  +6.3221666     1145.708     1648.789     1281.257     80.88515      161.003     322.2303      1.613     3.71     920.3372     56.78703     156.0112        12     0.981     0.847  89.46   0
        70    855.1330    923.7234 307.5495639  +6.3211160       828.08     1261.622     1151.037     80.88515     161.1952     322.1342      1.540     4.46     921.4749     56.78703     147.0448        10     1.159     0.885  17.57   0
        71    202.3190    924.5184 307.8205694  +6.2989148     643.4672     782.6667     793.8327     80.75748     161.3871     322.2623      1.239     3.30     930.1237     56.78703     139.3405         5     0.745     0.423 -25.68   0
        72    131.0229    924.3389 307.8501742  +6.2965917     713.5712     861.7096     259.6397     80.37321     161.0671     322.0701      1.308     3.42     929.7061     56.78703     117.5991         7     0.727     0.684 -22.83   0
        73    397.6829    922.9857 307.7395133  +6.3061081     681.6542     905.8494      1490.49     80.37321     160.8748      321.974      1.375     3.39     929.6199     56.78703     100.5122         7     0.749     0.649 -68.95   0
        74    966.2039    920.1221 307.5035685  +6.3263104     857.5555     1248.745     1236.271     80.37322      160.618      321.974      1.325     3.18     917.9348     56.78703     136.2705         6     0.757     0.548  54.16   0
        75    827.7323    918.9704 307.5610998  +6.3221632     602.1721     917.4426     944.8045     80.50151     161.1311     322.1342      1.675     5.04     922.2362     56.78703     93.99963         8     1.137     0.651 -86.55   0
        76    735.1049    917.7556 307.5995986  +6.3195689     2006.626     2614.806     3198.689     80.75748     161.0671     322.2943      1.372     2.90     923.6782     56.78703     350.6779        14     1.066     0.803 -80.85   0
        77    558.9002    917.9774 307.6727485  +6.3135803     826.6971     1117.924     861.9334     80.88515     160.8748     321.9419      1.329     2.81     927.4547     56.78703     195.5939         7     0.903     0.570 -72.17   0
        78    966.4383    913.5532 307.5036912  +6.3290305      1421.84     2162.733      2598.47     80.62959     161.0671      322.006      1.824     3.49     917.6885     56.78703     186.2759        15     1.125     0.885 -44.12   0
        79    598.9828    914.4293 307.6562263  +6.3163876      861.433     1265.613     998.0585     80.37322     160.8748     322.1021      1.416     3.12      926.264     56.78703       147.59         8     0.850     0.716  83.94   0
        80    520.0239    913.5337 307.6890386  +6.3141126     1411.066     1699.571       1434.8     80.37322     161.1311     322.1021      1.351     3.42     927.9829     56.78703     235.4205        12     1.134     0.680 -70.82   0
        81    610.4713    913.7656 307.6514787  +6.3170463     642.0557     752.2751     670.5501     80.62959     161.0671     322.1662      1.240     4.12     925.9848     56.78703     118.5959         7     0.980     0.495  85.71   0
        82    653.5577    911.0163 307.6336823  +6.3196236     2810.223      3852.56     4040.521     80.24472     160.9389     321.9419      1.422     2.72     924.8812     56.78703     449.3996        18     1.139     0.859 -75.35   0
        83    943.8310    908.8197 307.5132362  +6.3302307     674.9187     933.5667     1526.788     80.24472     160.9389     322.0381      1.411     3.83     918.3709     56.78703     109.6134         6     0.748     0.580  43.24   0
        84    814.4108    907.4352 307.5670177  +6.3264809     925.0706     1321.556     1337.994     80.24473     160.9389     321.9419      1.400     2.80      922.306     56.78703     160.0242         6     0.818     0.492 -89.88   0
        85    551.1313    907.9019 307.6763128  +6.3174801      599.382     697.7448     454.0256     80.75748     161.2592     322.1342      1.348     3.35     927.2595     56.78703     138.5474         7     0.901     0.482 -45.95   0
        86    931.9652    906.6085 307.5182370  +6.3307477     755.6255     1042.579     801.1887     80.24472     160.9389      321.974      1.533     4.04     918.7758     56.78703     120.6403         6     0.930     0.515 -75.11   0
        87    193.6557    906.1255 307.8247866  +6.3062176     2399.848     3506.561     3502.156     80.62959     161.0671     322.1021      1.491     3.01     930.0081     56.78703     404.1353        19     1.127     0.964 -78.53   0
        88     67.7897    906.3306 307.8770337  +6.3018992     2120.331     2876.192     2806.415     80.24473     160.9389      322.006      1.481     3.26     929.5071     56.78703     303.1591        16     1.178     0.838 -76.79   0
        89     50.1992    907.1466 307.8843089  +6.3009702     3228.545     4642.379     4572.514     80.11602     160.8106     321.7175      1.517     3.03     929.5122     56.78703     459.5745        23     1.385     0.868 -77.94   0
        90    648.1096    900.1418 307.6363095  +6.3239313     7903.881      10812.6     11411.07     80.62959     161.1311     322.2943      1.426     2.92      924.581     56.78703     1193.388        32     1.285     1.036 -89.43   0
        91    332.9202    902.5854 307.7670881  +6.3123576     1076.139     1432.575     1610.196     80.37321     160.8748      321.974      1.379     2.94     929.9458     56.78703     181.2586        11     0.984     0.702 -73.97   0
        92    228.0153    902.6596 307.8106387  +6.3088034     887.6922     1158.037        755.7     80.24472     161.0671     321.9099      1.343     4.81      930.183     56.78703     149.5182        11     1.185     0.909  53.45   0
        93    785.8617    901.1415 307.5790822  +6.3281255      809.857     883.3804     657.9167     80.88515     161.0671     322.1982      1.145     2.24     922.7036     56.78703      173.283         6     0.732     0.539 -45.89   0
        94      8.1222    898.5303 307.9020684  +6.3031109     1336.695     1556.526      1032.94     81.01263     161.3871     321.1075      1.363     3.06     929.4719     56.78703     192.8522        10     0.975     0.747 -59.17   0
        95    886.0199    896.4240 307.5376548  +6.3334191     3069.365     4312.062     3915.854     80.50151     160.9389     322.1021      1.477     2.80     919.6455     56.78703     481.1855        21     1.154     1.003 -68.46   0
        96    437.5840    897.5555 307.7238036  +6.3179461     645.7085     947.1218     836.1614     80.24473      161.003     321.9419      1.812     4.70     928.5405     56.78703     87.45917         7     1.106     0.567 -51.13   0
        97     21.1739    896.8517 307.8967067  +6.3042434     1430.999     2150.505     1773.601     80.37322     161.2592     322.0701      1.515     3.40     929.4618     56.78703     215.9663        14     1.036     0.917  89.93   0
        98    761.1010    897.0947 307.5894986  +6.3289687     631.7988     746.7271      556.304     80.75748     161.6427      322.006      1.236     3.92     922.8678     56.78703     102.2593         6     0.776     0.566  55.10   0
        99    331.1533    893.2509 307.7681362  +6.3161523     18539.93     25634.97     26860.99     80.88515      161.003     322.2303      1.436     2.79     929.8456     56.78703     2670.171        41     1.338     1.073 -86.32   0
       100     65.9171    894.2426 307.8782196  +6.3068270     1407.296     1940.231     2076.995     80.75748     161.1311     322.1021      1.436     3.77     929.4467     56.78703     231.9937        17     1.253     0.925 -51.90   0
       101    381.8239    892.7883 307.7471145  +6.3180440     782.0027     996.4439      945.957     80.37322     160.9389     322.1021      1.384     5.50     929.2063     56.78703     113.9277        10     1.091     0.782 -46.70   0
       102    202.1381    892.5330 307.8217236  +6.3121148     1501.144     2117.049     2504.666     80.75748     161.0671     322.1662      1.585     3.30     930.0132     56.78703     203.0164        14     1.049     0.885  56.08   0
       103     94.4087    884.0009 307.8667370  +6.3120143     1881.276     2594.994     2538.884     80.11602     160.8106     321.9419      1.469     3.25     929.3962     56.78703     349.6301        16     1.144     0.928 -65.38   0
       104    409.0943    884.1462 307.7360834  +6.3225271     1112.147     1242.536     786.2802     80.62959     161.0671     322.3904      1.189     2.27     928.4713     56.78703     213.6735         8     0.775     0.622 -56.91   0
       105    662.5535    880.5460 307.6309708  +6.3325055     1002.486     1552.585      1925.63     80.75748     161.1311     322.1982      2.134     4.52     923.6647     56.78703     147.5066         8     0.930     0.673 -59.64   0
       106    489.4911    880.5772 307.7028240  +6.3266966     858.2285     954.9929     1131.725     80.75748     160.9389      322.006      1.274     4.58     927.7057     56.78703     119.2352         8     1.000     0.597 -51.70   0
       107     72.7457    881.5650 307.8758129  +6.3122910     577.9433     844.2885     905.1859     80.62959     161.1311     322.1982      1.392     3.52     929.3861     56.78703     95.10974         5     0.755     0.474  14.26   0
       108    876.3002    878.1166 307.5423040  +6.3406536     2133.688      3222.04     3055.016     80.75748     161.6427     322.2623      1.521     3.00     919.3154     56.78703     356.5857        20     1.173     1.000  85.48   0
       109    847.0073    877.6234 307.5544832  +6.3398790     2326.432     3322.462     2928.658     80.24472     160.9389      322.006      1.418     2.62     920.2313     56.78703     394.9413        18     1.299     0.854 -88.72   0
       110     78.7644    876.8227 307.8734744  +6.3144515     2406.337     4668.286      4586.67     80.24472     160.8748     321.9419      1.923     7.79     929.3609     56.78703      981.002        20     1.813     0.937 -43.83   0
       111    810.3438    876.9407 307.5697290  +6.3389360      3403.97     4761.009     4971.539     80.88515     161.1311     322.1982      1.474     2.87     921.4125     56.78703     519.5339        21     1.151     0.969  85.77   0
       112    546.2638    868.4719 307.6796596  +6.3335972       385468       517338     537219.4     80.75748     161.1311     322.1982      1.419     3.10     925.8639     56.78703     57577.71       155     1.464     1.247 -84.78   4
       113    390.5737    871.0556 307.7442137  +6.3273106     8819.346     11988.77     12636.37     80.37321     161.1952      322.006      1.417     2.73     928.5595     56.78703     1580.146        30     1.266     0.991 -70.01   0
       114    634.0853    871.4819 307.6430952  +6.3352953     1393.699     1787.507     1877.887     80.50151     161.3871     322.2303      1.353     3.17     923.5649     56.78703     254.5942        11     1.081     0.654 -76.90   0
       115    333.7023    869.4048 307.7678814  +6.3260834     14299.83     19585.91     20689.38     80.50151     160.8106     321.8458      1.458     2.73     929.5663     56.78703     2306.419        35     1.321     1.015 -87.50   0
       116    884.6141    864.6570 307.5393031  +6.3464886      5742.86     8266.014     9290.294     80.11603      161.003     321.8458      1.537     2.90     918.5995     56.78703     856.9972        28     1.319     1.019 -87.73   0
       117    652.1183    865.8538 307.6357970  +6.3382226     4089.916     5636.499     5443.608     80.75748     161.1311     322.2303      1.420     2.96     923.2267     56.78703     626.7354        24     1.171     1.047 -88.07   0
       118    723.8539    862.2242 307.6061339  +6.3421211     885.5724     1292.493     1195.323     80.24473     161.1311      321.974      1.573     3.45     922.3909     56.78703     140.6609         8     0.885     0.848  25.71   0
       119   1018.1183    858.8727 307.4840638  +6.3533316     4980.856     7505.573     7600.267     81.01263      161.451     313.5632      1.575     3.28     913.4221     56.78703     708.1542        27     1.294     1.075  69.88  16
       120    626.8049    859.8061 307.6465104  +6.3398724     4075.464     5510.739     5945.702     80.11602     160.8748      322.006      1.451     2.93     923.2657     56.78703     702.7179        21     1.248     0.889 -81.93   0
       121    815.2490    859.1890 307.5682877  +6.3464295     1702.201     2312.281     2177.352     80.11603     161.0671     321.8458      1.466     3.44     920.6113     56.78703     267.2834        18     1.179     0.979 -80.96   0
       122    169.9274    859.5711 307.8362089  +6.3246410     749.2048     747.1302     181.2467     80.62959     161.1311     322.1342      1.102     2.94      929.825     56.78703     155.7087         6     0.965     0.448  55.27   0
       123    617.4404    858.8563 307.6504304  +6.3399510      1005.27     1540.419     1373.924     80.75748     161.1952     322.1982      1.509     3.47     923.3259     56.78703     172.9636         8     1.004     0.622  82.88   3
       124    619.9359    854.3848 307.6495446  +6.3418808     2470.155     3516.476     4317.637     80.24472      161.003     322.0381      1.522     3.59     923.2292     56.78703     408.1594        18     1.203     0.883 -84.73   2
       125    326.3102    875.6354 307.7707406  +6.3232628     749.4761     1243.524     1866.369     80.88515     161.0671     322.1662      2.003     3.33     929.6909     56.78703     119.2786         8     0.809     0.790  20.82   0
       126    942.3541    857.6042 307.5155650  +6.3513280     766.3781     1144.118     863.9749     80.11603     160.8748     321.8458      1.374     4.96     916.4497     56.78703     137.8223         7     1.036     0.672  48.57   0
       127    542.4337    853.9052 307.6817398  +6.3394833     509.2109     981.5911     2659.311     80.88515      161.003     322.2623      5.071     5.01     925.3742     56.78703     87.15826         5     1.437     0.495  89.01   1
       128    164.0571    854.9139 307.8388034  +6.3263664     477.9629     581.5952     258.9529     80.75748     161.1311     322.3263      1.488     3.80     929.8088     56.78703     98.43024         5     1.011     0.410 -45.83   0
       129    903.4642    852.3517 307.5318887  +6.3521987     3477.531     5098.798     4616.364     80.62959      161.003     322.1662      1.568     2.97      917.559     56.78703     533.5563        24     1.329     0.984  72.26   0
       130    313.7631    853.0846 307.7767099  +6.3321523     1130.487     1402.592      1140.59     80.75748     161.1311     322.1342      1.288     2.89     929.5127     56.78703        195.9         8     0.836     0.607 -57.56   0
       131    361.5874    848.3322 307.7570140  +6.3357200      2982.99     4200.905     4362.315     80.24473      161.003     322.0701      1.488     3.09     928.7327     56.78703     469.2447        19     1.142     0.957 -68.27   0
       132    779.7172    846.8437 307.5834551  +6.3503393     556.4641     812.3483     988.5186     80.75748     161.1311     322.1342      1.422     4.47     920.8917     56.78703     88.79309         5     1.148     0.495  32.06   0
       133    497.8413    838.1212 307.7007856  +6.3445059     3407.754     4558.607     4685.096     80.62959     161.1311     322.1662      1.372     2.82     925.9393     56.78703     599.7386        22     1.160     0.958 -78.61   0
       134    842.7822    837.2903 307.5575899  +6.3563912     1293.887     1816.952     1696.985     80.50151     160.8748     322.0701      1.444     3.27     918.9067     56.78703     210.8325        10     0.941     0.728 -63.76   0
       135    563.1953    836.1053 307.6737180  +6.3475281     851.0102     1196.703     1331.006     80.50151     160.8106     321.9099      1.548     2.69     924.0888     56.78703     139.5475         8     0.827     0.614 -48.57   0
       136    544.6681    834.2910 307.6814717  +6.3476566     6865.064     9041.031     9916.357     80.75748     161.2592     322.1662      1.374     2.58     924.3839     56.78703     1209.348        25     1.166     0.962 -81.59   0
       137    551.6317    833.7576 307.6785983  +6.3481101     1613.311     2215.442     2357.683     80.24473      161.003      321.974      1.359     3.13     924.2411     56.78703     257.2669        12     1.046     0.742 -59.31   0
       138    256.3360    834.4937 307.8011798  +6.3378992     789.3468     1099.574     955.4284     80.62959     161.1952     322.2303      1.626     3.46     929.8417     56.78703     165.0676         8     1.025     0.698 -68.36   0
       139    462.4901    833.0612 307.7156337  +6.3454100     1917.802     2392.259     2121.085     80.75748     161.2592     322.2303      1.330     2.88     926.5872     56.78703     285.4768        15     1.059     0.823 -81.79   0
       140    104.0106    832.4099 307.8644932  +6.3336379     1519.628       2306.1      2704.88     80.37322     160.9389     322.1342      1.501     3.58     929.2211     56.78703     240.5391        13     1.186     0.723 -87.63   0
       141    880.2713    832.4785 307.5421849  +6.3596300     1580.726      2226.67     2484.445     81.01263     161.3871     322.1342      1.495     3.02     917.5599     56.78703     232.8564        13     0.970     0.853 -84.28   0
       142    680.4632    831.5023 307.6251818  +6.3533545      856.377     1077.609     1115.228     80.62959     161.2592     322.1982      1.062     3.14     922.0283     56.78703      146.969         6     0.888     0.413 -20.98   0
       143    515.3446    828.1515 307.6938535  +6.3492090     22734.71     30762.59     31610.49     80.75748     161.1311     322.2623      1.397     2.72     925.0004     56.78703     3739.464        42     1.278     1.079 -76.47   0
       144    356.4455    830.0453 307.7597650  +6.3430977      796.863     1004.824     1169.394     80.75748     161.1311     322.1662      1.440     4.87      928.366     56.78703     124.0533         8     1.234     0.545 -70.99   0
       145    928.9850    826.4409 307.5221601  +6.3637491     4215.655     5878.768      6143.71     80.24472     160.9389     321.9419      1.463     2.79      915.744     56.78703       642.92        22     1.124     0.977 -86.60   0
       146    161.9007    828.1954 307.8406006  +6.3373253     543.3375     819.8917     312.0492     80.50151     160.8106     321.8137      1.380     3.97     929.8029     56.78703     89.37335         6     0.952     0.474 -34.48   0
       147     49.1374    824.5276 307.8875417  +6.3350455     554.8878     545.0922     526.3491     80.88515     161.1311     322.2303      1.341     4.75     929.1178     56.78703     79.43884         7     1.018     0.629  50.49   0
       148    401.5567    824.2964 307.7412285  +6.3469851     607.7204     846.0793     835.0919     80.75748     161.0671     322.3263      1.581     3.37     927.5714     56.78703     111.9011         5     0.740     0.444 -67.91   0
       149    569.9880    818.2552 307.6714978  +6.3551258     682.7435     1153.266     1746.702     80.11603     161.0671     321.8458      2.211     6.04     923.3562     56.78703     96.75366        10     1.367     0.751 -78.59   0
       150     25.9119    818.6752 307.8973822  +6.3366797     1842.216     2452.145     1893.369     80.75748      161.451     322.2623      1.434     3.25     929.0904     56.78703     308.0421        16     1.081     0.928 -36.34   0
       151    308.0567    816.9669 307.7802967  +6.3468730     3732.707     5045.743     4874.199     80.62959     161.1952     322.1662      1.404     2.93     929.2445     56.78703     592.2678        19     1.131     0.891 -69.70   0
       152    773.5248    812.7393 307.5871707  +6.3642138     63187.12     85051.96     87794.85     81.01263     161.1311     322.1662      1.436     2.66      919.502     56.78703     10748.34        66     1.366     1.128 -87.14   0
       153      7.8797    814.9948 307.9049931  +6.3375920     2383.209     3544.249     3796.987     80.37322      160.618     319.8517      1.509     2.88     929.0721     56.78703     408.9225        19     1.150     0.954  76.86  16
       154    712.1534    814.8786 307.6125817  +6.3612784     886.9225     1340.691     1648.334     80.75748     161.1952     322.1342      1.517     3.30     920.6173     56.78703     130.4526         9     0.917     0.688 -78.93   0
       155    416.6859    811.4203 307.7353804  +6.3528091      892.347     1356.353     1023.938     80.50151     160.8748     322.1021      1.629     3.99     927.2383     56.78703     152.6788         9     1.112     0.822 -44.12   0
       156    230.7502    810.4600 307.8126135  +6.3469625     5979.458      8496.41     10737.21     80.75748     161.0671     322.2303      1.655     3.00     929.8344     56.78703       938.66        30     1.436     1.001  89.11   0
       157    898.8159    807.9711 307.5353061  +6.3703681     9425.715     13330.25      13798.2     80.37322     160.8748     322.1021      1.435     2.81     916.0567     56.78703     1598.985        32     1.289     1.052  81.80   0
       158    701.7866    807.3622 307.6171387  +6.3640351     24833.69     34008.13     35985.48     80.37322     160.9389     321.8778      1.441     2.77     920.6085     56.78703      3987.49        45     1.321     1.159  87.61   3
       159    695.4747    803.8264 307.6198782  +6.3652838     100348.3     137056.7     142846.7     80.37322     161.0671     322.1342      1.416     2.68     920.7267     56.78703     17478.22        75     1.359     1.160 -85.92   3
       160    340.3636    804.6895 307.7672966  +6.3530268     23531.05     32061.55     33573.65     80.88515     161.0671     322.1662      1.448     2.76     928.1206     56.78703     3693.488        43     1.326     1.076 -86.43   0
       161    199.2453    806.4968 307.8258279  +6.3475398     699.1122     928.4643     1023.524     80.75748      161.003     322.3263      1.302     4.54     929.8209     56.78703     109.2886         6     0.955     0.615  64.73   0
       162    402.2623    802.5298 307.7416686  +6.3559959     25656.36     34743.57     35822.33     80.75748     161.1311     322.2303      1.431     2.76     927.2758     56.78703     3710.066        43     1.329     1.069 -89.41   0
       163    389.6449    804.8178 307.7468304  +6.3546279       1674.1     2079.342     1740.931     80.37322      161.003     321.9099      1.326     3.39     927.4033     56.78703     293.4435        13     1.181     0.719 -77.26   0
       164    629.2949    804.1451 307.6473469  +6.3629376     932.3745     1075.389      1216.24     80.62959     161.1311     322.3904      1.149     2.44     922.3146     56.78703     180.8471         7     0.803     0.574 -64.79   0
       165    939.5388    801.5850 307.5186106  +6.3743642     2339.633     3476.048      3468.81     80.24473     161.0671     321.9419      1.539     3.66     914.5798     56.78703     352.0272        20     1.142     1.091  65.48   0
       166    230.2419    788.9101 307.8135516  +6.3558429     765016.7      1600464      1748190     80.75748     161.1311     322.1982      2.146     8.89      929.203     56.78703     62446.17       541     2.326     1.987  84.76   4
       167    895.7542    799.4581 307.5368627  +6.3737809     7739.227     10648.14     10880.56     80.75748     161.1311     322.2623      1.457     2.83     915.8616     56.78703     1235.142        26     1.245     0.996  88.45   0
       168   1006.6501    800.5494 307.4907781  +6.3770308     385.7613     276.0522     226.2639     80.75748      161.003     322.1021      0.989     4.19     913.0724     56.78703     87.32135         5     1.050     0.477  89.42   0
       169    868.2113    800.3904 307.5482682  +6.3724763     825.9586     1245.928     1189.448     80.50151     160.9389     322.1342      1.642     3.48     916.8265     56.78703     138.8911         7     0.902     0.719  84.12   0
       170    636.2748    798.4480 307.6446401  +6.3655235      7291.11     9746.841     9594.683     80.62959     161.1952     322.1982      1.390     2.71     922.0142     56.78703     1130.848        28     1.184     1.033 -87.42   0
       171    376.9361    798.2535 307.7523283  +6.3569117     737.2883      1077.71     1397.764     80.75748     161.0671     322.1342      1.947     5.54     927.3038     56.78703     88.19592        10     1.119     0.774 -70.98   0
       172    126.0220    798.9061 307.8564859  +6.3482114     605.4833     708.5501     833.5717     80.75748     160.9389      322.006      1.261     3.72     929.3168     56.78703     105.2617         5     0.638     0.623  83.90   0
       173    425.0901    796.5500 307.7323917  +6.3592307     1906.193     2504.869     2620.458     80.75748     160.9389     322.3263      1.423     3.32     926.6976     56.78703     305.4632        15     1.160     0.833 -73.57   0
       174    150.3759    795.7720 307.8464802  +6.3503246     838.1395     1075.146     597.0679     80.24473      161.003      322.006      1.216     4.07     929.4999     56.78703     153.1523         7     0.993     0.556  66.31   0
       175    724.4479    793.6257 307.6081903  +6.3704647     493.6222     880.8624     371.3318     80.37322     161.1952     322.0701      1.610     4.26     919.4521     56.78703     92.42297         5     1.294     0.399 -35.48   0
       176   1019.0138    791.3475 307.4859523  +6.3812425     746.3646     927.9091     1186.013     80.11602     161.0671     305.3263      1.310     3.08     912.6122     56.78703     132.3441         7     0.741     0.654  -8.34  16
       177    589.3622    790.5897 307.6643834  +6.3671974     989.9993     1408.201     1410.442     80.11603     160.9389     321.8458      1.407     3.98     922.5221     56.78703     182.1992         9     1.169     0.692 -41.14   0
       178    864.3544    790.4163 307.5502042  +6.3764657     854.3867     1278.861     1438.881     80.24473      161.003     321.9419      1.315     4.64     916.7987     56.78703     130.7588         7     1.016     0.606  23.25   0
       179    671.3932    788.6929 307.6303858  +6.3707266      2820.88     3752.516     3791.342     80.37322     160.8106      321.974      1.361     2.85      920.772     56.78703     421.5944        17     1.117     0.852 -65.35   0
       180    140.5411    789.2204 307.8507848  +6.3526987      1080.46     1506.743     1175.014     80.37322      161.003      321.974      1.498     4.34     929.1911     56.78703     168.3536        11     1.064     0.824  65.48   0
       181    115.9466    788.9707 307.8610048  +6.3519744     1103.493     1501.881     1251.077     80.50151     161.1952     322.1021      1.451     3.01      928.976     56.78703     200.3972        10     0.933     0.689 -79.71   0
       182    405.1873    785.1675 307.7410389  +6.3632626     60016.52     83172.34     86337.31     80.24472     160.8748     322.0701      1.446     2.85     926.5799     56.78703     9382.754        65     1.378     1.148 -85.94   0
       183    948.5273    787.2184 307.5153595  +6.3805961     775.3527     985.8899     1229.617     80.24473     161.0671     322.1021      1.232     2.17     914.0467     56.78703     152.0852         5     0.696     0.429 -62.27   0
       184    522.9016    784.3009 307.6921909  +6.3675675     8074.876     10661.17     11216.36     80.75748      161.515      322.006      1.409     2.96      923.161     56.78703     1203.838        26     1.230     0.964 -76.44   0
       185    439.7049    782.8638 307.7267842  +6.3653717      5132.61     6731.811     7087.782     80.62959     161.2592     322.1982      1.404     2.79     925.6542     56.78703     949.6441        23     1.178     0.950 -86.86   0
       186    768.0807    780.8716 307.5905006  +6.3771898     13084.51      17995.7     18246.92     81.01263      161.451     322.1982      1.431     2.84     918.4045     56.78703     2101.711        37     1.275     1.086 -79.24   0
       187    436.3517    776.4299 307.7283931  +6.3679157      2583.14     3664.494     3667.085     80.37322     161.1952     322.0701      1.472     2.60     925.5253     56.78703     414.9993        18     1.135     0.872  81.81   0
       188    789.7910    775.3120 307.5816723  +6.3802110     1472.147     2020.833     2007.177     80.37322     160.8106     321.9419      1.446     3.32      917.897     56.78703      225.943        15     1.079     0.943  87.29   0
       189    125.8925    772.7868 307.8574218  +6.3589910     12885.97     18170.75     19747.85     80.50151     160.8748     321.9419      1.495     2.95     928.6544     56.78703     2202.345        39     1.305     1.108 -81.76   0
       190    134.0992    773.0743 307.8540047  +6.3591483     3380.957     4687.512     5013.604     80.24473     161.2592     322.1342      1.400     2.92     928.6829     56.78703     526.3292        19     1.164     0.901 -78.08   0
       191    913.6419    769.4586 307.5304404  +6.3867648     7363.487     9829.675     10551.78     80.75748     161.1311     322.2303      1.414     2.74     914.6382     56.78703     1141.369        27     1.261     0.961 -85.39   0
       192    118.1575    770.2533 307.8607190  +6.3597767     3270.558     4717.323     5533.886     80.75748     161.1311     322.1662      1.492     2.99     928.5572     56.78703     500.7637        22     1.198     0.990 -83.91   3
       193    118.2454    763.8517 307.8608987  +6.3624228     2269.754     3173.616      4128.48     80.88515     161.0671     322.1662      1.534     3.87     928.4195     56.78703     308.5067        18     1.329     0.830 -74.63   3
       194    962.8355    769.1095 307.5100247  +6.3885507     1587.632     2375.543     3230.086     80.88515     161.0671     322.1982      1.614     3.36     913.3643     56.78703     290.6218        15     1.183     0.990  69.96   0
       195    669.2078    767.2181 307.6320146  +6.3795202     1992.325     2402.572      2253.96     80.37322     160.8748      322.006      1.244     2.77     919.6785     56.78703     317.0399        14     1.049     0.762 -67.75   0
       196    556.1284    766.2674 307.6790008  +6.3761266     2829.594      3911.35     4261.438     80.75748     161.2592     322.1662      1.449     3.09     922.1356     56.78703     429.8998        16     1.088     0.861  88.60   0
       197    404.0423    765.6373 307.7421721  +6.3712879     1351.568     2167.805     2009.736     80.50151     161.1311     322.0381      1.777     4.41     925.8191     56.78703     208.5708        13     1.180     0.804  65.83   0
       198    968.0482    760.6429 307.5081437  +6.3922204     2084.313     2946.419     3336.478     80.75748     161.0671     322.1021      1.534     3.34     913.0908     56.78703     315.3186        15     1.100     0.885  80.82   0
       199    937.4430    760.8519 307.5208455  +6.3911128     3450.657     4937.884     4915.188     80.75748     161.0671     322.1982      1.477     2.83     913.7401     56.78703     534.9046        24     1.252     1.011  89.45   0
       200    907.8633    761.3683 307.5331111  +6.3899123     3423.613     4693.495     4944.307     80.50151     161.1952     322.1342      1.447     3.00     914.7015     56.78703     554.3282        22     1.093     1.039 -57.38   0
       201    660.3736    760.4842 307.6359091  +6.3820050     1635.271     2267.937     2630.875     80.88515     160.8748     322.0381      1.536     3.20     919.6782     56.78703     234.7421        13     1.015     0.854 -79.59   0
       202    420.3740    760.5436 307.7355624  +6.3739389     566.0298     558.8022     351.2709     80.37322     161.1311      321.974      1.231     4.60     925.4415     56.78703     90.63556         6     1.024     0.587  57.39   0
       203    807.5234    758.8058 307.5748628  +6.3876189     1315.661      1563.56      1181.09     80.37322      160.618      322.006      1.347     3.36     916.9825     56.78703     226.3478        10     1.021     0.685 -83.01   0
       204    882.9390    756.6663 307.5436185  +6.3910216       967.67     1326.237     1866.141     80.75748     161.0671     322.1662      1.400     2.71     915.5777     56.78703     188.5277         8     0.830     0.623  86.90   0
       205    232.8311    755.5987 307.8136004  +6.3696834     2067.396     2700.355     4316.982     80.11603     160.9389     321.9419      1.446     2.79     927.5206     56.78703     341.8229        15     1.042     0.873  88.77   0
       206    148.1189    750.9667 307.8489302  +6.3687476     847.0919     1029.482     555.0043     80.62959     161.0671     322.1662      1.286     4.36     928.0193     56.78703      142.951         9     1.091     0.730 -62.51   0
       207    925.7560    750.8221 307.5260346  +6.3948641     1115.781       1549.4      1272.33     80.24473      161.003      321.974      1.376     3.63     913.8043     56.78703      195.848        11     1.093     0.720  53.81   0
       208    899.5535    749.7553 307.5369510  +6.3944298      1238.68     1688.978      1632.44     80.75748     161.0671     322.1342      1.489     3.81      914.795     56.78703     194.0172        14     1.198     0.840  76.07   0
       209    253.4596    751.1143 307.8051864  +6.3722281     632.1147     1069.414     1271.448     80.75748     161.1952     322.2623      1.698     3.91     927.2598     56.78703     126.0167         5     0.860     0.555  45.98   0
       210    952.1778    748.8711 307.5151282  +6.3965514     2961.512     4152.902     4356.618     80.37322     160.9389     322.1662      1.447     2.97     913.1693     56.78703     442.4395        19     1.125     0.961  88.50   0
       211    671.9351    747.6264 307.6315403  +6.3877007     1062.605      1513.86      2744.01     80.37321     161.0671     322.0701      1.947     2.77     918.5497     56.78703     218.6432        10     0.951     0.695 -87.41   0
       212   1024.0000    742.4795 307.4855176  +6.4015863     639.6346     785.3314     868.4068     65.04533     122.2386      236.496      1.314     3.98     911.5472     56.78703     146.6681         6     1.570     0.289  90.00  24
       213    994.1613    742.0252 307.4979236  +6.4007787      1805.83     2664.266     2704.309     80.37322     160.9389      321.974      1.531     3.05     912.1607     56.78703     307.1483        17     1.118     0.893 -74.45   0
       214    463.0166    743.3060 307.7184364  +6.3824863     716.0406     1044.544      1148.63     80.50151     160.9389      322.006      1.394     3.26     923.5621     56.78703     154.1849         5     0.728     0.661 -16.74   0
       215    392.8843    742.7491 307.7475762  +6.3803637     762.6295     1059.424     917.3719     80.75748     161.0671     322.2623      1.238     4.69       924.96     56.78703     139.1125         9     0.962     0.648 -67.32   0
       216    620.3223    742.0273 307.6531602  +6.3882850     800.1783      974.733     1230.177     80.62959     161.1311     322.1021      1.236     3.54     920.7924     56.78703      125.479         8     0.881     0.728 -26.89   0
       217    795.4421    740.6115 307.5804900  +6.3947275     1265.096     1865.008     1626.885     80.11603     160.9389     321.8778      1.478     3.70     916.4718     56.78703     213.4599        11     1.134     0.748  84.41   0
       218    881.5061    737.8143 307.5448455  +6.3987576     1686.747     2535.369     2329.075     80.50151     160.8748      322.006      1.551     3.74       915.29     56.78703     289.1573        19     1.262     0.951  69.06   0
       219    855.9176    733.0000 307.5556327  +6.3998908     1187.682     1670.698     1251.156     79.98711      160.618     321.8137      1.435     3.89      915.852     56.78703     172.7975        14     1.104     0.938  79.50   0
       220    641.8605    733.1113 307.6445163  +6.3926873     614.9052     820.4681     359.2343     80.62959     161.2592     322.1982      1.534     4.01     919.3474     56.78703     104.1673         6     0.798     0.577 -35.91   0
       221    838.8685    729.3499 307.5628348  +6.4008284     1796.873     2319.722       1732.6     80.62959     161.0671     322.1662      1.272     2.90     915.8372     56.78703     300.5435        13     1.013     0.812  85.79   0
       222    101.5908    727.2180 307.8690513  +6.3769874     893.9297     1666.305     1995.314     80.50151     160.8748      322.006      2.146     6.79     927.6474     56.78703     123.1796        14     1.665     0.777  79.90   0
       223     37.4808    728.3088 307.8956336  +6.3743789     2808.354     3850.367     3383.843     80.50151     161.3871     322.1982      1.385     2.75     928.1959     56.78703     520.4099        18     1.096     0.924 -49.31   0
       224    693.4060    720.2015 307.6235458  +6.3997426     535.0523     773.7492      874.158     80.11603     160.8106      321.974      1.263     3.52     917.4567     56.78703      94.1192         5     0.768     0.465  75.10   0
       225    650.2627    716.7132 307.6415783  +6.3997392     7138.242     9928.181     10139.95     80.88515     161.3232     322.1982      1.461     2.79     918.3544     56.78703     1109.021        28     1.224     1.026 -73.93   0
       226    597.1105    716.1358 307.6636692  +6.3981980     1513.207     2072.786     1897.686     80.62959     161.3232     322.1982      1.415     2.98      920.119     56.78703      229.738        11     0.990     0.707 -89.94   0
       227    518.7837    716.5648 307.6961797  +6.3953968     866.0024     1112.833      1181.14     80.37322     160.8748      321.974      1.400     2.90     921.4153     56.78703      169.825         9     0.950     0.665 -31.53   0
       228    507.9428    716.1070 307.7006967  +6.3952225     923.6495     1205.367     1177.221     80.62959     161.1311     322.2943      1.268     3.21     921.6588     56.78703     189.0598        10     1.052     0.634  80.83   0
       229    624.2102    712.5843 307.6525354  +6.4005718     2395.964     3334.004     3167.319     80.50151     160.8748     322.0381      1.478     2.86     919.2186     56.78703     392.0214        17     1.186     0.804 -60.94   0
       230    113.2418    712.6530 307.8647057  +6.3833930     4263.701     5972.798     6667.428     80.75748     161.1952     322.1982      1.478     3.01     927.1849     56.78703      617.116        23     1.216     0.931 -79.71   0
       231    987.2086    712.1069 307.5018127  +6.4129000     2856.729      4153.91     4068.002     80.37322     160.8106      321.974      1.486     3.08     912.1099     56.78703     441.0873        19     1.151     0.958 -82.21   0
       232    235.4913    712.5911 307.8139469  +6.3875297      682.886     1050.516     2150.312     80.37322     160.8106     321.9099      1.823     3.65     926.1614     56.78703     102.0939         7     0.992     0.663 -74.71   0
       233    299.8663    712.2630 307.7872275  +6.3898280     815.2311     967.7473     833.6158     80.75748     161.1311     322.1662      1.189     3.01     925.7018     56.78703     180.0822         8     0.858     0.672  55.50   0
       234    767.1362    708.8787 307.5933090  +6.4068836     22994.46     30885.08     32400.24     81.01263     161.1952     322.1662      1.399     2.77      916.556     56.78703     3732.252        45     1.297     1.067  89.71   0
       235    897.2501    708.6066 307.5392868  +6.4113430     4110.659      5678.24     5572.602     80.24473     160.9389     321.7816      1.445     2.78     913.8595     56.78703     640.6216        24     1.223     0.957  88.43   0
       236    466.3261    709.3627 307.7182048  +6.3966119     1449.313     1944.316     1945.281     80.62959     161.1952     322.2303      1.423     2.92     922.4553     56.78703     249.7263        12     0.998     0.798 -56.40   0
       237    495.0231    708.7788 307.7063082  +6.3978151     994.1851     1513.616     1608.642     80.50151     160.9389     322.1342      1.633     3.60     921.7812     56.78703     176.3503        10     0.930     0.800 -48.51   0
       238    312.1411    709.1173 307.7822367  +6.3915391     673.3451     971.1237     1063.301     80.75748     161.1952     322.2303      1.298     3.93     925.3828     56.78703     110.2098         6     0.973     0.456 -52.24   0
       239    268.6276    708.2828 307.8003330  +6.3904220       692.16     864.0149     515.0112     80.62959     160.9389     322.1021      1.292     3.61     925.9263     56.78703     113.9067         7     0.924     0.541 -32.92   0
       240    630.0401    703.0546 307.6504348  +6.4047017     1083.672     1715.043     1679.421     80.62959     161.1952     322.1662      1.588     3.84     918.5057     56.78703     153.1664        11     1.027     0.725 -88.53   0
       241    240.6705    702.4746 307.8121376  +6.3918806     7203.648     9752.845     10510.62     81.01263     161.2592     322.1662      1.473     2.80     925.9488     56.78703     1129.717        27     1.254     0.957 -72.92   0
       242    647.7026    701.6759 307.6431467  +6.4058622     8061.037     10995.59     11901.72     80.37322     161.3871     322.1982      1.453     2.73     917.8619     56.78703     1438.719        26     1.217     0.966 -81.90   0
       243    342.7148    702.0521 307.7697795  +6.3954828     717.7169     892.0179     146.2859     80.75748     161.0671     322.2943      1.230     2.10     924.6188     56.78703     157.4276         7     0.683     0.656 -70.52   0
       244    907.6105    694.1575 307.5354687  +6.4176549     1471.161     1783.273     1969.343     80.11603     160.9389     321.9099      1.327     3.27     913.1098     56.78703     218.9259        12     1.041     0.747  76.40   0
       245      8.0554    695.1906 307.9089712  +6.3870614     406.1977     541.5587     415.2896     80.11602     161.0671     320.6572      1.411     3.83     928.5702     56.78703     83.65698         5     0.815     0.517 -52.45   0
       246    719.5066    690.0559 307.6137197  +6.4130626     4094.516     5619.355     5782.857     80.62959     161.1311     322.3583      1.445     3.11     916.5564     56.78703      628.104        22     1.192     0.993 -75.18   0
       247    674.7943    690.4775 307.6322729  +6.4113926     1252.789     1677.044       2093.4     80.37322      160.618      322.006      1.498     3.17     916.7269     56.78703     190.3465        12     1.037     0.744 -58.26   0
       248    985.7108    686.7078 307.5032853  +6.4233372     10178.17     14004.02      13739.5     80.75748     161.6427     322.2303      1.453     2.76     912.0244     56.78703     1711.357        31     1.245     1.034  88.11   0
       249    924.1868    687.1502 307.5288199  +6.4211015     2737.679     3861.596     3795.046     80.11602     161.0671     321.8778      1.450     3.03     912.4984     56.78703     431.6277        20     1.202     0.914 -79.99   0
       250      5.2276    686.5744 307.9104367  +6.3905235     1979.628     2928.388     2623.375     80.24473     160.9389      297.486      1.465     2.88      928.673     56.78703     305.2395        16     1.130     0.879 -81.33  16
       251    973.9270    687.1326 307.5081646  +6.4227687     678.8026     734.7604     456.4948     80.88515     161.2592     322.1342      1.292     4.46     912.0959     56.78703     101.6831         7     0.980     0.577  12.41   0
       252    727.1324    687.4564 307.6106403  +6.4143910      588.038     789.6289     1509.583     80.88515     161.0671     322.1342      1.094     3.31     916.4419     56.78703     116.4626         5     0.747     0.447  21.50   0
       253    538.4397    685.0336 307.6890783  +6.4090744     788.2095     1093.844     822.5729     80.50151      161.003      321.974      1.406     3.68     919.6435     56.78703     125.2435         6     0.787     0.494 -85.19   0
       254    422.4238    684.8885 307.7372591  +6.4052444     656.4968     1084.401     1031.891     80.75748     160.9389     322.0381      1.539     2.82     922.3612     56.78703     120.1364         6     0.768     0.484  80.38   0
       255     63.0633    681.4267 307.8865960  +6.3945965     28581.35     39790.86     41227.32     80.37321     161.1311     322.1021      1.461     2.90     927.2498     56.78703     4380.344        49     1.344     1.134 -85.79   0
       256    524.3423    682.3584 307.6950224  +6.4097065     2353.009     3077.257     3301.729     80.75748     161.1311     322.2303      1.404     3.07     919.9973     56.78703     321.4969        17     1.127     0.942 -88.06   0
       257    913.9448    678.9713 307.5333473  +6.4241367     1208.006     1600.448     1516.581     80.50151     161.1952     322.0381      1.386     3.58     912.5722     56.78703     178.7909        13     1.164     0.718 -84.27   0
       258    493.2318    679.7328 307.7080295  +6.4097478      1452.66     2142.808     2413.253     80.62959     161.1311     322.1342      1.579     3.06      920.991     56.78703     237.7512        12     1.017     0.710 -57.29   0
       259    533.5050    676.3319 307.6914202  +6.4125018     1245.444     1748.686     1774.156     80.62959     161.2592     322.1982      1.489     3.50     919.4212     56.78703     192.4752        11     1.111     0.739 -59.08   0
       260    709.0566    673.7582 307.6186066  +6.4194422     4035.779     5338.073     4946.905     80.62959     161.0671     322.1982      1.362     2.67     916.1519     56.78703     697.5054        22     1.165     0.955 -85.77   0
       261    731.1745    672.0697 307.6094784  +6.4208792     4579.041     6150.883     6076.385     80.37322      161.003     322.1021      1.359     2.69     915.9982     56.78703     769.6943        22     1.246     0.869 -76.16   0
       262    562.6079    670.0069 307.6795477  +6.4160884     3606.953     4996.538      5023.57     80.11602     160.9389      322.006      1.442     2.81     918.3922     56.78703     628.1902        22     1.218     1.013  81.28   0
       263    398.7534    670.6585 307.7475676  +6.4103256     1532.734     2256.078     2607.711     80.75748     161.1311     322.2943      1.479     2.37     922.4337     56.78703     324.3835        12     0.939     0.813  83.51   0
       264   1004.0167    668.2228 307.4963024  +6.4315802      5499.35     7601.869     7502.295     80.50151      161.003     322.1021      1.420     2.87      911.731     56.78703     875.7171        26     1.200     1.029 -88.27   0
       265    306.7397    668.9120 307.7858351  +6.4079577     1549.423       2215.5     2018.036     80.62959     161.3232     322.2623      1.452     3.33     924.4673     56.78703      239.907        12     1.000     0.797 -81.11   0
       266    223.1576    669.2758 307.8205298  +6.4049990     2009.739     2608.561      2820.47     80.62959     161.1311     322.1982      1.338     3.07     925.5112     56.78703     313.8081        15     1.128     0.798 -89.07   0
       267    969.3704    667.0324 307.5107302  +6.4309160       9140.4     12678.77     13098.41     80.24472     160.8748     321.8778      1.430     2.80     911.7787     56.78703     1465.175        30     1.237     1.011  77.46   0
       268    523.3082    667.7194 307.6959443  +6.4157161       753.83     1000.736     945.4052     80.50151     161.3871     322.2303      1.598     3.57     919.5302     56.78703     135.1022         7     1.050     0.442 -59.34   0
       269   1018.7195    666.0065 307.4902707  +6.4329857     786.9328     963.9327     567.7574     80.37322     160.6822     308.0852      1.367     2.63     911.6105     56.78703      133.803         7     0.738     0.634 -87.54  16
       270    689.5248    665.8041 307.6269847  +6.4220729     1062.449     1523.298     1264.737     80.37322      160.618     322.0701      1.401     2.95     916.0939     56.78703     179.4241         9     0.873     0.704 -68.47   0
       271     80.8815    663.9171 307.8797891  +6.4024256     805.9636     1320.988     1521.175     80.50151     161.3871     322.2623      1.723     5.20     926.3819     56.78703     144.9061        10     1.267     0.604 -49.83   0
       272    414.7328    661.2990 307.7412474  +6.4147261     3286.255     4556.092      5379.71     80.75748     161.2592     322.1662      1.489     2.79     921.6417     56.78703     565.4319        20     1.200     0.905 -80.78   0
       273    796.2067    661.3594 307.5828317  +6.4274757     1414.579     1736.842     2399.888     80.11603     160.8106     321.8458      1.312     2.81     915.3881     56.78703     207.4708        12     0.941     0.793  77.70   0
       274    127.8183    660.3293 307.8604205  +6.4054865     27258.76     37729.05     38880.43     80.24473      161.003     322.0701      1.469     3.02     925.7032     56.78703     4149.285        44     1.309     1.120 -84.30   0
       275    632.5027    661.0336 307.6508245  +6.4221342     640.2504      802.553     520.5987     80.75748      161.003     322.2943      1.233     3.51     916.6654     56.78703     107.9613         6     0.911     0.533 -19.73   0
       276    347.5999    655.2516 307.7693284  +6.4149698      852.181     1197.154     1543.534     79.98712      160.618     321.6854      1.502     4.04     922.9813     56.78703      128.408         8     0.983     0.759  85.83   0
       277    964.2419    650.0256 307.5134297  +6.4377669      7554.37      11305.7     11811.49     80.37322     161.0671      321.974      1.572     3.21     911.1667     56.78703     1183.853        34     1.408     1.080  57.86   0
       278      8.9903    649.0811 307.9101423  +6.4061300     1223.876     1534.738      1057.93     80.37322     160.7464      322.006      1.300     3.15     927.9467     56.78703     220.0936        11     0.989     0.751 -84.18   0
       279   1019.5925    645.1663 307.4906060  +6.4416197     103203.8     143429.6     147948.5     80.24473     160.9389     299.3878      1.469     2.78     910.7219     56.78703     17127.01        75     1.379     1.179  84.92  24
       280    557.8221    645.2552 307.6823676  +6.4261478     54106.22     74095.18     76902.56     80.24473     161.1311      321.974      1.428     2.87     917.6738     56.78703     8619.732        59     1.356     1.123 -85.59   0
       281    922.2842    647.0085 307.5309553  +6.4376124     830.7917     1006.187     802.8156     80.37322     160.8106      322.006      1.213     3.70     911.4059     56.78703     132.7059         7     0.755     0.647 -73.66   0
       282    201.1643    647.2260 307.8304066  +6.4133635      559.907     765.8292     917.8936     80.37322     160.9389     321.9419      1.526     3.45      925.058     56.78703     78.30914         5     0.998     0.344 -43.22   0
       283    517.1211    645.6023 307.6992578  +6.4246405     792.5882     1143.168      1291.39     80.11603      160.618     321.9419      1.474     2.89     918.9879     56.78703     136.2219         6     0.787     0.598 -37.19   0
       284    782.6157    644.5195 307.5890410  +6.4339745     600.7523      942.708     781.1718     80.37322     160.8748      321.974      1.561     4.69     915.0408     56.78703      118.017         7     1.281     0.486 -89.91   0
       285    487.9899    642.2795 307.7114669  +6.4250359     733.3514     726.7005     829.8276     80.37322     160.8106     322.0381      1.363     3.52     919.8564     56.78703     115.2437         8     0.974     0.750 -50.64   0
       286    416.0428    643.3820 307.7413069  +6.4221677     519.6747     881.8977     834.1066     80.24472      161.003     321.9419      1.962     3.89     921.0837     56.78703     75.63635         5     0.894     0.485  -1.63   0
       287    165.4032    642.0362 307.8454315  +6.4143036     3085.916     4270.461     3726.792       79.858     160.9389     321.9419      1.443     2.93      925.131     56.78703     523.4844        19     1.118     0.946 -69.28   0
       288    968.6069    641.7626 307.5118938  +6.4413243     700.2252     877.8583     1188.164     79.98711     160.8748     321.9099      1.353     3.89      910.848     56.78703     104.6663         7     0.966     0.476 -82.46   0
       289     58.0575    636.2668 307.8902010  +6.4130732     1583.655     2216.671     2357.587     80.88515     161.0671     322.1342      1.338     3.04     926.2569     56.78703     265.5038        11     1.041     0.671 -74.28   0
       290    455.0695    629.0187 307.7255841  +6.4294072     69287.17     95753.94     99185.57     80.37322      161.003     322.1021      1.439     2.94     920.0473     56.78703     10528.27        68     1.376     1.164  89.95   0
       291    640.9725    626.2626 307.6484759  +6.4367743     1075.914     1317.102     1597.617     80.37322     161.1311     322.1342      1.281     2.33     915.5818     56.78703     190.2498         8     0.761     0.662  45.55   0
       292    129.3334    623.9148 307.8610215  +6.4205721     1973.605     2811.448     2120.338     80.88515     161.3871     322.2303      1.556     3.78     924.8193     56.78703     288.9218        17     1.230     0.946 -75.93   0
       293    924.5986    622.2142 307.5308252  +6.4479271     707.6746     956.3911     972.2323     80.37322     160.8106     321.9419      1.499     3.53      910.507     56.78703     138.1392         7     0.966     0.647  77.69   0
       294    408.7027    621.9878 307.7450757  +6.4307547      1019.27      1224.03     1309.712     80.50151     160.8748     321.9419      1.330     2.71     920.5146     56.78703     183.9735         9     0.932     0.606 -38.89   0
       295    601.1871    620.5070 307.6651915  +6.4378186     1120.831     1532.581     1522.371     80.50151     160.8748      321.974      1.504     3.65     915.8505     56.78703     166.3212        11     1.041     0.802 -64.03   0
       296      1.4081    620.2193 307.9142668  +6.4177908     570.8869     857.0937     1194.525     70.96335     128.9753     243.5045      1.216     3.91      927.325     56.78703     104.8221         7     0.966     0.476 -81.57  24
       297    483.1683    619.4524 307.7142376  +6.4342992     534.6377     875.7592     1607.568     80.62959     161.1952     322.0701      2.156     4.76     919.1995     56.78703     95.42908         7     1.931     0.333 -71.82   2
       298    300.5307    618.3716 307.7901178  +6.4286162     2319.062     3499.025     3634.562     80.50151     161.1311     322.1021      1.591     2.85     921.7897     56.78703     387.9129        19     1.179     0.941 -77.09   0
       299    452.8023    616.6192 307.7269432  +6.4344507     933.9004     1460.703      1757.03     80.37322     160.6822     321.9099      1.757     5.05     919.6824     56.78703     133.2505         9     1.067     0.858  84.96   0
       300    727.1224    612.6140 307.6131577  +6.4452924     5861.749     7901.396     7725.995     80.37322     160.8106      321.974      1.415     2.96     915.2588     56.78703     867.7982        25     1.220     0.957 -86.94   0
       301    780.6954    607.8215 307.5910701  +6.4490626     15685.58     20982.58     21796.26     80.62959     160.9389      322.006      1.404     2.75     914.0618     56.78703     2846.031        37     1.298     1.008 -84.87   0
       302    998.0496    608.5579 307.5007786  +6.4560167     1153.756     1418.927     439.1025     80.88515     161.1311     322.1342      1.334     3.75     909.3828     56.78703     194.1703         9     1.104     0.614 -77.92   0
       303    523.1195    607.8512 307.6980372  +6.4404285      1269.05     1966.423     2163.207     80.75748     161.1952     322.1662      1.619     3.24      917.483     56.78703     225.2249        12     1.083     0.813  89.15   0
       304   1020.4341    607.1071 307.4915308  +6.4573623     2174.015     2916.735     2751.312     80.88515      161.003     289.6473      1.323     2.68     909.0296     56.78703     318.9132        15     1.014     0.794 -53.13  16
       305    604.4839    605.8810 307.6643142  +6.4439679     3161.809     4351.432     4146.249     80.50151     161.3871     322.2303      1.460     2.96     915.3109     56.78703     551.4459        20     1.233     0.889  87.56   0
       306     25.9434    607.0278 307.9045248  +6.4240636     694.2525     910.6422     1236.467     80.37322     161.1952     322.0701      1.383     3.11     926.3375     56.78703     118.8293         6     0.764     0.666  80.12   0
       307    921.8131    602.0169 307.5326589  +6.4561734     1221.058     1730.699     2930.442     80.50151     160.8106     322.0701      1.658     3.70     909.9691     56.78703     208.3499        11     1.125     0.672 -89.68   0
       308    180.5904    600.9987 307.8405106  +6.4317578     969.4219     1647.767     2268.454     80.11602     160.8106     321.9419      1.777     4.65     924.1037     56.78703     131.1602        13     1.171     0.836 -63.62   0
       309    362.9921    599.6357 307.7648111  +6.4384493     1247.831     1479.619     1710.393     80.24472     160.9389     321.9099      1.345     3.28     920.0648     56.78703     206.4466        10     0.947     0.725 -81.14   0
       310    347.0373    599.8671 307.7714290  +6.4378182     623.7584     1056.757     1321.956     80.62959     161.0671     322.2623      1.711     4.76     920.2261     56.78703     95.62659         6     0.899     0.715 -43.23   0
       311    217.1138    599.4216 307.8253971  +6.4336370     1397.417      2089.12     1946.543     80.75748     160.8748     322.0381      1.645     4.98     923.5893     56.78703      169.921        14     1.155     0.884  83.26   0
       312    856.7344    591.1701 307.5600500  +6.4584788     3270.506     4447.086     4715.916     80.50151     161.1311     322.1021      1.373     2.86     911.6797     56.78703      593.462        18     1.219     0.834 -78.76   0
       313    152.1492    590.9682 307.8526599  +6.4349425     823.0349     947.0455     174.7845     80.62959     161.1952     322.1021      1.382     3.87     924.3021     56.78703      133.645        10     0.981     0.727 -34.13   0
       314    815.5169    588.4767 307.5772580  +6.4582138      2849.96     3840.568     4095.108     80.88515      161.451     322.2943      1.458     2.99     912.6834     56.78703     485.6012        18     1.180     0.876 -76.07   0
       315    786.3989    584.6998 307.5894776  +6.4588000     2940.097     4101.559     4938.906     80.24473     160.7464     321.8778      1.508     2.96     913.3693     56.78703     427.6953        18     1.195     0.871 -68.70   0
       316    243.5643    583.4448 307.8149522  +6.4411226     8702.921     12266.52     13104.85     80.50151     161.0671     322.0381      1.508     2.78     922.2123     56.78703     1310.278        32     1.307     1.049  89.96   0
       317    796.0667    579.7263 307.5856294  +6.4611767     178785.8     240312.6     249580.2     80.88515     161.2592     322.1342      1.432     2.82     913.0225     56.78703     29454.12       108     1.426     1.197 -85.33   0
       318    177.6791    577.9745 307.8424970  +6.4411660     63236.64     90062.79      94592.4     80.50151      161.003     322.1342      1.508     3.02     923.7368     56.78703     10079.74        72     1.447     1.199 -84.99   0
       319    847.5928    582.2733 307.5641449  +6.4618469     613.7704     628.7632     1004.668     80.37322     160.6822     322.0701      1.060     2.32     911.6217     56.78703     129.1833         5     0.692     0.458 -69.89   0
       320    603.4965    582.2603 307.6655185  +6.4536875     601.8549     750.2607     781.4308     80.50151     161.1311     322.2623      1.727     4.92     914.8596     56.78703     78.59637         7     1.091     0.629 -20.72   0
       321    725.8107    580.3499 307.6147859  +6.4585701     618.4404     1013.498     1461.259     80.11603      161.003     321.8458      1.688     4.31     914.3699     56.78703     118.6511         7     0.975     0.544 -57.56   0
       322    101.7405    574.2291 307.8741583  +6.4401574     6890.835     9772.502     9956.819     80.37322     161.1952     322.1021      1.500     3.07     924.4351     56.78703     1086.523        29     1.356     1.001 -65.04   0
       323    966.9450    571.6978 307.5149313  +6.4701984     1550.492     1940.725     2085.977     80.62959     161.1311     322.3904      1.339     3.03     907.6471     56.78703     234.3633        12     0.956     0.810 -72.09   0
       324    988.2224    570.4357 307.5061368  +6.4714294     895.8639     1043.312      897.661     80.24473     160.8748     321.9419      1.358     3.76     906.8585     56.78703     131.0355         9     1.026     0.670 -76.98   0
       325    216.2669    569.7971 307.8267487  +6.4458398      823.361     1353.749     1156.721     80.11603     160.8106      321.974      1.544     5.38     922.4169     56.78703     129.2558        11     1.255     0.806 -82.48   0
       326    832.6507    567.0654 307.5708607  +6.4676269     5120.364     6718.977     6684.332     80.62959     161.0671     322.1662      1.393     2.73      911.605     56.78703     904.7842        23     1.181     0.963  84.30   0
       327    351.1047    565.1652 307.7709096  +6.4522824     18770.88     26412.57     27617.13     80.88515      161.003     322.2623      1.458     3.05     919.9571     56.78703     2643.199        39     1.348     1.062 -86.45   0
       328    441.3967    565.1597 307.7334127  +6.4553149     922.4687     1168.041     779.6518     79.98711     160.8748     321.8778      1.351     4.04     918.3309     56.78703     147.6539         9     1.075     0.605  75.44   0
       329    152.8716    563.9972 307.8532709  +6.4461024     2054.682     3037.082      2618.98     80.24473     160.7464      322.006      1.558     3.82     924.1274     56.78703     310.6576        19     1.291     0.973  88.95   0
       330    228.0157    562.0654 307.8221307  +6.4494270     1027.101     1578.055     2447.672     80.24473      161.003     322.0701      1.589     4.97     921.7055     56.78703     146.4454        10     1.206     0.612 -71.72   0
       331     90.1802    561.7930 307.8793792  +6.4449027      889.234     1378.939     1668.945     80.37322     160.8748      321.974      1.677     4.74     924.5905     56.78703     145.1316         8     1.370     0.465 -52.71   0
       332    786.6339    560.3685 307.5901966  +6.4688541     6571.193     8774.277     9244.167     80.24473     160.8748     321.9099      1.387     2.69     912.7398     56.78703     1099.989        26     1.192     0.980  89.56   0
       333    517.4821    560.0704 307.7019863  +6.4599675     7337.629     9983.036     10229.85     81.01263     161.3871     322.1982      1.432     2.91     916.1727     56.78703     1187.696        29     1.273     0.993 -86.45   0
       334    158.4072    561.5029 307.8510564  +6.4473184     826.3144     1174.677     1479.911     80.50151     160.7464     321.9099      1.514     4.53     924.0854     56.78703     118.1332        10     0.985     0.862 -70.21   0
       335    375.7771    556.7662 307.7609466  +6.4565785     1521.618     2253.232     2417.968     80.24473     160.9389     321.9419      1.613     2.96     919.4382     56.78703     272.4142        12     1.066     0.733 -79.63   0
       336    164.4603    553.1606 307.8488244  +6.4509664     7266.756     10314.93     10566.88     80.75748     161.1311     322.2303      1.501     2.96     923.8798     56.78703     1166.139        31     1.314     1.039 -81.72   0
       337    845.6069    553.6561 307.5659297  +6.4735964     687.0464     801.9132     1526.358     80.24473      161.003     321.9099      1.219     3.01     910.7722     56.78703     144.1492         5     0.726     0.483  82.53   0
       338    562.2748    553.0146 307.6836214  +6.4643819     2580.743     4153.707     4251.962     80.24472     160.8748     322.0701      1.675     4.03     914.8379     56.78703     366.4188        23     1.388     0.974 -60.14   0
       339    259.6826    549.6235 307.8093999  +6.4556283     95681.37     133616.3     137203.4     80.62959     160.8748     322.1021      1.523     3.01     920.6537     56.78703     14491.49        82     1.440     1.201 -83.71   0
       340    803.1126    552.7012 307.5836102  +6.4725707     1594.456     2064.415     2016.764     80.75748     161.5788     322.1982      1.354     3.37     912.2367     56.78703     259.7332        12     0.995     0.824  74.25   0
       341     36.0879    551.7451 307.9021816  +6.4472298     5401.604     7560.535     8020.829     80.75748      161.003     322.3263      1.466     3.14     925.6498     56.78703     869.6647        23     1.226     0.934 -82.65   0
       342    549.2358    547.5518 307.6892203  +6.4662005     904.2153     1102.607     1663.144     80.50151     161.1311     322.1021      1.516     4.84     914.8632     56.78703     191.5056        11     1.412     0.554 -51.72   0
       343    243.5575    544.7802 307.8162598  +6.4570861     1547.768     1830.385       1833.2     80.24473      161.003      322.006      1.294     2.92       920.71     56.78703     234.3635        13     1.056     0.762 -75.37   0
       344    959.1566    543.5155 307.5191103  +6.4815748     1897.014     2727.047     3157.767     80.75748     161.0671     322.1342      1.623     3.51     906.5458     56.78703     316.2231        15     1.150     0.856 -87.92   0
       345    782.8090    542.1300 307.5923973  +6.4762567     18061.77     24420.35     25154.43     80.24472     160.7464     322.0381      1.398     2.80     912.3209     56.78703     3167.998        39     1.298     1.029 -85.36   0
       346    486.4256    540.4579 307.7155442  +6.4670240     44455.81     67016.37     70777.87     80.37322     161.1311      322.006      1.686     3.36     916.3831     56.78703     6366.772        71     1.464     1.404  71.93   0
       347    637.0877    539.3227 307.6530116  +6.4725407     1112.128     1598.177     1502.941     80.75748      161.451     322.2623      1.414     4.07     913.7865     56.78703     182.8094        11     1.081     0.743  76.84   0
       348    198.8589    536.9175 307.8350878  +6.4588297     1994.661     2738.725     2362.498     80.75748     161.1952     322.2303      1.427     2.91     921.8712     56.78703     329.5143        14     1.055     0.834 -75.18   0
       349     34.3603    537.0746 307.9033951  +6.4532286     1386.806     1994.747     1764.253     80.62959     161.1311     322.1982      1.480     3.99     925.4865     56.78703     217.6882        14     1.264     0.730  79.66   0
       350    646.3375    535.6834 307.6492924  +6.4743530     3347.589     4356.342     4318.715     80.88515     161.1311     322.1342      1.358     2.87     913.6509     56.78703     518.2143        19     1.184     0.828 -59.57   0
       351    656.7172    535.6014 307.6449843  +6.4747343     1572.946     2097.738     2131.178     79.98712     160.6822     321.8778      1.437     3.42      913.595     56.78703     246.7437        13     1.073     0.807 -59.35   0
       352    708.7947    534.3394 307.6233983  +6.4769982     1513.929     2144.315     1963.714     80.24473      161.003     321.9419      1.553     3.27     913.0236     56.78703     235.8893        11     1.050     0.693 -89.58   0
       353     65.7225    532.2667 307.8905338  +6.4562698     652.8022     1203.745     1267.542     80.88515     161.1952     322.1342      1.631     4.97     924.8259     56.78703     100.5623         9     1.463     0.479 -73.60   0
       354    384.2083    531.1163 307.7583096  +6.4674519     1841.809     2457.636     2359.874     80.37322     160.8106      322.006      1.400     3.18     918.5143     56.78703     249.6443        16     1.131     0.863 -85.22   0
       355    315.6971    529.3660 307.7868210  +6.4658741     4151.382      5766.97     5409.515     80.75748      161.003     322.2943      1.468     3.01     919.3384     56.78703     652.3809        25     1.273     0.966 -79.37   0
       356    130.7608    527.9276 307.8636714  +6.4602506     28248.33     39778.55     40944.11     80.62959     161.1311     322.2303      1.494     3.14     923.6339     56.78703     4456.054        49     1.405     1.122  88.67   0
       357    495.5248    528.8608 307.7121556  +6.4721174     2315.476     3182.186      3479.25     81.01263     161.1311     322.1662      1.512     3.27     915.4926     56.78703     339.5931        16     1.116     0.883 -63.70   0
       358    858.8174    528.1965 307.5612971  +6.4845498     1600.551      2061.69     1966.565     80.37322     160.6822      322.006      1.275     3.38     909.3602     56.78703      276.695        10     0.951     0.712 -68.22   0
       359     96.0200    526.1467 307.8781588  +6.4598167     2945.488     3973.894     3839.684     80.24473     161.1311      321.974      1.439     3.18     924.2251     56.78703     428.9019        21     1.231     0.954 -70.05   0
       360    332.9672    524.6971 307.7798063  +6.4683818     1113.745     1510.192     1663.691     80.88515      161.003     322.2623      1.525     4.83     919.0509     56.78703     167.8524        10     1.062     0.622 -57.57   0
       361    956.3926    522.6141 307.5209586  +6.4901127     5644.612     7527.586     7740.112     80.37322     160.8748      322.006      1.401     2.66     905.9799     56.78703     879.3004        27     1.227     0.958 -88.25   0
       362    529.3266    514.9480 307.6985858  +6.4789949     1602.606     2385.159     2582.628     80.75748     161.1952     322.1982      1.541     3.44     914.1122     56.78703      274.938        14     1.058     0.928  38.23   0
       363    427.7909    509.1454 307.7409500  +6.4779858     46107.75     64960.78      67074.1     80.11602     161.0671     321.8778      1.477     3.09     916.6412     56.78703     7137.671        53     1.377     1.127 -85.61   0
       364    635.8212    508.8607 307.6545616  +6.4850757     13417.33     18430.23     18881.99     80.37322     161.0671     322.1021      1.426     2.95     912.8995     56.78703     2327.731        33     1.258     1.036 -85.80   0
       365    192.9438    506.6914 307.8385649  +6.4711103     20706.41     30947.86     32268.56     80.62959      161.003     322.2943      1.606     3.27     920.9149     56.78703     2650.331        49     1.420     1.228  80.92   0
       366    158.8124    507.7218 307.8527045  +6.4695368      1752.76     2462.847     1709.756     80.37322     160.7464      322.006      1.499     3.26     922.1779     56.78703     267.4137        16     1.165     0.804 -73.85   0
       367    970.0244    507.2447 307.5158119  +6.4969135     1209.246     1670.364     2148.675     80.24472     161.1311     322.0381      1.419     3.20     904.7487     56.78703     234.8861        11     0.965     0.855 -83.55   0
       368    810.0383    506.8224 307.5822735  +6.4917451     1075.438     1441.223      1220.02     80.37322     160.8748      321.974      1.510     4.18     910.3407     56.78703     196.2975        11     1.168     0.711 -55.46   0
       369    898.4211    506.7257 307.5455686  +6.4947376     843.5864     1112.995     726.5105     80.37322      161.003     322.1021      1.445     4.99     907.5334     56.78703     152.0278         9     1.001     0.983  62.41   0
       370    557.7709    505.6978 307.6870837  +6.4837674     3077.793     4017.512     4286.879     80.88515     160.8748     322.1662      1.384     2.68      913.429     56.78703     488.9192        19     1.158     0.872 -80.30   0
       371    931.5505    502.8087 307.5319402  +6.4974610     5541.638     7340.456     7541.787     80.24473     160.9389     321.8458      1.401     2.64     906.4905     56.78703     1016.249        21     1.120     0.923 -86.04   0
       372    604.6144    501.2419 307.6677786  +6.4871764     7106.608     9780.981     10346.86     80.11603     160.9389     321.9099      1.424     3.00     913.0176     56.78703     1084.547        26     1.264     0.956 -78.17   0
       373     92.1184    501.9017 307.8805985  +6.4696954     1193.493     1539.839     1277.093     80.75748      161.515     322.2623      1.439     4.86     924.0115     56.78703     160.8619        10     1.011     0.706 -62.40   0
       374    204.0042    500.9791 307.8341644  +6.4738407     470.3799     461.9192     17.94451     80.37322     160.8748      321.974      1.536     3.55     920.2917     56.78703     109.4739         5     1.002     0.362  55.98   0
       375    954.1675    495.0917 307.5228051  +6.5014022      3695.77     4998.152     5242.107     80.88515      161.003     322.1982      1.373     2.90     905.1327     56.78703     589.2579        18     1.134     0.865 -83.76   0
       376    516.8087    492.4368 307.7045423  +6.4878698     8114.998     11410.92     11788.71     80.11603     160.8748     321.9099      1.484     2.92     913.2925     56.78703     1324.124        30     1.328     1.017 -77.44   0
       377    392.8260    494.1159 307.7559776  +6.4830179     748.7628     1243.395     1118.952     80.75748     160.8748     322.0701      1.654     4.99     916.8813     56.78703     136.8463         9     1.199     0.880  71.06   0
       378    275.8915    509.1107 307.8040354  +6.4728998     1025.546     1522.075     1124.167     80.75748     161.6427     322.2623      1.373     3.20      919.028     56.78703     193.2568        11     1.128     0.636 -68.66   0
       379    362.8651    492.5647 307.7684729  +6.4826526     2867.159     3808.658     3559.408     80.62959     161.1311     322.1982      1.423     3.15     917.2581     56.78703      443.337        18     1.105     0.955  71.82   0
       380     86.1661    491.9864 307.8834055  +6.4735887     653.8026     1076.129     1041.934     80.24473     160.8748     322.0701      1.516     5.55     923.9731     56.78703     102.8376         6     1.321     0.657  86.60   0
       381    526.3850    489.6227 307.7006598  +6.4893527     690.2169     1031.043     1374.802     80.50151     160.9389     322.0701      1.492     4.48     913.1273     56.78703     104.1373         8     1.238     0.461 -82.27   0
       382    873.3465    488.3572 307.5565990  +6.5014845     3394.439     4508.242      5292.95     80.75748     161.1311     322.1662      1.371     2.83     907.4409     56.78703     524.7012        20     1.192     0.849 -75.15   0
       383    221.2803    487.8571 307.8274326  +6.4798394     819.0263     1119.028     1086.284     80.88515     161.1311     322.1662      1.479     3.26     919.2757     56.78703     134.5529         9     0.951     0.711 -73.96   0
       384    880.7401    482.5227 307.5537238  +6.5041404     2404.933     2968.275     3305.226     80.88515     161.1952     322.1342      1.330     2.70     907.0726     56.78703     467.9163        16     1.174     0.843  82.03   0
       385    920.2000    482.2191 307.5373447  +6.5055834     1333.757      1804.66     1187.405     80.24472     160.6822     321.8458      1.359     2.55     906.1525     56.78703     245.5104        11     0.900     0.747  66.82   0
       386     99.4751    481.7330 307.8782250  +6.4782701     847.6273     1273.417     1066.746     80.88515     161.2592     322.1662      1.793     3.95     923.6264     56.78703     147.8199         8     0.983     0.761  58.64   0
       387    258.4673    480.8804 307.8122242  +6.4839699     546.6154      684.565     622.7979     80.88515     161.3871     322.1662      1.522     4.25     918.3726     56.78703      90.9021         6     1.038     0.496  86.70   0
       388    704.6338    478.7803 307.6269929  +6.4997987     3227.949      4105.94     4026.108     80.24473     160.9389      321.974      1.371     2.81     910.6356     56.78703     591.1074        17     1.074     0.875 -74.77   0
       389     66.6168    477.6588 307.8920085  +6.4788459     2123.868     2931.164     2395.604     80.24473      161.003     321.9099      1.503     3.11     923.9706     56.78703     309.1674        17     1.140     0.861 -75.23   0
       390    415.9543    477.3565 307.7469368  +6.4907137     1166.092     1678.772     2047.266     80.75748     161.1311     322.1021      1.575     3.61     915.7783     56.78703     159.2017        10     1.016     0.693 -43.35   0
       391    375.5975    476.7939 307.7637166  +6.4895915      4083.03     5934.558     5545.125     80.11603     160.8106      322.006      1.521     3.21     916.3066     56.78703     598.0109        27     1.296     1.070  88.73   0
       392    603.2710    473.3924 307.6692732  +6.4986301     11091.66      15532.7     16407.74     80.24473     160.7464     322.0701      1.484     2.94     912.0597     56.78703     1684.871        35     1.331     1.080 -85.32   0
       393    765.9901    470.0226 307.6018035  +6.5054669     17886.78     24792.29     26325.35     80.37322     160.8748      322.006      1.452     2.95     909.3637     56.78703     2901.416        41     1.348     1.073 -80.24   2
       394    770.1703    465.3149 307.6002254  +6.5075504     1516.518     2303.606     2827.389     80.75748     160.9389     322.0381      1.631     3.35     909.1136     56.78703     260.5876        12     1.024     0.792 -79.09   3
       395    285.6694    470.2627 307.8012852  +6.4892678     3249.744     4416.644     4246.153     80.75748     161.1311     322.2303      1.487     3.17     917.4285     56.78703      420.761        20     1.155     0.987 -75.39   0
       396    409.1736    469.8315 307.7500065  +6.4935931     732.2377     728.5998     829.2474     80.24472     160.8748      322.006      1.461     5.14     915.3069     56.78703     102.6778         7     1.209     0.617  81.23   0
       397    795.0746    467.0830 307.5898222  +6.5076530     1431.251     1940.991     1944.411     80.88515      161.451     322.2303      1.349     3.13     909.0114     56.78703     249.6497        12     0.972     0.901   7.43   0
       398    368.9215    466.8180 307.7668255  +6.4934862     1896.868     2563.967     3281.516     80.37322     160.8106     322.1021      1.431     3.00     915.7719     56.78703     274.0005        15     1.054     0.855 -60.37   0
       399    895.4860    466.4528 307.5481381  +6.5112681      503.967     646.5567     480.0507     80.75748     161.0671     322.2943      1.152     4.04     906.2299     56.78703     96.99091         5     1.151     0.405  53.71   0
       400    951.2418    465.2590 307.5250202  +6.5136224     2219.812     2743.623     2585.698     80.75748     161.1311     322.2303      1.255     2.60     904.2072     56.78703     361.7628        11     0.982     0.671 -74.45   0
       401    357.3744    462.8753 307.7717542  +6.4947264     829.8032     1280.432     1701.491     80.37322     160.9389     322.1342      1.605     4.61     915.7545     56.78703      116.918         9     1.084     0.621 -74.54   0
       402    103.3968    461.8549 307.8772681  +6.4866092     4961.294     7231.793     7515.889     80.11603     160.9389     321.8458      1.562     2.91     922.5674     56.78703     765.5844        28     1.276     1.067 -79.68   0
       403    111.6226    462.8185 307.8738194  +6.4864882     652.0351      968.167      1460.71     80.50151     161.0671     322.1021      1.468     5.39     922.2505     56.78703     112.4879         7     1.052     0.779 -61.14   0
       404    741.6171    460.8843 307.6122335  +6.5084249     2582.703     3450.647     3656.489     80.37322     160.8106     322.1021      1.375     2.74     909.1814     56.78703     441.3224        18     1.057     0.932 -71.09   0
       405   1005.2343    459.7297 307.5027796  +6.5177069      4387.31     6890.594     7472.382     80.62959     161.1311     322.2623      1.689     3.75     901.3665     56.78703     534.1152        30     1.367     1.146  43.79   0
       406    261.3806    459.0185 307.8117520  +6.4930941     1678.405     2418.361     2837.468     80.50151     161.0671     322.1021      1.446     3.24     917.6122     56.78703     263.8854        15     1.122     0.842 -76.43   0
       407    339.4565    456.7110 307.7794036  +6.4966698     3504.556     4826.066     4515.668     80.75748      161.003     322.2943      1.498     2.97     915.7809     56.78703     504.1237        24     1.284     0.986  88.23   0
       408    695.3795    454.6514 307.6316472  +6.5094516     1668.372     2320.063     2095.826     80.24473     161.1952      321.974      1.435     3.03     909.7833     56.78703     256.5673        14     1.055     0.818 -80.04   0
       409    227.2780    452.9065 307.8261216  +6.4944712     914.2607      1363.62     1286.736     80.50151     161.3232     322.2303      1.560     4.86      918.399     56.78703       121.18        10     1.211     0.624 -58.54   0
       410    969.6476    453.1650 307.5177806  +6.5192301      707.944     1008.378     1564.788     80.37322     161.1311     322.1021      1.481     4.23     902.8281     56.78703     132.0763         7     0.778     0.655 -65.33   0
       411    437.9250    448.5565 307.7387821  +6.5033418     626.7372     1026.477     1184.527     80.62959     161.1952     322.1982      1.626     5.33     912.7504     56.78703     95.86877         8     1.326     0.605 -39.82   0
       412    537.1027    447.0253 307.6976420  +6.5072998     971.3735     1352.237     1447.831     80.88515     160.8748     322.0701      1.310     3.01     910.8228     56.78703     202.8198         9     0.963     0.609 -55.62   0
       413    685.7114    446.3780 307.6359408  +6.5125440     646.4822     1013.279     1109.966     80.75748     160.9389     322.0701      1.875     4.33     909.5347     56.78703     92.96899         6     1.012     0.528 -33.00   0
       414    459.0943    445.4363 307.7300950  +6.5053402     1564.065     2371.014     2638.291     80.88515      161.003     322.2623      1.641     3.05     911.8481     56.78703     274.5995        12     1.023     0.844 -45.07   0
       415    821.4404    444.6310 307.5796249  +6.5178045     1535.387     1798.892     1968.606     80.24473     160.9389     322.0381      1.228     2.66      907.451     56.78703     255.3118        13     0.970     0.762 -63.68   0
       416    807.0236    443.6342 307.5856464  +6.5177342     2306.804     3268.046     3097.755     80.24472     160.8748     321.9419      1.480     3.19     907.6909     56.78703     341.6803        16     1.028     0.966 -88.41   0
       417    704.4839    441.6959 307.6283011  +6.5151054     16689.82     22533.25     22902.39     80.75748      161.515     322.2623      1.420     2.71     909.0493     56.78703      2805.59        36     1.280     1.030 -79.94   0
       418    606.6248    443.9447 307.6688706  +6.5109010     734.4926     1008.975     1110.115     80.37321     161.1311      321.974      1.489     4.11     910.3439     56.78703     121.0399         6     1.006     0.479  85.63   0
       419    625.6516    437.7686 307.6611757  +6.5140882     2775.695     3775.871     4268.088     80.62959     161.2592     322.1021      1.400     2.92     909.8207     56.78703     469.9947        16     1.103     0.810 -59.42   0
       420    698.3534    436.5980 307.6310186  +6.5170051     758.9171     943.9259     1065.577     80.11603     160.8106     321.7495      1.070     3.33     908.9271     56.78703     151.5735         6     0.869     0.476 -86.67   0
       421    600.9548    434.9920 307.6715266  +6.5144075     5657.211     7197.172     8148.392     80.24473      161.003     321.8778      1.341     2.92     909.8404     56.78703      977.675        21     1.160     0.824 -59.22   3
       422    597.0847    432.1935 307.6732282  +6.5154334     16140.36     23628.96     24911.13     80.37322     160.8106      322.006      1.523     3.07     909.6823     56.78703     2425.141        42     1.313     1.219 -81.81   3
       423    929.6638    431.6460 307.5351094  +6.5267807      4279.32     5526.976     5143.106     80.62959     161.0671     322.1982      1.386     2.92     903.9622     56.78703     722.7064        21     1.181     0.900 -86.72   0
       424    368.8745    427.4952 307.7681706  +6.5097202     31527.37     44305.41     46356.32     80.50151     161.3232     322.1662      1.510     3.15     913.2632     56.78703     4681.249        51     1.400     1.119 -85.69   0
       425    885.5422    427.6673 307.5535690  +6.5269502     1441.577     2008.025     1820.226     80.88515     161.0671     322.1662      1.396     2.93     905.4062     56.78703     263.5796        13     1.082     0.827 -73.43   2
       426    882.0279    423.7355 307.5551606  +6.5284562     755.5057     1570.045     1479.098     80.37322     161.1311     322.1021      2.436     6.42     905.4429     56.78703     108.7823        10     1.566     0.738  44.84   3
       427    406.0577    429.1473 307.7526716  +6.5102862     639.0749     860.7931     1024.203     80.75748     161.1311     322.1662      1.375     2.99      912.108     56.78703       112.95         5     0.780     0.504 -55.10   0
       428    114.9940    426.9639 307.8736309  +6.5014050     2474.917     3694.976     3779.836       79.858     160.8748     321.9419      1.517     3.18     920.6217     56.78703     367.3876        19     1.077     1.034 -81.08   0
       429    580.2778    423.5602 307.6804992  +6.5184349     675.5238       937.65     1376.799     80.62959     161.1311     322.1662      1.593     3.65     909.2952     56.78703     144.3618         6     0.989     0.661 -18.04   0
       430     48.3204    422.5200 307.9014715  +6.5009948     1688.505     2522.254     3129.216     81.01263     161.3871     322.3263      1.877     3.15     923.1174     56.78703     247.9099        18     1.152     0.948 -67.60   0
       431    898.5816    422.0324 307.5483420  +6.5297123     5737.825     7644.988     7727.103     80.37322     160.9389     322.0381      1.376     2.68     904.7495     56.78703     1014.356        21     1.151     0.895 -85.28   0
       432    954.6204    419.9036 307.5251369  +6.5324620     615.4637     623.2559     733.7144     80.62959     160.9389      321.974      1.110     2.69     902.3208     56.78703     129.6082         5     0.844     0.484 -87.01   0
       433    226.4179    418.0791 307.8276545  +6.5088216     14929.02     21256.24     21474.23     80.37321     160.8106     322.1021      1.502     3.01     917.8237     56.78703     2307.973        36     1.330     1.083 -79.14   0
       434    721.4371    412.1433 307.6222525  +6.5278745     793.5368     950.3007     1520.217     80.75748     161.1952     322.1982      1.266     3.46     907.6026     56.78703     146.1743         8     0.903     0.656  77.37   0
       435     61.8706    412.3006 307.8961895  +6.5056704     928.9005     1396.296     1186.301     80.62959     161.2592     322.1982      1.460     3.11     922.1628     56.78703     201.1527         9     0.972     0.739 -81.35   0
       436    689.6665    410.9983 307.6354870  +6.5272843     683.3148     1086.421     1410.467     80.11602     160.7464     321.9419      1.611     3.89     907.9293     56.78703     115.7571         7     0.760     0.659 -81.50   0
       437    950.0554    410.3092 307.5273547  +6.5362712     1145.871     1553.728     1246.936     80.62959      161.003     322.2943      1.369     2.72     902.2859     56.78703     190.0135         7     0.708     0.668 -48.47   0
       438    339.2179    407.6811 307.7811561  +6.5169052     1405.601     2010.244      1545.55     80.37322     160.8106     322.0701      1.577     3.95     913.2583     56.78703     236.6041        18     1.335     0.925  89.48   0
       439    172.1903    407.8103 307.8505233  +6.5112376     926.2597     1329.871     1232.219     80.37322     160.9389     322.1021      1.597     4.32     918.5009     56.78703     143.1102         8     0.999     0.677  35.77   0
       440    126.7814    406.6074 307.8694233  +6.5102063     5542.184     8071.689     8289.459     80.37322     160.8106      322.006      1.574     3.07     919.6689     56.78703     838.5457        28     1.291     1.049 -80.16   0
       441    424.3515    405.5063 307.7458701  +6.5206610     770.5817     1138.904     1117.363     80.62959      161.003     322.2943      1.283     3.90     910.1976     56.78703     134.0748         6     0.915     0.476  87.68   0
       442    231.4910    405.6631 307.8259667  +6.5141184     1397.929     2140.367      2228.87     80.75748     161.2592     322.2623      1.620     3.16     917.1125     56.78703     213.0637        11     0.988     0.807 -66.11   0
       443    812.7523    403.4133 307.5846169  +6.5345325     929.4039     1337.583      1476.89     80.11603      161.003     321.9099      1.571     3.19     906.0798     56.78703     167.1541         9     0.897     0.713 -72.20   0
       444    148.7973    402.2807 307.8604258  +6.5127336     2555.534     4036.584     4503.356     80.11603     160.6822     321.9099      1.681     4.26     918.9016     56.78703     335.0607        23     1.483     0.905 -76.47   0
       445    544.0910    401.7976 307.6962616  +6.5262077      1094.38     1608.143     1655.245     80.11602     160.8106     321.9099      1.483     3.56     908.1228     56.78703     202.8464        10     0.926     0.824 -44.56   0
       446    372.3224    397.3723 307.7677541  +6.5222731     2169.358     3019.212     2450.125     80.62959     161.0671     322.1662      1.507     3.16     911.6057     56.78703     320.6107        16     1.098     0.886 -69.90   0
       447    260.5329    397.8979 307.8141667  +6.5183008     770.5833     1069.085     617.0029     80.75748     161.1952     322.1982      1.449     3.37     915.5641     56.78703     135.4286         6     0.937     0.493  84.50   0
       448    960.9382    396.5156 307.5232967  +6.5423297     1112.574     1464.628     1642.099     80.88515     161.1952     322.1982      1.356     2.98      901.575     56.78703     187.5084        10     0.932     0.711 -88.43   0
       449    306.5374    395.3660 307.7951449  +6.5208920     793.9209      1253.51     1309.621     80.62959     161.1952     322.1021      1.566     5.01      913.749     56.78703     120.4124        11     1.185     0.697 -75.63   0
       450    426.0445    390.9329 307.7456579  +6.5267349     7989.682     11223.22     11720.07     80.75748     161.0671     322.1982      1.477     3.06     909.5964     56.78703     1209.729        31     1.350     1.019 -79.80   0
       451     22.4869    391.6002 307.9132463  +6.5128903     3395.109      5180.96     5343.949     79.98712      160.618     321.8137      1.642     3.61     922.8044     56.78703     519.2137        24     1.552     0.930 -59.68   0
       452    777.6660    392.8216 307.5995461  +6.5377328     509.6826     611.0825     489.0777     80.37322     161.1311     322.1021      1.303     4.43     906.3866     56.78703     73.38385         5     1.166     0.478  31.20   0
       453    579.8366    393.3497 307.6816988  +6.5308936     459.5561     442.1427     151.8927     80.50151     161.0671     322.0381      1.120     3.44      907.609     56.78703     75.16516         5     0.785     0.435 -17.43   0
       454    758.6231    389.9261 307.6075531  +6.5382916     2384.927     3213.541     3901.091     80.37321     160.9389     322.1021      1.407     2.70     906.5703     56.78703     447.4943        15     0.991     0.856 -73.49   0
       455    766.6123    388.2856 307.6042897  +6.5392361     14346.82      19409.8     20290.74     80.37322     160.9389      322.006      1.430     2.81     906.4268     56.78703     2374.612        38     1.307     1.039  86.13   0
       456    187.1061    390.3470 307.8449182  +6.5189495     631.2617     928.5339     1070.422     80.62959     161.0671     322.4224      1.332     3.45     917.5657     56.78703      104.944         5     0.983     0.350 -42.57   0
       457    330.0010    386.9314 307.7856840  +6.5251627     1124.798     1482.796     1423.686     80.24473     160.6822      321.974      1.360     4.09     912.6487     56.78703     170.8789        11     1.071     0.744 -61.40   0
       458   1010.6122    383.5526 307.5030976  +6.5493393     3995.967     5225.479     5820.653     80.11603      161.003     321.8458      1.403     2.75      899.717     56.78703     663.2321        20     1.152     0.878 -84.22   0
       459    941.6625    379.8895 307.5318605  +6.5485511     691.6081     697.9238     991.1458     80.75748     161.2592     322.2303      1.143     3.84     901.8619     56.78703     124.9808         8     1.038     0.552  68.76   0
       460    174.8971    379.2962 307.8503622  +6.5231013     903.3017     1161.832     974.0239     80.75748     161.7065      322.006      1.366     4.30     917.4936     56.78703     128.7561         8     0.927     0.737 -68.76   0
       461    474.2876    374.4858 307.7261742  +6.5351440      3392.38      4766.33     4767.704     80.50151     161.3232     322.2623      1.502     3.19     908.5067     56.78703     470.9294        21     1.205     0.976 -65.50   0
       462    446.4383    375.1339 307.7377197  +6.5339423     2407.591     3362.787     2958.862     80.62959     161.0671     322.2623      1.455     3.35     908.7977     56.78703     369.6484        17     1.145     0.869 -74.93   0
       463    903.0933    374.9366 307.5480474  +6.5493084     710.2736     995.3763     962.9183     80.75748     161.1952     322.2303      1.381     2.61     903.0129     56.78703      127.925         5     0.627     0.573  84.76   0
       464    832.0168    371.2220 307.5776955  +6.5484678     36411.91     51393.16     53650.22     80.50151     160.9389     322.1021      1.478     3.18     904.9893     56.78703      5666.75        53     1.450     1.057 -86.54   0
       465    978.0015    371.7376 307.5170393  +6.5531297     549.6799     662.7009     989.4419     80.11602     160.9389     321.8778      1.293     3.79     900.6693     56.78703     91.14935         5     0.816     0.504  59.23   0
       466    324.0675    367.1665 307.7888151  +6.5331238     903.8699     1279.136     839.4276     80.62959     161.1952     322.2303      1.434     4.17       912.06     56.78703     134.0384        10     1.140     0.714 -74.14   0
       467     48.7996    367.5649 307.9031310  +6.5237001     645.6959     1030.707     1088.313       79.858     160.9389      321.974      1.692     5.36     920.9084     56.78703     104.1708         7     1.114     0.752  86.71   0
       468    603.8264    363.7481 307.6727302  +6.5439192     3052.613     4356.921     4829.729     80.37322     161.2592     322.0701      1.498     3.09     906.3306     56.78703      488.385        21     1.222     0.955 -82.51   0
       469     12.1542    364.2758 307.9184621  +6.5238234     1183.307     1522.749     1525.873     80.62959     161.1952     322.1982      1.350     3.86     921.3875     56.78703     184.7799        10     0.960     0.693 -84.12   0
       470    688.4817    357.1726 307.6377881  +6.5494685     88153.58     121395.7     125610.9     80.62959     160.9389     322.1021      1.440     2.88     906.0391     56.78703      14466.3        72     1.385     1.151 -86.10   0
       471    846.6880    358.7998 307.5720182  +6.5540871     1385.852     1743.324     2103.525     79.98711      160.618     321.8137      1.394     3.03      904.249     56.78703     247.3513        11     1.013     0.732 -89.70   0
       472     67.6811    356.8342 307.8956518  +6.5287664     1327.476     1828.915     1487.468     80.62959     161.1311     322.1982      1.485     3.85     920.1935     56.78703     207.8312        15     1.290     0.782 -60.19   0
       473    550.8909    353.8613 307.6950505  +6.5462278     2934.063      4240.87     4638.359     80.75748     161.2592     322.2303      1.514     2.92     905.1088     56.78703     529.2823        21     1.331     0.970 -66.35   0
       474    930.2614    354.3252 307.5374534  +6.5587258     981.8145     1354.901     1494.905     81.01263     161.1311     322.1662      1.384     2.66     901.4259     56.78703     199.3092         8     0.878     0.646 -85.53   0
       475     88.1452    352.5802 307.8872962  +6.5312118     6537.352     9448.843     9455.785     80.24473     161.1311      321.974      1.542     3.23     919.8445     56.78703     928.7645        30     1.344     1.019 -87.11   0
       476    534.1824    350.1291 307.7021163  +6.5472087     7673.321     10564.13     11049.25     80.24472      161.003     322.1021      1.419     2.82     905.3221     56.78703     1134.186        28     1.248     0.993 -74.21   0
       477    749.1512    352.5987 307.6127411  +6.5533868     631.9214      871.701     1179.377     80.11603     160.7464     321.7175      1.224     3.37     905.8157     56.78703      111.598         5     0.751     0.438 -21.17   0
       478    263.2617    347.7917 307.8147244  +6.5390801     2810.201     3906.168     4048.372     80.11603     160.9389      321.974      1.471     3.91      913.681     56.78703     383.3184        18     1.204     0.938 -85.96   0
       479    617.9275    348.4367 307.6673881  +6.5507134     4244.589     5334.177     4889.239     80.62959     161.1311     322.2303      1.251     4.84      905.606     56.78703     1007.042        10     1.336     0.496   0.45   0
       480    397.1099    345.1952 307.7592174  +6.5446480     27740.12     40062.57     41655.13     80.24472     160.8106     321.9099      1.507     3.08     908.4962     56.78703     4042.662        51     1.383     1.175 -86.15   0
       481    575.8864    344.9046 307.6849696  +6.5507634      707.421     991.2436     1323.252     80.75748      161.515     322.2303      1.316     3.79     905.0494     56.78703     121.4196         6     0.970     0.425 -54.11   0
       482    504.7976    344.3369 307.7145168  +6.5486151     1450.143      1850.75     1927.699     80.11603     160.9389     321.9419      1.305     3.18     906.2211     56.78703     232.3223        10     1.024     0.617 -45.43   0
       483    663.9558    344.1190 307.6484143  +6.5540373     544.8215     814.0978     437.7794     80.75748     161.1311     322.1342      1.169     3.87     905.3729     56.78703     89.46283         5     1.311     0.328 -30.93   0
       484    377.1769    343.1576 307.7675655  +6.5448201     1306.166     1902.704     2451.477     80.37322      161.003      321.974      1.600     3.28     909.0822     56.78703      196.142        12     1.081     0.695  84.01   0
       485    476.3388    340.5187 307.7264662  +6.5492372     1329.128     1875.644     1924.289     80.88515     161.1311     322.1342      1.519     3.80     907.0145     56.78703     209.2482        11     1.167     0.656 -81.84   0
       486    791.9780    338.0209 307.5954413  +6.5608379     1034.752     1507.426     1448.129     80.50151     160.9389     322.1021      1.472     4.23        904.8     56.78703     163.8811        11     1.070     0.825  76.66   0
       487    486.1776    335.6152 307.7225446  +6.5515917     9382.313     13251.75     13654.89     80.50151     160.9389     322.0701      1.517     2.96     906.4532     56.78703     1365.047        34     1.388     1.037 -83.47   0
       488    374.2282    338.3269 307.7689531  +6.5467156     832.2646     1386.882     1665.375     80.62959     161.1311     322.1021      1.804     5.41     909.0034     56.78703     96.45959        10     0.997     0.828 -39.86   0
       489    628.5002    337.3339 307.6633698  +6.5556516     683.9858     821.5582     1093.468     80.75748     161.2592     322.1342      1.503     4.71     904.9651     56.78703     107.5078         6     0.935     0.692 -61.15   0
       490    755.3249    334.3735 307.6107889  +6.5611183     3452.597     4718.908     5068.845     80.37322     161.0671     322.1342      1.411     2.90     904.7843     56.78703     531.6489        20     1.206     0.855 -72.38   0
       491    702.8298    334.1741 307.6326011  +6.5594445     952.4785     1415.246     1504.426     80.24472     160.9389      322.006      1.406     4.08     904.8278     56.78703     165.1901         9     1.129     0.548 -66.45   0
       492    910.9389    334.0825 307.5461586  +6.5664387      996.516     1237.088     1285.202     80.88515     161.1311     322.1662      1.269     2.37     901.4825     56.78703     186.9503         9     0.786     0.710  69.98   0
       493    312.9964    332.5277 307.7945819  +6.5470535     1285.431     1625.448     1762.814     80.24473     160.6822      322.006      1.369     3.47      911.256     56.78703     177.9849        12     1.018     0.779 -84.88   0
       494    148.3532    326.1905 307.8631812  +6.5441340     1128.929      1589.87     1479.319     80.24473     161.0671     321.8137      1.463     3.91     917.3729     56.78703     161.1749        13     1.135     0.774 -44.45   0
       495    248.5437    326.0927 307.8215700  +6.5475443     707.1797      989.589     1225.277     80.62959     161.0671     322.3263      1.500     2.94     913.3673     56.78703     105.3521         6     0.772     0.497  87.38   0
       496    376.0872    319.7860 307.7688061  +6.5544331     8022.525     11478.32     11960.11     80.37322     160.9389     322.0701      1.489     3.08     908.2827     56.78703     1165.879        29     1.270     1.080 -79.54   0
       497    232.0681    320.2972 307.8286089  +6.5493831     2280.918     3210.648     3553.221     80.75748     161.1952     322.1342      1.522     3.26     913.7659     56.78703     319.1133        18     1.128     0.956  83.42   0
       498    743.9826    315.7356 307.6161263  +6.5684343     60403.55      81674.8     84580.46     80.24473     161.0671      322.006      1.421     2.78     903.8775     56.78703      10611.4        62     1.348     1.121 -86.23   0
       499    729.8760    319.7428 307.6218515  +6.5663078     1008.177     1251.243      1704.54     80.75748     161.0671     322.1021      1.368     2.83     904.0985     56.78703     206.8691         9     0.993     0.645 -81.70   0
       500    415.6669    315.2024 307.7525204  +6.5576542     2550.781     3370.095     3403.772     80.24473     160.8106      321.974      1.390     2.97     906.5223     56.78703     420.4441        17     1.128     0.846 -72.02   0
       501    978.8784    312.7490 307.5186520  +6.5775149     1847.123     2454.305     2496.863     80.75748     161.1952     322.1662      1.412     2.98     898.6196     56.78703     375.3962        15     1.118     0.839  89.51   0
       502    561.9390    312.9715 307.6918375  +6.5634807     1209.669     1447.156     1143.882     80.37322     161.1311     322.1021      1.345     4.26      903.606     56.78703     177.6964         9     1.102     0.558 -60.60   0
       503    919.7573    312.0922 307.5432329  +6.5758127     2720.386     3513.002     3623.199     80.75748     161.1311     322.2623      1.319     2.54      900.626     56.78703      510.139        18     1.041     0.924 -89.25   0
       504    453.0447    311.5921 307.7371163  +6.5603990     1294.327     1819.579     1980.387     80.24472      161.003     321.8778      1.513     3.30     905.6087     56.78703     199.1505        12     1.015     0.826  46.87   0
       505    402.2831    310.8032 307.7582279  +6.5590213     2048.431     2987.764     3531.266     80.11603     160.7464     321.8458      1.596     3.22     906.9075     56.78703     291.8436        17     1.130     0.900 -79.42   0
       506    282.0539    310.5804 307.8081748  +6.5550753     723.7515     1099.157     1368.291     80.24472     161.1311      321.974      1.533     4.16     911.6395     56.78703     112.4625         7     1.048     0.472 -45.91   0
       507    823.5757    305.6477 307.5834027  +6.5752606     1261.161     1663.593     1579.174     80.37322     161.1311     322.0381      1.473     3.62      902.785     56.78703     193.6611        12     1.142     0.753 -79.89   0
       508    452.4098    305.7575 307.7375766  +6.5627867     847.6541     1314.438     1309.902     80.24473     160.9389     321.9099      1.697     3.88     905.2885     56.78703     139.9192         8     0.957     0.592 -71.59   0
       509    178.5784    302.1549 307.8514391  +6.5550746     2542.403     3641.305     3677.898     80.37322     161.0671      322.006      1.502     3.08       915.74     56.78703     397.8529        19     1.231     0.925 -82.94   0
       510    432.7368    302.3647 307.7458626  +6.5635274     1247.823     1677.443     2306.798     80.62959     161.1311     322.1342      1.671     5.39     905.5143     56.78703     168.1632        11     1.165     0.703  87.46   0
       511    742.4427    300.4126 307.6172808  +6.5747094     6805.302     9028.371     9669.324     80.11603     160.9389     321.9099      1.383     2.71      903.027     56.78703     1151.937        24     1.196     0.945 -80.16   0
       512    214.0771    300.7409 307.8367420  +6.5568524     771.6084     866.9128     503.6152     80.88515     161.1311     322.1342      1.315     4.17     913.9838     56.78703      126.743         6     1.065     0.466 -27.25   0
       513     74.9572    299.4526 307.8945701  +6.5527024     1113.014      1346.84     817.5169     80.75748     161.1311     322.1982      1.417     4.69     919.5703     56.78703       151.79         8     0.921     0.678 -60.03   0
       514    758.7645    298.1530 307.6105767  +6.5761883     2961.589     3933.906     4473.998     80.37322     161.0671     322.0381      1.416     3.12     902.9037     56.78703      483.941        18     1.118     0.916  82.76   0
       515    348.4541    292.7627 307.7811953  +6.5646625     1729.309     3202.533     3122.981     80.62959     161.1311     322.1982      1.936     5.41     908.5057     56.78703     223.1472        23     1.610     0.992  -0.58   0
       516     62.0898    293.5239 307.9001151  +6.5547168     1415.741     1863.047      1371.27     80.75748     161.3871     322.1982      1.381     2.90       919.82     56.78703     225.5316        11     0.992     0.696 -75.97   0
       517    997.0626    289.2180 307.5118867  +6.5878374     6818.894     9005.736     9169.327     80.37322     161.0671      322.006      1.379     2.87     896.7003     56.78703     1034.694        23     1.129     0.954  88.86   0
       518    475.0598    289.0963 307.7287295  +6.5704256     2266.612     3241.108     2870.782     80.50151     161.1311     322.2623      1.501     3.34     903.6757     56.78703       314.35        16     1.148     0.881 -58.14   0
       519    237.6579    284.5835 307.8274929  +6.5643163     6354.516     9316.101     10036.21     80.11603     161.0671     321.9099      1.607     3.24     912.5372     56.78703     896.9186        33     1.418     1.059 -78.14   0
       520    757.1545    278.1457 307.6119175  +6.5843952     969.1657     1280.756     661.1746     80.75748     161.1311     322.1662      1.314     3.11     902.1614     56.78703     157.8065         8     0.843     0.624 -52.18   0
       521    214.5025    277.4998 307.8373502  +6.5664623     805.4347     1259.536     1350.774     80.75748     161.5788      322.006      1.861     3.84     913.4975     56.78703     121.9767        10     0.982     0.762 -88.29   0
       522    372.1900    275.2467 307.7719266  +6.5726915     1744.683     2781.529     2767.244     80.24473      161.003     321.8137      1.663     4.16     906.9772     56.78703      278.502        17     1.371     0.874  82.47   0
       523    958.7941    274.4467 307.5282790  +6.5926593     1353.047     1787.177      1747.79     80.24473     160.9389     321.8137      1.321     2.58     897.7344     56.78703     245.0376         9     0.827     0.726 -75.20   0
       524    294.1491    271.4043 307.8044728  +6.5716565      1172.65     1534.566     1479.905     80.11603     160.8748     321.7495      1.341     4.20     910.3245     56.78703     186.1852        13     1.283     0.805 -72.02   0
       525    179.0052    272.2971 307.8522704  +6.5674163     629.2733      907.756     445.9266     80.50151     160.8106     321.9099      1.570     4.04     915.0751     56.78703     93.63147         6     1.089     0.438  73.58   0
       526    141.4815    271.0520 307.8678987  +6.5666677     1994.213         2900     2863.932     80.75748     161.1311     322.1982      1.560     3.53      916.658     56.78703     270.2106        18     1.205     0.903 -86.53   0
       527    894.7453    266.0570 307.5551670  +6.5939850     1888.225     2754.615     2891.705     80.88515     161.1952     322.1982      1.595     4.74     899.7897     56.78703     278.5771        18     1.453     1.003  37.75   0
       528    551.2149    266.9215 307.6978421  +6.5821345     2315.195     3161.023     3165.538     80.37322     160.8748      322.006      1.415     2.88     901.9576     56.78703     356.4277        15     1.089     0.812 -77.62   0
       529    714.8684    264.4509 307.6299434  +6.5886350     5646.842     7620.449     7641.499     80.62959      161.003     322.1021      1.450     2.99     901.7109     56.78703     948.4114        25     1.204     0.964 -80.27   0
       530    952.9304    264.4182 307.5310511  +6.5966043     811.2988     1179.186     1030.825     80.24472      161.003     322.1021      1.449     2.87     897.5369     56.78703     187.5636         8     1.002     0.682  82.04   0
       531    655.6517    264.4327 307.6545429  +6.5866605     2428.799     3236.398     3262.799     80.62959     161.1311     322.0701      1.475     2.94     901.5238     56.78703     369.9976        17     1.082     0.909 -64.80   0
       532    370.5734    258.7388 307.7731547  +6.5794529     807.5649     1146.817     698.8221     80.37322     161.1311     322.0701      1.399     3.29     906.6085     56.78703     138.8214         8     0.906     0.634  75.67   0
       533    910.8779    256.7455 307.5487776  +6.5983683     1260.016     1665.796      1029.72     80.88515     161.1311     322.1662      1.380     3.72     898.8906     56.78703     192.4935        14     1.153     0.831  82.19   0
       534    214.2289    249.8010 307.8383993  +6.5778891     2592.862     3816.928     3490.488     80.24472     160.9389      321.974      1.548     3.45     913.2807     56.78703     378.1786        21     1.260     0.959 -68.39   0
       535    857.2408    248.6324 307.5713316  +6.5999266     1995.144     2414.993     2166.345     80.37322      161.003     322.0381      1.268     2.86     900.4214     56.78703     336.4183        13     0.977     0.806 -74.48   0
       536    747.5402    248.2410 307.6169159  +6.5964209     1933.867     2541.297     2688.629     80.75748     161.1311     322.2303      1.401     2.90      901.406     56.78703     318.7437        18     1.164     0.883 -52.08   0
       537    236.3286    243.4364 307.8294344  +6.5812601     608.7959     879.6588     613.3788     80.62959     161.1311     322.2303      1.355     4.85     912.4886     56.78703     90.91608         7     1.216     0.549 -69.23   0
       538    448.2600    239.5646 307.7415306  +6.5899771     25173.83     35435.02     36659.97     80.75748     161.1311     322.1342      1.526     2.94      902.859     56.78703     3517.594        44     1.354     1.131 -84.86   2
       539    454.0971    234.3437 307.7392817  +6.5923285     1635.136     2321.045     2957.391     80.62959     161.0671     322.3904      1.517     4.07     902.4542     56.78703     227.4171        16     1.294     0.876 -62.44   2
       540    271.5131    241.4418 307.8148866  +6.5832664     510.7156       640.59     765.4537     80.75748     161.0671     322.1982      1.482     5.25      911.218     56.78703     79.18683         5     1.091     0.714 -69.12   0
       541    774.3027    238.7202 307.6061182  +6.6012469     14885.57     20679.48     21709.32     80.50151      161.451     322.1982      1.467     2.83     901.1794     56.78703     2370.597        48     1.359     1.274 -35.61   0
       542    713.0015    234.6833 307.6317193  +6.6008631     720.7369     1175.611     1290.421     79.98711     160.6822     321.8778      1.521     4.43     900.9653     56.78703      157.647         7     1.169     0.712 -69.46   0
       543    136.4896    232.8013 307.8712649  +6.5822922     2637.065     3772.688     4141.338     79.98711     160.6822     321.9419      1.577     3.24      915.559     56.78703     376.7853        21     1.411     0.924  79.83   0
       544    111.2234    232.1088 307.8817834  +6.5817275     1090.391     1529.076     2122.739     80.75748     160.9389      322.006      1.911     3.93     916.6274     56.78703     179.7193        10     1.043     0.703 -86.07   0
       545    767.2806    230.9836 307.6092952  +6.6042064     602.9082     1077.941      1549.52     80.37322     160.8106      322.006      1.719     4.10      900.978     56.78703     102.6431         5     1.065     0.451  21.17   0
       546    163.1983    231.0326 307.8602304  +6.5839213     806.7458     1199.801     1186.437     79.98711     160.9389     321.9099      1.712     4.22     914.3367     56.78703     116.1962         8     0.961     0.711 -63.68   0
       547    910.9025    229.1324 307.5496936  +6.6097703     1701.294     2425.703     2275.448     80.75748     161.1952     322.1662      1.425     2.58     897.7039     56.78703     360.5186        14     1.036     0.800  86.77   0
       548    572.3399    225.3702 307.6904652  +6.5999982     5237.955     7326.661     7528.879     80.50151     161.1311     322.1342      1.482     2.81     900.4638     56.78703     783.0371        27     1.264     0.989 -74.98   0
       549    293.1595    226.2337 307.8064082  +6.5902729     1112.801     1644.262     1410.855     80.50151     161.0671      321.974      1.383     3.48     910.4073     56.78703     160.2963        11     0.995     0.786 -21.55   0
       550    535.0322    225.4157 307.7059616  +6.5987290     2387.074     3370.926     3342.579     80.37322     160.8748     322.0701      1.513     3.29      900.541     56.78703      345.999        18     1.129     0.927 -71.32   0
       551    376.7862    224.3514 307.7717335  +6.5938592     1734.983     2204.743     1850.767     80.11603     161.0671     321.8458      1.377     3.55     905.4234     56.78703     273.1213        12     1.042     0.804  76.26   0
       552    933.2645    222.4963 307.5406264  +6.6132569       3091.9     4229.871     4219.195     80.62959     161.2592     322.1662      1.352     2.77      896.441     56.78703     494.0435        19     1.134     0.882  73.05   0
       553    879.4190    221.8967 307.5630154  +6.6117063     12768.72     17303.31     17942.97     80.62959      161.003     321.9419      1.392     2.74     898.8181     56.78703     2252.651        34     1.265     1.002 -83.53   0
       554    554.4861    221.8934 307.6979988  +6.6008354     1028.682     1389.395     1217.544     80.75748     161.5788     322.2623      1.442     3.96     900.3718     56.78703      167.535        10     1.068     0.718 -73.51   0
       555    198.8954    222.1417 307.8457028  +6.5887931     759.9175      1057.54     1076.111     80.62959     161.1311     322.2943      1.467     4.22      913.327     56.78703     124.1499         7     0.972     0.567  77.47   0
       556    307.4464    222.3115 307.8006059  +6.5923724     934.9076     1110.908     956.0828     80.75748      161.003     322.2623      1.237     3.30     909.5187     56.78703     174.0605         8     1.011     0.607  18.06   0
       557    966.0182    219.8244 307.5271091  +6.6154535     11280.44     14956.48     15365.09     80.37322     160.9389     322.1021      1.383     2.74     895.0635     56.78703       1947.6        28     1.203     0.962 -79.30   0
       558    677.4639    219.7206 307.6469852  +6.6058516     3251.249     4425.215     4956.829     81.01263     161.1952     322.1342      1.476     2.96      900.447     56.78703     499.1742        18     1.101     0.861 -76.67   0
       559      5.4925    218.4081 307.9261649  +6.5838224     27881.44     39953.02     41709.86     80.37322     160.8106     300.2139      1.566     2.97     921.2626     56.78703     4058.884        50     1.433     1.131  88.51  16
       560    251.8188    219.3270 307.8238140  +6.5917349     1248.088     1537.595     879.5051     80.37322     161.0671     322.1021      1.345     3.87     911.8753     56.78703     196.0347        12     1.066     0.816  72.87   0
       561    486.2072    214.4803 307.7266122  +6.6016068     2218.859     2840.279     2210.124     80.37322     160.6822      322.006      1.440     3.14     900.9072     56.78703     327.6227        16     1.067     0.956  86.69   0
       562    870.3916    210.5635 307.5671459  +6.6160841     2152.166     2950.239     3309.955     80.11603     160.8748     321.9419      1.508     3.03      898.652     56.78703     337.3628        15     1.046     0.873  78.72   0
       563    818.0940    211.3307 307.5888461  +6.6140197     2281.945     2765.333     2437.881     80.62959     161.2592     322.1982      1.293     2.89     899.7536     56.78703      373.669        14     1.012     0.805 -64.20   0
       564    498.0966    210.6543 307.7218021  +6.6035852       2718.5     3754.759     4039.515     80.62959     161.1311     322.3904      1.459     2.92     900.6943     56.78703     426.9307        17     1.083     0.867 -69.66   0
       565    332.6211    207.2628 307.7906561  +6.5994314     6181.863     12205.25     13354.52     80.37322     161.1311     322.0381      2.072     6.04     907.8669     56.78703       751.59        45     2.099     1.070 -80.62   0
       566    729.5595    207.8820 307.6257415  +6.6124830     45169.46     61089.44      63351.3     80.75748     161.1952     322.1021      1.431     2.82     900.4167     56.78703     7960.309        52     1.297     1.110 -85.51   0
       567    963.4426    206.7446 307.5286176  +6.6207680     3228.441     4297.181     4430.114     80.62959     161.1311     322.1982      1.344     2.82     894.8619     56.78703     518.5761        18     1.108     0.841 -81.77   0
       568    897.5253    204.9842 307.5560609  +6.6192941     8444.943     11388.19      11152.8     80.24472     160.8748     322.0381      1.365     2.68     897.1796     56.78703     1626.362        29     1.213     0.996  86.96   0
       569   1001.6462    205.4421 307.5127900  +6.6225806     2129.196     2679.109     3164.624     80.75748     161.1311     322.0701      1.397     3.18     893.5763     56.78703      357.582        15     1.035     0.943 -75.65   0
       570    440.9614    204.1101 307.7457571  +6.6043705     5555.591     7920.996     7900.511     80.75748     161.0671     322.1982      1.482     3.08     901.9862     56.78703     812.6439        27     1.336     0.972 -77.71   0
       571    215.5656    200.2922 307.8395161  +6.5983748     825.8001     1593.783     1468.864     80.88515      161.003     322.2303      1.983     6.81     912.7992     56.78703     120.3975        12     1.469     0.886  71.72   0
       572     98.4237    195.2278 307.8883471  +6.5965235     5345.539     7698.618      7842.07     80.24473      161.003      322.006      1.552     3.22     916.0428     56.78703     766.5734        30     1.346     1.066 -79.04   0
       573    243.9531    193.0511 307.8279685  +6.6023190     7198.526        10442     11056.19     80.88515      161.003     322.2303      1.521     3.12     912.0129     56.78703     1052.556        30     1.375     1.039 -76.98   0
       574    917.9267    194.4469 307.5479389  +6.6243261     837.6647     1146.029     1477.795     80.62959     161.1952     322.1662      1.348     2.82      895.868     56.78703     169.8164         7     1.045     0.402 -56.92   0
       575    594.7851    193.8981 307.6822002  +6.6137445     697.7472     927.8076     1419.386     80.75748     160.8748     321.9419      2.136     5.86     900.1846     56.78703     123.6588        11     1.330     0.847 -69.68   0
       576    268.6723    192.0001 307.8177356  +6.6035840     36919.97     53399.89     55499.64     79.98711      160.618      322.006      1.533     3.07     911.2604     56.78703     5571.694        56     1.421     1.164 -85.35   0
       577    698.0994    191.5610 307.6393594  +6.6181689     1009.059     1519.913     1936.728     80.75748      161.003     322.3904      1.654     3.18     899.9877     56.78703     222.2791         9     1.090     0.600 -68.92   0
       578    148.7072    188.7973 307.8676772  +6.6008712     4435.503     6221.572     6501.065     80.24473     160.8106     321.8458      1.476     2.98     914.0934     56.78703     720.3501        25     1.275     0.988 -74.36   0
       579    392.7202    187.4812 307.7663576  +6.6096170     55925.42     78418.55     81475.93     80.88515     161.3871     322.3263      1.529     3.01     903.7593     56.78703     8243.815        61     1.413     1.172 -86.38   0
       580    410.0642    188.0552 307.7591333  +6.6099622     1422.836     1989.864     1903.789     80.88515     161.0671     322.1662      1.495     3.65     902.5876     56.78703     228.7754        15     1.228     0.868 -73.91   0
       581    563.2841    187.4370 307.6955039  +6.6153566     602.2007     675.4097     1266.919     80.75748     161.1311     322.1021      1.188     3.45     899.7187     56.78703     92.10571         5     0.740     0.465  17.56   0
       582    304.1801    184.7457 307.8032303  +6.6077725     2167.108     3663.719     4957.209     80.24473     161.1311      321.974      2.169     5.55     909.7094     56.78703     336.6505        22     1.754     0.858 -81.66   0
       583    296.7422    185.2135 307.8063043  +6.6073294     19860.14     28742.04     30048.75     80.11603      161.003     321.8778      1.536     3.17     910.1541     56.78703     2862.552        41     1.338     1.146 -82.13   0
       584    732.0095    183.7539 307.6255345  +6.6225270     37422.07     50604.95     52502.23     80.24472      161.003     321.8137      1.417     2.80     899.8887     56.78703     6410.975        51     1.318     1.082 -87.20   0
       585    680.0066    185.8410 307.6470680  +6.6199250     1132.569     1397.697     1291.826     80.11603     160.8106     321.8778      1.247     3.88     899.8354     56.78703     168.3336         8     0.867     0.626 -41.35   0
       586    780.3522    184.4429 307.6054281  +6.6238595      1344.35     1617.256     1224.593     80.75748     161.0671     322.1021      1.247     2.64     899.0425     56.78703     235.9924        10     0.959     0.684  83.27   0
       587     19.6659    183.7638 307.9214500  +6.5986034     748.0547     1063.177     1164.721     80.62959     161.1311     322.2303      1.363     2.91     920.6065     56.78703     143.2917         7     0.959     0.624 -74.71   0
       588     48.8255    180.9366 307.9094331  +6.6007532     10068.93     14661.55     14926.45     80.37322     161.1311     322.1021      1.525     3.20     918.7379     56.78703     1505.986        34     1.357     1.066 -79.54   0
       589    555.5177    182.0349 307.6989120  +6.6173267     636.8129     874.2248     1541.908     80.75748     161.0671     322.1342      1.341     3.78     899.5259     56.78703     83.83691         6     0.822     0.499 -87.46   0
       590     82.6596    179.0703 307.8954418  +6.6026634     1564.626      2198.23     2288.967     80.88515     161.1311     322.1982      1.528     3.62     916.4886     56.78703     228.9761        16     1.263     0.831 -86.16   0
       591    990.4852    178.4144 307.5183327  +6.6333677      1206.46     1640.566     1711.703     80.37322     160.8748     322.0381      1.310     2.42     893.6633     56.78703      260.652         9     0.945     0.601 -89.61   0
       592    958.3869    177.2009 307.5317084  +6.6327975     695.7934     1037.875     1183.644     80.37322     160.8106     321.9419      1.427     4.86     894.2116     56.78703     101.7266         8     1.411     0.474 -51.40   0
       593    716.6219    171.4099 307.6323418  +6.6271088     756.1358     845.2379     927.0244     80.37322     160.8748      322.006      1.590     5.04     899.5876     56.78703     109.1162         7     1.124     0.638 -74.40   0
       594    566.2530    168.1875 307.6949184  +6.6234038     872.7759     1003.749     639.9585     80.11603     161.0671     321.8778      1.280     2.91     899.4061     56.78703     157.0736         7     0.825     0.582 -67.16   0
       595    991.4655    164.1651 307.5184030  +6.6392838      2450.86     3390.764     3733.304     80.62959     161.1311     322.1982      1.419     2.75     893.5002     56.78703     401.6885        18     1.100     0.887 -82.36   0
       596    574.5096    161.9962 307.6916968  +6.6262367     1035.676     1363.206     1341.275     80.24473     160.8106     321.8778      1.394     3.41     899.4712     56.78703      169.036        11     1.062     0.745 -69.69   0
       597    326.7818    160.2240 307.7946688  +6.6186562     994.7303     1674.707     1810.227     80.37322     161.0671     322.1021      1.801     5.73     908.2572     56.78703      146.203        16     1.368     0.927 -65.42   0
       598    582.7855    160.3407 307.6883144  +6.6271976     2078.414     2477.738     2282.141     80.11603     161.1311     321.9099      1.300     2.87     899.5906     56.78703     325.9343        14     1.084     0.764 -58.50   0
       599    267.5453    158.2367 307.8193435  +6.6174860     33503.37     47791.51     49935.27     80.62959     161.1311     322.1982      1.544     3.06     911.2401     56.78703     4823.484        56     1.414     1.185 -86.17   0
       600     12.8717    156.8960 307.9251815  +6.6094671     4648.125     6666.164     6570.862     80.62959     161.2592     322.1662      1.496     3.16     921.0612     56.78703     713.5366        30     1.549     0.975 -81.50   0
       601    699.2264    154.8821 307.6401242  +6.6333507     8995.857     12190.62     13581.46     80.62959     160.9389     322.1662      1.414     2.84     899.1035     56.78703     1398.158        29     1.242     0.988 -78.11   0
       602    176.8092    156.1555 307.8571066  +6.6152936     1031.917     1281.194     1035.669     80.24472      161.003     321.8778      1.282     2.55      912.959     56.78703     183.4903         8     0.755     0.691  54.34   0
       603    253.3560    153.2949 307.8254048  +6.6190493      994.967     1355.072     1168.204     80.75748     161.0671     322.2943      1.471     3.98     911.6356     56.78703     126.9661        12     0.977     0.869  24.74   0
       604    109.9524    151.8638 307.8850244  +6.6148151     5574.129     7880.006     8001.092     80.62959      161.003     322.1982      1.483     3.19     914.4489     56.78703     813.1712        27     1.340     1.026  86.56   0
       605    571.9716    149.7962 307.6931618  +6.6311888     782.1764     1159.459     1106.872     80.24473     160.9389      322.006      1.467     5.46     899.1794     56.78703     138.2313         9     1.425     0.590 -69.63   0
       606    637.8873    149.1019 307.6658013  +6.6336837      907.342     1297.469       1507.6     80.75748     161.5788     322.1982      1.404     3.73     899.3517     56.78703     156.3943         8     1.080     0.562 -62.59   0
       607    448.9039    149.2860 307.7443052  +6.6272726     1488.817     2089.504     2452.572     80.75748      161.515     322.1982      1.546     3.49     900.4557     56.78703     203.6655        15     1.115     0.895 -87.58   0
       608    380.6788    148.0539 307.7726893  +6.6254912     4252.097      6634.61     6417.343     80.88515     161.1311     322.1982      1.676     3.55     904.2255     56.78703     570.1801        33     1.487     1.138 -86.79   0
       609     99.4191    146.7996 307.8895712  +6.6165512     1812.768     2646.586     2159.875     80.37322     160.6822     321.8458      1.540     3.74      914.638     56.78703     296.4694        15     1.225     0.862 -65.59   0
       610    345.3051    146.9922 307.7874202  +6.6247415     3618.301     5357.833      5362.45     80.50151     160.7464      321.974      1.506     3.18     907.2086     56.78703     497.6662        25     1.225     1.065 -82.95   0
       611    557.7287    146.7125 307.6991826  +6.6319846     910.4107     1127.909     1265.087     80.88515     161.3871     322.1662      1.471     4.97      898.904     56.78703     134.8237        10     1.002     0.699 -78.98   0
       612    735.9026    145.2939 307.6252095  +6.6385368     563.6448     693.1873     195.3414     80.75748     161.7065     322.0701      1.265     3.71     898.5837     56.78703     103.8996         5     0.833     0.474 -51.42   0
       613    661.1992    145.0274 307.6562536  +6.6361466     978.2585     1284.244     1026.622     80.37322     160.8106      321.974      1.365     2.87     898.8707     56.78703      145.651         9     0.780     0.755 -66.98   0
       614    991.9836    141.0762 307.5189617  +6.6488341     1754.441     2272.348     2038.826     80.24473     160.8748     322.0381      1.323     2.70     892.2428     56.78703     330.8079        13     1.136     0.707 -86.88   0
       615    717.8369    141.0083 307.6328589  +6.6397017     539.2485     897.2787     901.7949     79.98711     160.8748     321.9099      1.939     5.31     898.4255     56.78703      107.761         6     1.255     0.634  86.22   0
       616    197.0641    135.8299 307.8493792  +6.6243668     6059.604     8584.724     9242.561     80.50151     161.1952     322.1021      1.470     3.07     912.3944     56.78703     890.6406        29     1.262     1.051 -78.62   0
       617     79.6899    135.6544 307.8981438  +6.6204882     2252.032     3170.036     3575.593     80.62959     160.9389     322.2943      1.489     3.46     915.6765     56.78703     334.8163        17     1.251     0.824 -72.78   0
       618    658.8120    134.6399 307.6575947  +6.6403554     7034.935     9320.375     9629.509     80.24473     160.9389     321.9099      1.409     2.87     898.4995     56.78703     1169.167        27     1.209     0.994 -77.87   0
       619    807.0305    134.2578 307.5960303  +6.6454721     1234.484      1502.88     1364.049     80.50151     161.1311     322.0701      1.306     3.27     895.9757     56.78703     183.9817        11     1.015     0.755 -66.76   0
       620    610.9205    131.9567 307.6775812  +6.6398593     10416.28     14758.34     16088.12     80.75748     161.1311     322.1342      1.496     2.91     899.1917     56.78703     1740.878        36     1.387     1.063  89.48   2
       621    614.4567    123.4290 307.6763990  +6.6434987     60072.77     82392.49      85207.8     80.37322     161.1952     322.0701      1.488     2.83     898.8527     56.78703     8908.828        63     1.371     1.165 -86.65   2
       622    245.7280    132.2372 307.8292847  +6.6274869      878.739     1257.332     868.9886     80.62959     161.1311     322.2303      1.543     5.51      911.803     56.78703     129.7051        12     1.350     0.724 -84.72   0
       623    548.7971    131.6403 307.7034006  +6.6379083     771.0224     1066.943     1457.453     79.98711     160.8106     321.8778      1.403     3.27     898.5762     56.78703     125.3745         9     0.866     0.746  81.15   0
       624      9.6491    130.5564 307.9274116  +6.6202330     1011.368      1497.88     1894.929     80.75748     161.0671     322.1342      1.569     4.53     920.5826     56.78703     186.7023        14     1.401     0.750 -66.13   0
       625    338.1622    127.7089 307.7910381  +6.6324631     4060.253     6267.921     6999.313     80.88515     161.0671     322.1982      1.686     3.41     907.8156     56.78703     600.8362        32     1.586     1.002 -61.68   0
       626    519.9041    126.8610 307.7155648  +6.6389129      1984.17     2803.205     2987.495     80.50151     161.1311     322.2623      1.442     3.61     898.9032     56.78703     297.0609        17     1.303     0.821  81.37   0
       627    984.1958    126.9265 307.5226715  +6.6544165      892.975     1220.602     1261.445     80.37322     160.6822     322.0381      1.568     3.74     891.5484     56.78703     155.9009         9     1.068     0.642 -70.09   0
       628    293.5211    117.1060 307.8099411  +6.6353408     3991.866     5811.468     6619.248     80.50151     161.3232     322.1982      1.611     3.19     910.8766     56.78703     617.7014        25     1.369     0.992 -80.93   0
       629    489.4099    115.1590 307.7286275  +6.6427216     531.7196     915.9773     582.8596     80.11603     160.9389     321.8778      1.438     4.09     899.2836     56.78703     112.3026         5     0.988     0.483  83.86   0
       630    693.6174    112.0834 307.6438932  +6.6508338     1161.761     1507.879     1651.454     80.37321     160.8106     322.1021      1.320     3.07     897.1777     56.78703     196.8865         9     0.936     0.634 -40.82   0
       631    665.0608    110.8628 307.6557983  +6.6503817     1427.773     1801.123     1661.683     80.75748     161.1311     322.1982      1.352     2.99     897.4146     56.78703     247.1871        12     1.049     0.694 -74.64   0
       632    678.9246    107.4263 307.6501540  +6.6522647     3547.063     4908.399     4498.002     80.37321      161.003     322.1342      1.427     2.74     897.0432     56.78703      583.308        23     1.207     1.078  87.32   0
       633      2.2006     98.5693 307.9315885  +6.6331881     840.3077     2204.752     4596.783     78.94828     140.5385     256.4662      5.853    11.06     920.2825     56.78703     125.4458        30     3.285     1.038  81.98  24
       634    420.5778     98.3972 307.7577882  +6.6473326     4649.413     6411.513     6391.523     80.37322     160.8106     321.9099      1.497     3.26     900.9491     56.78703     700.7438        27     1.272     1.034 -89.85   0
       635    573.4406     95.1287 307.6943916  +6.6538090     850.3729     1181.577     1757.932     80.62959     161.1311     322.2303      1.772     4.51     898.0876     56.78703      138.054        10     1.251     0.741  88.83   0
       636    875.2790     94.7237 307.5690029  +6.6640760     2492.878     3219.901     2783.355     81.01263     161.3871     322.2623      1.349     2.90     892.7809     56.78703     375.6885        15     1.033     0.856 -82.06   0
       637    893.0980     93.8548 307.5616288  +6.6650300     4405.584     5985.701      6541.68     80.62959     161.1311     322.3904      1.440     2.79     892.2459     56.78703     696.9758        23     1.182     0.977 -84.37   0
       638    585.2591     92.3830 307.6895740  +6.6553387     2010.215     2640.107     2749.972     80.37322      161.003     321.9099      1.383     3.03     898.0049     56.78703     298.5626        19     1.148     1.068 -38.37   0
       639    605.8992     92.3143 307.6810013  +6.6560587     441.6866     302.9321    -360.0791     80.75748     161.5788     322.2303      1.087     3.81     897.9873     56.78703     99.65167         5     0.854     0.487 -50.75   0
       640    383.9830     90.1755 307.7732685  +6.6494985     2164.161     3283.775     3451.823     80.50151      161.003     322.1021      1.511     3.49     904.1537     56.78703     328.6981        18     1.306     0.889 -86.90   0
       641    231.0629     91.5079 307.8367525  +6.6438095     794.9281     1153.129     1302.491     80.75748     161.2592     322.2303      1.527     3.23     911.9193     56.78703     134.9099         8     0.924     0.656  76.24   0
       642    131.9546     87.0821 307.8780746  +6.6423019     3456.242     4798.444     4935.522     80.75748     161.1311     322.1662      1.457     3.28     912.3611     56.78703     498.8279        19     1.226     0.876 -74.03   0
       643     13.7758     84.8804 307.9272434  +6.6392299     13480.63     19390.31     20768.63     80.50151     160.8748     322.1342      1.522     3.24     918.5841     56.78703     2024.666        39     1.378     1.096 -84.92   0
       644    280.4142     85.6793 307.8164470  +6.6478753     1538.365     2041.139     2052.063     80.37322     160.8748     321.9419      1.423     3.06     911.6086     56.78703     208.5238        12     0.986     0.774 -61.84   0
       645    553.5772     85.0026 307.7029848  +6.6573241     644.8429     1033.544     1222.614     80.37322     160.8106      321.974      1.841     3.96     897.8835     56.78703     117.3696         7     1.137     0.717 -61.83   0
       646    540.6463     84.3477 307.7083791  +6.6571610     951.4847     1250.633     1046.435     80.88515     161.0671     322.2303      1.530     5.55      897.964     56.78703     115.9351        11     1.087     0.799  64.46   0
       647    395.4339     85.1409 307.7686811  +6.6519616     430.0838     525.1304     375.3773     80.62959     161.1311     322.1021      1.406     4.34     903.1497     56.78703     79.00549         5     0.944     0.568 -44.68   0
       648    971.8336     83.5702 307.5292612  +6.6719052     586.4418     871.3645     891.8115     80.24473     160.8748     321.8778      1.215     3.55     889.5739     56.78703     120.4807         5     0.996     0.364 -85.20   0
       649    934.7231     84.0047 307.5446651  +6.6704870     672.2456     1100.798     1209.095     80.37322      160.618      322.006      1.800     3.57     890.6927     56.78703     121.1364         7     0.836     0.611 -70.00   0
       650    748.8416     84.4474 307.6218787  +6.6640920     655.9635     753.3527     1032.823     80.75748     161.1311     322.0381      1.148     2.82     895.2956     56.78703     121.6047         5     0.729     0.446 -22.42   0
       651    405.8298     80.6136 307.7645148  +6.6541799     1212.911     1604.322     1468.715     80.37322     160.9389     322.1021      1.465     4.28     902.1497     56.78703     204.1018        13     1.263     0.718 -75.82   0
       652    882.7062     81.0869 307.5663747  +6.6699545     832.3306     971.0497     728.9055     80.75748     161.5788     322.2303      1.247     3.11     891.9582     56.78703     138.3289         7     0.811     0.619  62.63   0
       653    815.5342     79.6389 307.5943315  +6.6683076     7154.269     9354.595     9616.649     80.62959     161.0671     322.2623      1.363     2.73     893.4904     56.78703     1251.909        24     1.213     0.917  89.30   0
       654    760.5380     79.9646 307.6171698  +6.6663341      3695.33     5161.468     5444.349     80.75748     161.1311     322.1342      1.453     2.92     894.8279     56.78703     603.7833        23     1.194     1.034  80.14   0
       655    747.6172     80.2521 307.6225283  +6.6657832     561.6743     939.7422     1341.349     80.24473     161.1952     321.8778      2.154     4.14     895.1525     56.78703     105.2892         5     1.011     0.483 -86.59   1
       656    523.1307     77.9111 307.7158728  +6.6592312       1251.3     1792.613     2236.371     80.75748     161.3871     322.1342      1.515     3.82     898.2554     56.78703     176.4136        12     1.065     0.886 -87.70   0
       657     54.1425     76.8427 307.9107461  +6.6439087     3521.487     5169.816     5024.521     80.62959     161.0671     322.1982      1.538     3.13     915.6012     56.78703      527.226        24     1.226     1.068 -84.67   0
       658     38.8318     77.6809 307.9170782  +6.6430467     1117.804     1474.935     908.6046     80.62959     161.1311     322.1342      1.368     3.31     916.5746     56.78703     180.8864        10     0.966     0.695 -87.42   0
       659    415.3040     76.4933 307.7607177  +6.6561991     1005.033     1426.573       1501.9     80.75748     161.6427     322.1021      1.671     3.84     901.3436     56.78703     165.9635         9     1.081     0.622  84.52   0
       660    577.8804     73.7853 307.6932655  +6.6627700     1371.377     1908.601     1500.429     80.37322     160.8748      322.006      1.470     5.31     897.5596     56.78703      206.554        12     1.368     0.715 -84.28   0
       661    857.6577     69.1336 307.5771830  +6.6740529     470.8253     470.4114      159.965     80.88515     161.0671     322.1662      1.126     3.45     892.0702     56.78703     81.84991         5     0.795     0.433 -73.00   0
       662    755.3328     67.6167 307.6197473  +6.6712583      2306.46     3112.803     3339.652     80.24473     161.0671     322.0701      1.555     2.94     894.4941     56.78703     327.4096        15     1.047     0.855 -75.55   0
       663     68.8206     68.1309 307.9049432  +6.6479999      816.793     1092.194     854.4948     80.37322      161.003     322.0701      1.382     4.50     914.2935     56.78703     135.3342         8     1.088     0.529 -56.96   0
       664    395.9131     67.5822 307.7690741  +6.6592272     1130.649      1525.03     1188.077     80.50151     160.8748     322.0381      1.473     3.00      903.109     56.78703     217.9869        11     0.956     0.812 -57.26   0
       665     93.2008     66.4284 307.8948725  +6.6495240     1095.247     1461.941     1673.989     80.24473     160.9389      321.974      1.527     4.76     912.8536     56.78703      140.238         9     1.102     0.583 -63.61   0
       666     81.9223     61.1140 307.8997377  +6.6513383        10402     15009.96     15517.23     80.75748      161.451     322.2623      1.520     3.38     913.2849     56.78703     1515.049        36     1.359     1.119  89.83   0
       667    410.9265     60.8642 307.7630633  +6.6625049     2814.776     3851.864     3719.554     80.88515     161.1311     322.1662      1.441     2.98     901.7715     56.78703     443.0743        18     1.195     0.873 -89.98   0
       668    232.3007     60.5364 307.8372843  +6.6566382     812.4108     1170.959     958.7203     80.62959     161.1952     322.1982      1.571     5.14     911.9385     56.78703     122.3195         8     1.130     0.660 -74.90   0
       669    624.6253     53.1724 307.6745383  +6.6728467     20523.49     28208.82     29451.31     80.24473     160.9389     322.0381      1.446     2.87     896.5166     56.78703     3438.986        44     1.350     1.069 -85.16   0
       670    248.5215     55.0893 307.8307294  +6.6594326     1605.042     2266.289     3214.033     80.50151     161.3871     322.2943      1.547     3.57     911.8982     56.78703     251.6705        15     1.178     0.883  83.60   0
       671    654.7109     54.3570 307.6619988  +6.6733653     602.5418     731.8423     686.5798     80.75748      161.003     322.1982      1.296     4.38      896.001     56.78703     95.29602         7     0.981     0.557 -56.67   0
       672    934.1738     53.1658 307.5459278  +6.6832016     588.3364     628.3152     901.1865     80.11602     160.9389     321.9419      1.066     2.43      889.499     56.78703     120.2886         6     0.724     0.555  38.53   0
       673    524.3975     49.2187 307.7163129  +6.6711201      5713.76     7800.863     7843.138     80.37322     160.6822     321.9099      1.449     2.87     897.8525     56.78703     916.9376        24     1.255     0.951 -87.48   0
       674    242.5748     49.4295 307.8333911  +6.6615694     2233.491     3182.606     4173.131     80.24473     160.9389     322.0381      1.617     3.27     911.9274     56.78703     308.9968        19     1.199     0.920 -85.96   0
       675    680.8614     48.6695 307.6513252  +6.6765891     662.5174     990.6739     1767.219     80.88515     161.1311     322.1982      2.270     3.77      895.368     56.78703     129.9867         7     0.859     0.618 -33.59   0
       676    250.5825     45.1630 307.8302084  +6.6636001      10071.6     14721.29     15523.82     80.37322      161.003     321.9419      1.565     3.12     911.9244     56.78703     1463.697        38     1.369     1.140 -84.64   0
       677    610.8669     43.0667 307.6805945  +6.6765583     3573.295     5207.531     6364.625     80.75748     161.1311     322.1982      1.654     2.88     896.4686     56.78703     636.6444        24     1.374     0.913 -84.07   2
       678    429.9574     44.8051 307.7556981  +6.6697741     24804.62     35784.92     37388.22     80.11603     160.8106     321.8458      1.518     3.08     900.8721     56.78703     3801.263        54     1.407     1.185 -84.73   0
       679    907.8825     44.8635 307.5571300  +6.6857515     2249.793     2989.538     3410.308     80.88515     161.1311     322.1662      1.421     2.90     889.8351     56.78703      396.343        15     1.085     0.770 -79.52   0
       680    310.5269     45.3106 307.8052995  +6.6655543     1081.616     1266.232     1631.928     80.75748     161.3871     322.1662      1.324     3.48      910.204     56.78703     188.5978        11     1.043     0.727 -51.89   0
       681     15.9880     44.7830 307.9276816  +6.6558590     2577.797     3589.163     3778.639     80.50151     160.8106     322.0701      1.478     3.38     915.8018     56.78703     401.6594        19     1.251     0.879 -73.56   0
       682    515.3650     45.2183 307.7202004  +6.6724689     779.2408     1043.573     769.3918     80.24473     160.9389     321.9419      1.356     3.99     898.0914     56.78703     137.6711         7     0.967     0.583 -37.17   0
       683    238.4483     41.7090 307.8353662  +6.6646181     3293.963     4874.587      4904.93     80.75748     161.0671     322.3263      1.600     3.27     911.9481     56.78703     471.1412        25     1.402     0.984 -77.55   0
       684    291.8489     40.2813 307.8132291  +6.6670030     1184.513     1752.833     2265.154     80.75748     161.1311     322.1982      1.626     3.77     911.6791     56.78703     170.4186        12     1.076     0.818 -77.62   0
       685    928.3708     35.4038 307.5489347  +6.6903414     1238.774     1919.399     1939.458     80.24473     160.9389      322.006      1.605     3.68     888.9885     56.78703     229.7148        10     1.077     0.669 -86.78   0
       686    679.8681     34.4001 307.6522177  +6.6824473     2018.289     2773.757     3069.966     80.24473      160.618     321.9419      1.361     2.63     895.0134     56.78703     413.7454        13     1.072     0.812  74.08   0
       687     84.9708     35.1906 307.8993482  +6.6621437     666.8577     852.5241     179.7788     80.24473     160.9389      322.006      1.296     4.26     912.1736     56.78703     104.4644         7     0.733     0.705 -61.18   0
       688    190.8785     30.3887 307.8555116  +6.6676917     827.8781     1219.396     973.5378     80.37322     160.7464     322.0701      1.496     4.96     911.7674     56.78703     130.2998         9     1.261     0.626 -71.51   0
       689    245.7936     29.1816 307.8327377  +6.6700373     881.1191     1233.086     1430.704     80.37322     160.8106      322.006      1.446     5.51     911.9725     56.78703     141.8098        10     1.106     0.775 -75.33   0
       690    168.1227     27.2012 307.8650732  +6.6682419     11646.12      16829.8     17153.35     79.98711     160.5537      321.974      1.496     3.21     911.6355     56.78703     1651.645        36     1.350     1.066 -81.23   0
       691    913.5894     25.0676 307.5554230  +6.6941154     4516.859     6086.528     5955.387     80.24472     160.9389      322.006      1.400     2.82     888.8922     56.78703     841.2432        21     1.236     0.902 -78.06   0
       692    512.2961     25.4029 307.7221428  +6.6805472     3180.364     4203.556     4040.169     80.50151     160.8106     321.8458      1.383     2.92     897.9993     56.78703     477.5636        20     1.177     0.921  87.04   0
       693    425.8589     26.8771 307.7580053  +6.6770385     1512.139     1348.417     473.1092     80.88515     161.1311     322.1342      0.761     1.45     901.0738     56.78703     673.7415         7     0.646     0.560 -78.51   0
       694    714.4453     23.7292 307.6382103  +6.6880105     2204.458     3136.348     3259.925     80.75748     161.1311     322.1662      1.497     2.98     893.6401     56.78703     370.5656        17     1.178     0.840  83.70   0
       695    450.5448     24.0186 307.7478454  +6.6790472      2064.06     2835.676      2267.18     80.24472     161.1311      321.974      1.382     3.01     900.2247     56.78703     305.1625        15     0.988     0.922 -42.59   0
       696      1.9435     23.8217 307.9342257  +6.6640395      657.652     991.8229     836.7993     76.69404      137.044     252.3697      1.621     4.73     914.9438     56.78703     118.7312         6     0.833     0.763  69.21  24
       697    978.4897     21.2881 307.5285840  +6.6978427      2219.97     3026.087     3282.606     80.50151     161.6427     322.2623      1.443     2.85     886.6003     56.78703     352.6731        19     1.162     0.865  84.23   0
       698    773.7063     20.3093 307.6137031  +6.6914051     533.7042     556.7802     243.8079     80.75748     161.6427     322.1662      1.123     4.34     892.4109     56.78703     108.3231         5     0.760     0.706 -47.08   0
       699    720.9224   1020.7305 307.6020307  +6.2765772     1189.353     1611.654     1535.768     81.01263     160.7464     286.0985      1.562     4.54     926.4326     56.78703     187.1621        12     1.145     0.825  58.57  16
       700    352.2702   1019.1592 307.7551273  +6.2648760      2099.85     2844.466     2744.877     80.62959     161.1311      304.209      1.429     3.79     930.1902     56.78703      296.517        18     1.250     0.962 -73.04  16
       701    320.0912     16.8060 307.8022879  +6.6776443     935.2275     983.7252     1812.567     80.37322     160.8106     321.9419      1.272     3.41     909.6349     56.78703     130.0734        10     0.907     0.753 -87.45   0
       702    373.4384     15.7807 307.7801586  +6.6798598     730.5265     878.6943     920.6993     80.37322     160.9389     321.9099      1.418     3.44     905.2772     56.78703     113.2029         5     0.753     0.455 -70.74   0
       703    962.9767   1016.3112 307.5016876  +6.2864866     692.3345     895.0331     916.7969     80.75748     160.9389     322.0381      1.325     4.96     921.1426     56.78703     96.41016         8     1.060     0.657  34.23   0
       704    739.0640   1008.6713 307.5949037  +6.2821629     8593.192     12203.44     12729.97     80.75748     161.1311     322.1982      1.510     2.98     925.7216     56.78703     1303.397        31     1.289     1.085  80.44   0
       705    534.5726   1009.2488 307.6797796  +6.2750806     4718.915     6756.296     7155.755     80.37322     161.1311     322.1021      1.552     2.97     929.1727     56.78703     702.8635        26     1.303     1.007 -86.38   0
       706    505.0826   1010.6375 307.6919756  +6.2735191     1248.265     1647.297     797.7157     80.75748     161.0671     322.1342      1.301     2.65     929.9637     56.78703     225.7937        11     0.965     0.694 -75.32   0
       707    284.8959   1007.8535 307.7834776  +6.2672820     16547.41      23808.8     25642.75     80.62959     161.1311     322.4224      1.529     3.02     930.5301     56.78703     2818.558        54     1.679     1.201 -46.58   0
       708    800.3729   1007.9123 307.5694762  +6.2845256     1244.271     1661.819     1665.004     80.88515     160.8748     322.0701      1.459     3.47     924.0267     56.78703      180.509        12     1.116     0.744 -82.71   0
       709    409.0115   1008.6041 307.7319273  +6.2711378     1126.532     1690.544     1520.464     80.37321     160.8106     322.0381      1.564     4.55     930.3159     56.78703     178.8098        10     1.103     0.674  47.41   0
       710    111.0350   1008.9073 307.8556165  +6.2610033     481.6684     731.7791     515.0511     80.88515      161.003     322.2303      1.711     4.95     930.6591     56.78703     80.69299         6     1.437     0.482 -21.16   0
       711    256.4387   1005.8011 307.7953604  +6.2671736     996.7267     1468.845     2338.552       79.858     160.9389     321.8778      1.746     3.49     930.5258     56.78703     145.5146         9     0.866     0.757  79.26   0
       712    900.5004   1002.1841 307.5280988  +6.2902347     9185.139      13797.9     14309.58     80.75748     160.8748      321.974      1.625     3.15     922.4359     56.78703     1185.205        38     1.373     1.187 -83.38   0
       713    531.8028   1001.4330 307.6811923  +6.2782148     9314.627     13134.77     14345.95     79.98711     160.9389     321.8778      1.509     3.00     929.1569     56.78703     1497.794        32     1.322     1.048 -88.87   0
       714    874.0916    998.3078 307.5391928  +6.2909536     13283.45      20098.6     21409.03     80.75748     161.6427     322.1982      1.621     3.12     923.3418     56.78703     1881.594        49     1.404     1.308 -75.52   0
       715    586.9659    998.9338 307.6583752  +6.2810944     1488.281     2019.652     2282.342     80.62959     161.1952     322.1982      1.438     3.70      928.875     56.78703     286.8688        13     1.223     0.786 -86.08   0
       716    995.7742    997.7371 307.4886929  +6.2952498     4919.097     7577.201     7471.557     80.37322     161.1311     322.0701      1.638     3.16     919.9071     56.78703     651.6091        30     1.332     1.142  74.97   0
       717    518.1141    997.2913 307.6870145  +6.2794662     4513.396     6518.178     7551.368     80.50151     161.5788     322.2943      1.522     2.85     929.4299     56.78703     662.6844        25     1.254     0.997  88.90   0
