#   1 NUMBER                 Running object number                                     
#   2 X_IMAGE                Object position along x                                    [pixel]
#   3 Y_IMAGE                Object position along y                                    [pixel]
#   4 ALPHA_J2000            Right ascension of barycenter (J2000)                      [deg]
#   5 DELTA_J2000            Declination of barycenter (J2000)                          [deg]
#   6 FLUX_APER              Flux vector within fixed circular aperture(s)              [count]
#   9 FLUXERR_APER           RMS error vector for aperture flux(es)                     [count]
#  12 FLUX_RADIUS            Fraction-of-light radii                                    [pixel]
#  13 FWHM_IMAGE             FWHM assuming a gaussian core                              [pixel]
#  14 BACKGROUND             Background at centroid position                            [count]
#  15 THRESHOLD              Detection threshold above background                       [count]
#  16 FLUX_MAX               Peak flux above background                                 [count]
#  17 ISOAREA_IMAGE          Isophotal area above Analysis threshold                    [pixel**2]
#  18 A_IMAGE                Profile RMS along major axis                               [pixel]
#  19 B_IMAGE                Profile RMS along minor axis                               [pixel]
#  20 THETA_IMAGE            Position angle (CCW/x)                                     [deg]
#  21 FLAGS                  Extraction flags                                          
         1    222.3618     18.4965 307.8650900  +6.6681429      9195.02      16188.4     16962.42     84.74068     168.9442     338.2245      1.875     3.96     1010.593     59.58794     1098.493        44     1.636     1.272 -65.73   0
         2    967.7837     16.0557 307.5553619  +6.6941341      4134.33     6341.234     6742.923     84.06759     169.0114     337.7874      1.586     3.08      976.102     59.58794     596.9056        28     1.336     1.046 -76.07   0
         3    566.4077     16.5845 307.7221672  +6.6804873     2517.258     4238.604     4349.293     84.33748     168.8096     337.8884      1.834     3.94     985.7523     59.58794     313.1195        27     1.344     1.203 -64.78   0
         4    768.6479     15.0159 307.6381643  +6.6879082     1808.211     2783.705     3235.735     84.20264     169.0786     337.8211      1.742     3.71     982.3239     59.58794     236.0782        17     1.257     0.827 -63.23   0
         5    504.7233     15.0599 307.7478556  +6.6790481     1649.667     2565.721     2309.654     84.87466     169.1458     338.0228      1.674     4.57     988.4888     59.58794     186.3599        17     1.170     0.997 -42.41   0
         6    752.1250      8.8756 307.6452383  +6.6898906      6844.93     10740.53     11388.83     85.00842     169.3472     338.1573      1.676     3.60     982.4391     59.58794     912.6411        33     1.399     1.155 -66.49  16
         7    672.2675      8.2578 307.6784501  +6.6874724     3443.197     5461.707     5175.525     84.87466     169.0114     337.5182      1.687     3.58     985.0153     59.58794     412.1773        26     1.345     1.104 -57.53  16
         8    374.2335      8.3012 307.8023166  +6.6774581     936.2472     1431.933     1978.231     84.74068     168.9442     337.7538      1.604     4.58     999.2512     59.58794      112.358        10     0.955     0.768 -50.74   0
         9    472.4521      4.3554 307.7616290  +6.6823850     5582.778     9576.311      9749.32     84.74068     168.6076     301.2676      1.839     4.00     990.6848     59.58794     631.9583        40     1.551     1.281 -67.10  24
        10     19.1158      4.4060 307.9500336  +6.6671149      1031.17     1798.711     2252.934     84.20264     168.7423      302.021      1.982     6.65     1009.935     59.58794     145.1132        16     1.556     0.821 -76.39  24
        11    719.9893      2.8651 307.6587971  +6.6912967     943.7939     1440.147     1188.595     84.20264     156.0795     279.6345      1.627     4.46     983.1271     59.58794     156.3738         8     1.153     0.612 -61.06  24
        12    547.7717      1.7211 307.7304137  +6.6859993     916.6885     1226.309     1402.023     78.61997     140.3647     261.1013      1.489     4.99     984.9671     59.58794     122.9742         9     0.913     0.772  -3.59  24
        13     73.4664      4.0138 307.9274596  +6.6691088     7357.931     12735.61     13200.68     84.20264     166.9143     296.7839      1.838     3.79     1010.901     59.58794     981.9036        39     1.507     1.292 -72.97  24
        14    368.6709      1.3998 307.8048615  +6.6801206     4146.672     5233.301     5689.958     74.31074     135.1688     255.4259      1.146     2.98     999.9394     59.58794     920.9265        13     1.174     0.580  -2.78  24
        15    142.3870      1.2495 307.8989106  +6.6725717     978.7629     1284.175     1253.986     72.29568     132.8798     252.6079      1.129     2.95     1010.522     59.58794     230.9635         6     0.881     0.430   3.83  24
        16    339.2628    998.9358 307.7834122  +6.2672666     15359.31     23521.05     25654.67     84.74068     169.0786     338.0901      1.683     3.55     1034.348     59.58794     2300.775        60     1.786     1.236 -49.19   0
        17    760.9819   1023.5528 307.6074499  +6.2712314     3249.255     4095.851     4356.166     75.22256     136.1738     256.1367      1.185     2.94     1025.071     59.58794     787.2305        13     1.121     0.676 -10.91  24
        18    753.3688   1023.4684 307.6106144  +6.2710117     926.4233     1222.396     1552.208     76.12346     137.4197     257.8169      1.231     3.01     1025.166     59.58794     210.2695         7     0.883     0.582 -21.68  24
        19    627.1305   1023.7380 307.6630307  +6.2666768     693.4554     1260.954     1796.185     72.76564     133.3066     253.2817      2.360     5.01     1027.087     59.58794     173.3574         9     1.651     0.431   3.21  24
        20    616.9916   1023.1443 307.6672612  +6.2665825     3199.625     4086.786     4521.006     79.76777     142.5336     263.0523      1.314     3.21     1027.446     59.58794     602.1625        17     1.095     0.880 -30.43  24
        21    475.8773   1023.7563 307.7258427  +6.2616019     1529.029     2050.571       2496.2     72.29568     133.0507     252.9226      1.198     2.73     1030.146     59.58794     374.5411         8     1.023     0.429  -1.57  24
        22     35.4392   1000.0593 307.9095418  +6.2565877     788.4117     1038.218     940.6306     84.74068     169.1458     338.1573      1.395     4.64     1036.591     59.58794     109.3115         8     1.160     0.596  71.77   0
        23    463.6475    999.5594 307.7317366  +6.2711825     1133.561     1654.169     1467.999     84.60649     169.0786     337.8884      1.529     4.11     1030.399     59.58794     150.2628        12     1.127     0.744 -61.70   0
        24    854.4282    999.0198 307.5694654  +6.2844839     1212.654     1823.304     1991.084     84.33747     168.8769     337.9892      1.500     3.37     1020.116     59.58794     175.1667        10     0.999     0.671 -84.37   0
        25    310.2666    996.9542 307.7955204  +6.2671112     952.8456      1269.77     1623.856     84.74068     169.0114     338.0901      1.472     4.33     1034.305     59.58794     129.6954         7     0.786     0.681 -80.60   0
        26    954.8632    993.1756 307.5279500  +6.2902503      9676.55     14015.95      14596.9     84.33747     169.0786     338.0228      1.499     3.01     1017.175     59.58794      1434.76        35     1.345     1.094 -67.05   0
        27    928.4020    989.3192 307.5390689  +6.2909595     13561.02     19719.97     21681.54      84.0676     168.6076     337.7874      1.590     2.90     1018.466     59.58794     2012.839        40     1.404     1.158 -56.90   0
        28    641.0783    989.8695 307.6583773  +6.2811278     1486.156     2391.775     2482.136     85.00843     169.3472     338.0228      1.707     3.98     1026.209     59.58794     268.0977        15     1.301     0.803 -81.29   0
        29      2.7352    989.7899 307.9234697  +6.2597262     2845.796     4172.571     4050.485     84.20264     154.2488     277.7182      1.518     3.32     1037.224     59.58794      383.286        19     1.211     0.920 -80.37  24
        30    572.4857    988.2510 307.6869180  +6.2794993     4447.977     6407.535     6997.568     84.74068     169.0114     338.1237      1.587     3.22     1028.273     59.58794     587.7391        26     1.289     1.053 -48.30   0
        31    682.2542    987.5139 307.6413562  +6.2834785     1415.162     2195.514     2013.687     84.74068     169.0114     338.2245      1.647     4.19     1024.775     59.58794     194.7152        15     1.292     0.855 -76.48   0
        32    107.2196    987.0707 307.8801736  +6.2643664     944.1966     1535.845     1570.146     84.33747     168.9442     337.9892      1.740     4.64     1033.806     59.58794     162.2029        10     1.161     0.719 -67.80   0
        33    837.4968    986.2266 307.5769265  +6.2892007      581.118     771.3022     1353.343     84.87466     168.8096     337.9892      1.485     4.32     1020.504     59.58794     82.17102         6     1.079     0.493  84.97   0
        34    525.8002    984.8766 307.7064197  +6.2793283     2348.971     3691.721     3388.659     83.93233     168.4053     337.7538      1.566     3.06     1029.127     59.58794     364.9027        20     1.193     0.941 -58.03   0
        35    960.1490    976.8659 307.5263015  +6.2971610     47883.25     69174.31     72518.18     84.60649     169.0114     338.0565      1.528     3.04     1016.208     59.58794     7439.521        66     1.450     1.208 -72.58   0
        36     33.0106    976.8774 307.9113345  +6.2660771     3330.287     4944.653     5232.488     84.33747     168.6749     337.8884      1.574     3.30     1035.497     59.58794      492.306        24     1.345     1.002 -82.90   0
        37    267.4732    975.4359 307.8140177  +6.2745583     1851.331     2721.058     3384.891      84.6065     169.0786     338.0565      1.616     3.59     1033.838     59.58794     244.8052        17     1.157     0.977 -85.45   0
        38      1.3411    976.0176 307.9245147  +6.2653655     521.7227      573.895     305.1388     73.23259      134.241     254.3561      1.285     4.53     1036.271     59.58794     94.62671         8     1.232     0.474 -88.89  24
        39    666.1759    973.3704 307.6485090  +6.2887803     982.7886     1213.324     883.2908     84.20264     168.9442     337.8547      1.411     4.70     1025.004     59.58794     131.3416         9     0.965     0.649 -75.54   0
        40    858.0385    970.8062 307.5689128  +6.2962540     2547.079     3691.542     4056.764     83.79684     168.8096     337.7874      1.495     3.21     1018.898     59.58794     384.4904        16     1.146     0.842 -73.00   0
        41    806.3210    968.4360 307.5904713  +6.2955046     7389.727     10558.94     11527.67     84.60649     169.1458     338.0565      1.561     2.86     1021.154     59.58794     1175.349        36     1.473     1.058 -71.00   0
        42     12.4737    971.1804 307.9200555  +6.2677377     768.9469     1202.005     871.8282     84.33747     169.0114     337.9892      1.424     3.03      1035.66     59.58794     138.7209         5     0.739     0.468  72.16   0
        43    592.6985    968.0676 307.6792028  +6.2885099     1067.964     1483.025     911.9802     84.74068      169.213     338.0901      1.389     4.83     1027.598     59.58794     160.5981         9     1.120     0.653 -61.68   0
        44    275.4823    967.8576 307.8109475  +6.2779564     1548.758     2296.292     2880.153     84.87466     169.0786     338.1237      1.673     3.68      1033.75     59.58794     210.1815        15     1.136     0.895 -52.70   0
        45    240.4288    966.8561 307.8255384  +6.2771921     814.9328      1337.49     1419.721     84.33747     169.1458     337.9556      1.786     6.10     1033.633     59.58794     130.8206        10     1.229     0.851 -31.79   0
        46    100.6493    965.8081 307.8836208  +6.2729242     2891.741     4461.261     4623.091     84.20264     168.8769     337.7202      1.614     3.25     1033.695     59.58794     426.2319        23     1.353     0.926 -73.75   0
        47    994.4553    963.6849 307.5124952  +6.3037481     7593.929     10901.88     11274.81     84.74068     169.0786     338.1909      1.538     2.96     1014.189     59.58794     1134.727        33     1.341     1.068 -77.36   0
        48     10.8545    963.2473 307.9209963  +6.2709585     711.8943     1227.083     1394.782     84.74068     169.0786     338.0901      1.550     3.71     1035.152     59.58794     119.3748         6     0.746     0.575 -35.36   0
        49    676.8337    958.1221 307.6445954  +6.2954329     699.1675      933.794     564.7531     84.60649     169.0786     338.0228      1.347     3.47     1024.399     59.58794     112.5791         6     0.912     0.585  66.30   0
        50    968.2200    955.2554 307.5236738  +6.3063533     2202.182     2881.426     2902.103     84.20264     169.0786     337.8547      1.444     3.06      1014.97     59.58794     341.6887        14     1.037     0.845 -88.72   0
        51    301.3025    951.5372 307.8007755  +6.2855621     4662.562     6881.887     7219.103     84.47209      169.213     338.1237      1.608     3.29     1033.493     59.58794     647.9829        27     1.455     0.999 -63.39   0
        52     25.7851    953.5395 307.9151246  +6.2754694     998.8705     1252.492     1041.313     84.20264     169.0114     337.7874      1.363     3.36     1034.394     59.58794     170.3606        10     0.989     0.805 -63.00   0
        53    827.6838    951.9293 307.5821531  +6.3030341     1426.486     1930.781     1947.187     85.00842     169.3472     338.0901      1.420     3.11     1019.435     59.58794     246.6035        13     1.140     0.722 -55.19   0
        54    689.0110    951.3304 307.6397663  +6.2986446     4973.265     6970.088     7299.179     84.20264     168.8769     337.8884      1.471     3.04     1023.893     59.58794     745.2891        24     1.250     0.938 -65.86   0
        55    511.1269    949.8831 307.7136918  +6.2932851     1119.127     1763.377     1672.918     85.00842     169.4143     338.0901      1.519     5.17     1029.008     59.58794     183.6055        11     1.582     0.477 -72.53   0
        56     69.9196    949.0269 307.8969494  +6.2788185     2313.372     3349.593     2922.878     84.60649     168.8769     338.0901      1.448     3.68     1033.792     59.58794     297.1279        16     1.251     0.791 -70.69   0
        57    920.8967    947.8838 307.5435755  +6.3078177     1084.731     1436.685     1257.824     84.74068     169.4814     338.1237      1.495     3.62     1016.286     59.58794      158.248        10     1.012     0.713 -78.13   0
        58   1012.0006    945.7676 307.5058086  +6.3117314     728.4691     1210.518     998.8466      84.0676     168.8769     337.7874      1.721     5.20     1013.131     59.58794     104.2744         8     1.170     0.652 -44.43   0
        59    336.7988    945.1796 307.7862486  +6.2893791     930.0303     1385.873     1181.611     84.33747     168.7423     337.7538      1.448     4.18     1033.312     59.58794     138.0751         8     1.050     0.609 -69.14   0
        60    613.6879    943.9133 307.6712983  +6.2991859     1705.107     2523.429     2215.798     84.47209     169.4143     338.1573      1.531     3.44      1026.89     59.58794     254.7916        17     1.238     0.841 -59.82   0
        61    102.7555    940.6844 307.8835956  +6.2833681      706.495     1246.373     1581.181     84.74068     169.0114     338.0565      1.926     5.38       1033.5     59.58794     126.1864         8     1.466     0.558 -52.78   0
        62    652.9041    940.3556 307.6551310  +6.3019678     1420.975     1830.808     1139.577     84.74068     169.0114     338.2245      1.374     4.09     1025.153     59.58794     188.3148        12     1.052     0.768 -84.43   0
        63    332.6578    938.0338 307.7882094  +6.2921904     1507.384     2346.469     3314.876     84.60649     169.0786     338.0228      1.888     4.60     1033.185     59.58794      204.762        16     1.310     0.898 -80.62   0
        64     97.4956    939.9741 307.8858039  +6.2834844     586.1621     918.6088     1541.981     84.87466     168.8096      337.922      1.318     3.77     1033.526     59.58794     83.76575         6     0.819     0.498 -86.41   0
        65    799.8801    934.0302 307.5943016  +6.3094955     984.9564     1383.784     1929.535     84.60649     169.0114     338.0228      1.508     4.33     1019.598     59.58794     137.6097        11     1.076     0.795 -36.77   0
        66    937.1693    930.5511 307.5373983  +6.3155176     7747.565     11214.33     11369.01     84.33747     169.1458     337.9556      1.545     2.96     1014.871     59.58794     1158.406        35     1.385     1.048 -69.16   0
        67    175.1900    932.9644 307.8537757  +6.2889922      588.588     976.1947     1432.886     84.20264     168.8096     337.8211      1.507     3.84      1033.13     59.58794     93.54749         6     0.926     0.456 -54.52   0
        68    473.0729    927.6040 307.7302462  +6.3012082     2156.877     3345.349     3666.142     84.20264     168.6076     337.8884      1.656     4.11     1029.913     59.58794     308.0013        20     1.410     0.914 -67.34   0
        69    374.7247    926.1612 307.7711394  +6.2985047     9554.594     14389.67     15259.06     84.60649     169.0786     338.0901      1.598     3.29     1032.463     59.58794     1266.156        35     1.394     1.082 -68.60   0
        70    294.8859    925.1046 307.8043322  +6.2962602     7183.292     10866.06      11694.1     84.74068     169.4814     338.1237      1.596     3.22     1033.085     59.58794     1000.036        35     1.456     1.091 -62.86   0
        71    622.8741    919.6359 307.6682998  +6.3095175     1266.529     1700.606     1717.505     84.60649     169.1458     338.0565      1.453     4.03     1025.962     59.58794     181.6635        13     1.181     0.811 -81.02   0
        72    807.6346    919.5911 307.5915657  +6.3157166     691.6631     1032.517      1172.83     84.20264     168.8769     337.8547      1.731     3.72     1018.779     59.58794     144.6214         7     1.171     0.549 -68.44   0
        73    952.8594    915.7932 307.5313765  +6.3221348     1105.081     1594.265      2666.17     84.06759     168.9442     337.7874      1.989     3.76     1013.796     59.58794     161.4203        11     1.037     0.833 -34.17   0
        74    909.5123    914.6901 307.5494171  +6.3211434      849.368     1213.396     819.2664     84.47209     169.5484     338.1909      1.166     3.78     1015.211     59.58794      148.733         7     0.963     0.479 -80.19   0
        75    789.2729    908.7190 307.5995570  +6.3195919     1782.048     2479.194      2694.11     85.00843     169.3472     338.0901      1.481     3.36     1019.061     59.58794     243.9664        14     1.139     0.772 -60.16   0
        76   1020.7109    904.4548 307.5035751  +6.3290801     1429.447     1936.987     3313.492     84.74068     168.3378      300.588      2.015     3.44     1010.798     59.58794     197.0994        13     1.116     0.856 -85.90  16
        77     40.0077    905.6987 307.9108369  +6.2957006     1116.673     1486.961     1777.094     84.47209     168.6749     337.8547      1.357     4.01     1033.067     59.58794     182.6147         9     1.006     0.627 -52.73   0
        78    653.1809    905.2452 307.6561967  +6.3164740     627.6391     1090.987     525.5079     84.33747     168.9442     337.8211      1.524     2.84     1023.968     59.58794     128.4388         6     0.733     0.570  54.67   0
        79    574.2768    904.5233 307.6889918  +6.3141299     1364.278     2017.991     2434.113     85.00843     169.3472     338.1573      1.891     4.11     1026.769     59.58794     185.4808        13     1.132     0.820  81.21   0
        80    707.7427    902.0522 307.6336430  +6.3196182     2818.548     3853.837     4213.362     84.74068     169.0786     338.0565      1.401     3.19     1021.758     59.58794     378.8416        17     1.129     0.848 -69.96   0
        81    997.9527    899.8288 307.5131826  +6.3302312     688.0025     1155.439      1467.53     84.33747      169.213     337.9556      1.455     3.63     1011.383     59.58794     152.4269         5     0.976     0.439 -69.42   0
        82    104.4102    898.3270 307.8843405  +6.3009123     2940.617     4474.835     4762.357     84.20264     168.6749      337.922      1.703     3.50     1033.232     59.58794     391.6178        19     1.244     0.915 -81.47   0
        83    868.5010    898.1867 307.5670043  +6.3265881     857.0232     1212.846     947.9331     84.47209     168.8096     337.7874      1.509     4.37     1016.356     59.58794     112.6215         9     0.943     0.877 -85.93   0
        84    122.2548    897.5191 307.8769571  +6.3018463     2172.935     3169.333     3124.106     84.74068     169.0786     338.0901      1.563     2.92     1033.191     59.58794     311.5641        16     1.064     0.872 -65.51   0
        85    985.8481    897.8824 307.5182754  +6.3306310     856.9509     924.9312     986.4368     84.74068     169.0786     338.0901      1.297     3.20     1011.726     59.58794     155.5926         8     0.862     0.601 -58.10   0
        86    247.9903    896.9905 307.8247570  +6.3062925     2380.771     3679.644      3812.26     84.33747     168.8769     337.9556      1.614     3.98     1033.284     59.58794     337.8635        21     1.278     1.035 -60.39   0
        87    387.0525    893.3748 307.7671251  +6.3124555     1164.289     1600.497     1660.516     84.33747     169.0786     337.9556      1.548     4.66      1031.76     59.58794     157.4246        13     1.305     0.752  83.82   0
        88    281.6510    894.2477 307.8108701  +6.3085560     774.3694     951.5914     1158.482     84.87466     168.9442     338.0565      1.545     6.00     1033.136     59.58794     112.6168         9     1.243     0.815 -81.19   0
        89    702.4483    891.2092 307.6362064  +6.3239181      7312.11     10644.48     11514.72     84.20264     168.8769     337.6865      1.566     2.99     1021.596     59.58794     997.1217        32     1.391     0.998 -67.59   0
        90    839.9491    892.0952 307.5790675  +6.3281495     830.8091     1168.691     1536.934     84.60649     169.0114     338.2916      1.394     3.22     1017.045     59.58794      135.351         7     0.880     0.520 -49.08   0
        91     62.5370    889.3065 307.9020352  +6.3032272     1309.668     1569.362     1327.427     84.74068     169.1458     338.1237      1.282     3.86      1033.11     59.58794     203.8264        10     1.066     0.653 -77.94   0
        92    940.1020    887.6166 307.5376200  +6.3333433     3088.402     4642.538     4802.141     84.74068     168.8769     337.8547      1.537     3.19     1013.153     59.58794     497.9982        21     1.354     0.905 -56.29   0
        93    491.7799    888.7815 307.7237846  +6.3178649     645.4614     872.3691     676.7689     84.47209     169.0114     337.9892      1.425     2.85     1028.896     59.58794     102.2632         6     0.735     0.562  46.66   0
        94     75.5903    887.9889 307.8966588  +6.3042106     1153.586     1566.611     1814.759     84.47209     168.8769     338.0228      1.417     3.46     1033.136     59.58794     156.3754         9     0.873     0.735 -72.83   0
        95    385.4687    884.3919 307.7680858  +6.3161113     16366.84     24819.49     26380.67     84.20264     168.8096     337.9556      1.646     3.21     1031.682     59.58794      2076.03        45     1.444     1.186 -72.77   0
        96    120.0195    885.3273 307.8782975  +6.3068048      1368.72     1960.901     1693.474     84.33747     169.0114     337.9892      1.529     3.89     1033.143     59.58794     190.6685        14     1.164     0.864 -66.68   0
        97    256.3862    884.1102 307.8217050  +6.3118928     1322.209     1912.718     1546.965     84.47209     168.8769      337.922      1.560     3.70     1033.307     59.58794     192.7361        13     1.088     0.845 -66.21   0
        98    436.1540    883.6078 307.7470616  +6.3181357     683.2672      1134.19     914.9161     84.20264     168.9442     337.7202      1.657     4.23     1030.451     59.58794     116.1036         6     1.062     0.481 -63.15   0
        99    463.1077    875.2302 307.7361494  +6.3224987     987.6771     1555.463     1804.307     84.87466     168.8096     338.0228      1.634     5.26     1029.577     59.58794      156.261        11     1.470     0.606 -61.93   0
       100    148.9120    875.1213 307.8666434  +6.3119907     1572.295     2576.886     3001.925     84.47209     169.3472     338.1909      1.761     4.82     1033.103     59.58794     191.2479        21     1.446     1.016 -81.24   0
       101    716.7195    871.5063 307.6309412  +6.3325308     953.2948     1476.179     2143.004     84.47209     169.3472     338.1237      2.311     4.02     1020.612     59.58794     158.5693         7     0.875     0.638 -69.09   0
       102    132.2301    868.6159 307.8737914  +6.3141154     2646.717     3972.446     4135.946     84.33747     168.8096     337.9892      1.623     3.57     1033.085     59.58794     352.4825        21     1.324     0.960 -83.78   0
       103    930.5387    868.9843 307.5422169  +6.3407173     2109.519     2960.957     2822.194     84.20264     169.0114     337.8547      1.472     3.21     1012.911     59.58794     311.2911        17     1.147     0.868 -66.21   0
       104    901.2053    868.8262 307.5544059  +6.3398033      2155.12     3094.679     3431.361     84.20264     168.8769     337.8884      1.523     3.22      1014.28     59.58794     350.3688        18     1.243     0.844 -68.15   0
       105    864.6446    868.1330 307.5696146  +6.3388685     3243.512     4567.712      4988.14     84.74068     169.0114     338.0901      1.479     2.99     1015.886     59.58794     453.1646        20     1.177     0.895 -61.02   0
       106    600.5490    859.5426 307.6795938  +6.3335822     345528.5     509509.5     536229.9     84.74068     169.0786     338.0565      1.637     3.12     1024.282     59.58794      45228.2       159     1.633     1.359 -69.47   0
       107    444.8102    862.1453 307.7441898  +6.3272877     7445.398     11526.73     11803.02     84.06759     169.0114     337.7202      1.626     3.23     1029.873     59.58794     1013.829        31     1.353     1.101 -71.18   0
       108    688.2096    862.5801 307.6430826  +6.3352625     1291.164     1724.218     1524.404     84.33747     168.7423     337.8884      1.394     3.72     1020.954     59.58794     202.4885        12     1.098     0.753 -64.43   0
       109    388.0237    860.4789 307.7678309  +6.3260705     12329.65     19002.71     19796.17     84.33747     168.8769     338.0228      1.640     3.29     1031.315     59.58794     1730.362        46     1.535     1.177 -67.07   0
       110    938.9801    855.6521 307.5391579  +6.3465040     5592.934     7981.401     8246.703     84.20264     169.1458     337.8547      1.496     3.13     1012.088     59.58794     814.1786        30     1.320     1.111 -70.15   0
       111    706.4435    856.8443 307.6357021  +6.3382410     3668.384     5522.489     6143.287     84.74068     169.0786      337.922      1.630     3.19     1020.379     59.58794      493.769        23     1.246     0.999 -63.46   0
       112    778.0001    853.5113 307.6060933  +6.3420103     756.3384     1222.385     954.1775     83.93233     168.5402     337.6865      1.716     4.63     1017.799     59.58794     84.84705         8     0.862     0.706  89.65   0
       113    681.1616    850.9020 307.6464026  +6.3398486     3493.127     5185.148     5633.307     84.74068     168.9442     338.2916      1.580     3.32     1020.715     59.58794     489.3073        24     1.234     1.033 -68.31   0
       114    869.8290    850.0422 307.5680684  +6.3465114     1742.154     2487.446     2300.128     84.33747     168.9442      337.922      1.425     4.54     1014.825     59.58794     234.6237        14     1.382     0.692 -66.60   0
       115    671.3098    849.9038 307.6505281  +6.3399310     1054.278     1741.861     2282.822     84.74068     169.5484     338.0565      1.726     4.62     1020.937     59.58794     171.8342        10     1.230     0.673  74.02   3
       116    674.0165    845.4931 307.6495522  +6.3418428     2291.456     3780.672     4804.535     84.47209     168.8769      337.922      1.877     4.82     1020.674     59.58794     343.8126        20     1.601     0.821 -71.38   2
       117    996.5051    848.8391 307.5154928  +6.3512367     884.1212     1166.372     1174.692     84.87466     168.9442     338.1909      1.278     3.71      1008.98     59.58794     151.7068         7     0.953     0.495 -84.93   0
       118    982.7263    848.2770 307.5212348  +6.3510091     537.5701     805.9175      840.944     85.00843     169.3472     338.0901      1.733     5.17     1009.663     59.58794     72.96124         7     1.470     0.513 -69.57   0
       119    368.0796    844.5231 307.7766524  +6.3319890     1111.341     1644.259      1648.59     85.00842     169.3472     338.2245      1.553     4.63     1031.718     59.58794     163.4655        14     1.335     0.819 -81.71   0
       120    957.7577    843.5339 307.5317648  +6.3521344     3435.626      4803.83     5064.611     84.74068     169.0114     338.1237      1.519     3.28     1010.814     59.58794      452.516        23     1.319     0.950 -79.26   0
       121    415.9036    839.4890 307.7569593  +6.3356725     2645.847     3889.961     3912.015     84.74068     169.5484     338.0901      1.542     3.29     1030.333     59.58794     369.0378        22     1.215     1.014 -55.36   0
       122    552.0360    829.1576 307.7007660  +6.3445028     2930.845     4524.432     4841.889     84.47209     169.0786      337.922      1.615     3.64     1025.704     59.58794      394.879        21     1.259     1.009 -81.44   0
       123    384.3830    830.8141 307.7703434  +6.3381965     521.5746     755.7191     482.3909     84.47209     168.7423     337.9892      1.650     4.22     1031.178     59.58794     105.8678         5     1.143     0.444 -32.29   0
       124    896.7717    828.5028 307.5576003  +6.3563048     1009.385     1562.767     1803.418     84.87466     168.8096     338.0565      1.747     5.14     1012.843     59.58794     155.0148        11     1.250     0.797 -57.81   0
       125    617.1011    826.9749 307.6738148  +6.3475835     843.6712     1213.992     1102.907     84.87466     168.8096     337.8884      1.443     4.35     1022.176     59.58794     131.0734         8     0.973     0.664 -33.86   0
       126    598.9816    825.3155 307.6813966  +6.3476619     5973.844     9006.919     10145.38     84.33747     168.7423     337.9892      1.633     3.21     1022.945     59.58794     832.0568        35     1.470     1.112 -63.42   0
       127    605.6990    825.1048 307.6786136  +6.3479738     1216.436     1812.416     2283.031     84.74068     169.6154     337.8884      1.606     3.95      1022.55     59.58794      160.921        12     1.119     0.738 -71.46   0
       128    309.9771    826.0405 307.8014076  +6.3376693     650.1807     1363.556     1324.193     84.33747     168.8769     337.8211      2.217     3.65     1032.615     59.58794     88.54883         5     1.003     0.382  58.40   0
       129    516.7464    824.2075 307.7155901  +6.3453640      1626.11     2194.342     2164.385     84.20264     168.8769     337.7202      1.439     3.20     1026.538     59.58794     247.0988        15     1.076     0.900 -50.52   0
       130    934.9977    823.2335 307.5418993  +6.3597568     1555.487     2338.016     3044.439     83.93233     168.8769     337.8547      1.648     3.81     1011.317     59.58794     211.5641        14     1.075     0.899 -61.09   0
       131    158.5096    823.4973 307.8644021  +6.3336281      1298.46     1947.086     1976.804     84.74068     169.5484     338.0565      1.576     4.17     1032.934     59.58794     168.9771        10     1.078     0.728 -88.66   0
       132    734.6168    822.1395 307.6251667  +6.3535130     880.9926     1299.983      972.804     84.20264     169.0114     337.7874      1.477     4.64     1018.561     59.58794     147.7892        10     1.102     0.691 -43.53   0
       133    569.6429    819.2220 307.6937875  +6.3491951     19195.31     29482.91     30879.36     84.20264     168.9442     337.8547      1.648     3.19     1024.387     59.58794     2522.869        54     1.554     1.245 -76.36   0
       134    410.6758    820.6617 307.7597653  +6.3432707     776.7559     1056.259     1332.697     85.00843     169.0786     338.0565      1.490     4.80     1030.208     59.58794     126.6123         6     0.924     0.706  77.90   0
       135    983.3455    817.4414 307.5220113  +6.3637619     4079.094     5675.213     6111.092     84.60649     169.0786     338.0901      1.530     3.13     1009.099     59.58794     614.2066        22     1.284     0.858 -66.75   0
       136    103.7168    815.3328 307.8874348  +6.3351554     618.5167     911.9275     1125.396     84.87466     169.3472     338.1237      1.841     3.81      1032.89     59.58794     112.8893         5     0.824     0.697  52.07   0
       137     80.0901    809.7998 307.8974346  +6.3366446     1441.089     2112.131     2237.459     83.93233     168.5402     337.7202      1.663     4.07     1032.637     59.58794     185.6558        13     1.116     0.859  66.30   0
       138    362.2460    808.1025 307.7803037  +6.3468308     3132.646     5185.046     5149.379     84.74068     168.9442     338.2245      1.747     3.68     1031.794     59.58794     364.7833        25     1.360     1.051 -71.00   0
       139    827.8060    803.7603 307.5870767  +6.3642172     56951.41      83305.2     87315.64     83.93233     168.7423     337.7538      1.553     3.11     1013.988     59.58794     8167.014        73     1.492     1.224 -68.31   0
       140     62.2778    806.0971 307.9049576  +6.3375737     2261.348     3539.544     3727.445     84.47209     169.2801     338.1237      1.603     3.25      1032.34     59.58794      300.343        17     1.144     0.885 -76.94   0
       141    284.6193    780.2201 307.8134863  +6.3557360     767423.5      1896656      2119976     84.47209     169.0114     337.9892      2.382     5.05     1032.522     59.58794      63156.8       590     2.757     2.086 -84.02   4
       142    953.0425    799.0146 307.5352162  +6.3703592       9105.4     13193.07     14343.68     83.93233     168.8096     337.7874      1.503     3.04     1009.908     59.58794     1439.695        35     1.366     1.080 -69.92   2
       143    950.0099    790.4590 307.5367628  +6.3737906     7332.197     10387.83     10943.94     84.06759     168.9442     337.7538      1.530     3.11     1009.737     59.58794      1060.59        30     1.364     1.008 -76.56   2
       144    756.0113    798.3836 307.6170785  +6.3640372     21917.21     32518.33     34886.75     84.47209     168.7423     337.9556      1.583     3.08      1016.81     59.58794     3095.636        48     1.488     1.162 -59.43   3
       145    749.7543    794.8857 307.6197950  +6.3652723     90248.99     133562.7     141945.8     84.74068     168.9442     338.0565      1.582     3.10     1016.953     59.58794     12422.43        85     1.541     1.273 -67.09   3
       146      6.5159    797.4259 307.9284101  +6.3392758     3756.064     5550.903     6023.947     84.74068     168.8096     325.6622      1.636     3.44     1031.539     59.58794     471.4868        25     1.411     0.986 -76.61  16
       147    394.6528    795.7752 307.7672594  +6.3530084     19772.28     31427.04     32949.69     84.20264     169.0786     337.9556      1.705     3.36     1030.275     59.58794     2574.126        50     1.532     1.217 -70.42   0
       148    456.5309    793.6183 307.7416311  +6.3559750     21540.78     33596.78      35382.6     84.33748     168.9442     338.0228      1.713     3.30     1027.418     59.58794      2656.18        58     1.544     1.294 -65.08   0
       149    443.8663    795.9326 307.7468133  +6.3545946     1375.576     2095.893     1784.613     84.74068     169.0786     338.0901      1.574     4.18     1028.122     59.58794     201.6656        12     1.312     0.663 -58.39   0
       150    683.2758    795.3110 307.6473936  +6.3628727     802.3486     1027.739     1026.046     84.74068     169.4143     338.1573      1.396     4.68     1018.904     59.58794     97.53625         8     1.007     0.616 -81.79   0
       151    993.5308    792.4590 307.5186181  +6.3744170     2305.838     3337.238     3593.385     84.87466     169.0114     338.0228      1.608     3.39      1008.23     59.58794     298.4001        18     1.146     0.960 -83.77   0
       152    690.4848    789.6084 307.6445910  +6.3654685     6486.907     9632.359     10313.25     84.33748     168.7423     337.8884      1.621     3.01     1018.582     59.58794     846.7429        32     1.565     1.039 -56.61   0
       153    471.3546    802.4299 307.7351771  +6.3528339      765.379     1268.769     1239.851     84.33748     169.1458      337.922      1.832     3.88      1026.89     59.58794     133.5229         6     0.904     0.478  89.22   0
       154    922.5135    791.4469 307.5481510  +6.3724648     741.3278     877.8915     447.0372     84.74068     168.9442     338.0565      1.409     3.77     1010.673     59.58794     107.3716         6     0.995     0.409 -71.55   0
       155    479.2504    787.7659 307.7323916  +6.3591533     1556.829     2454.138     2308.146     84.60649     169.0786     337.9556      1.635     4.04     1026.233     59.58794      222.937        16     1.173     0.954 -31.71   0
       156    221.3085    787.3503 307.8395411  +6.3506643     766.9173     1514.876     2038.281     84.74068     168.9442     338.2245      1.995     4.94     1032.758     59.58794     96.26025         8     1.127     0.612  78.00   0
       157    204.6250    786.8036 307.8464889  +6.3503291     645.5093     1016.432     1170.217     84.20264     168.7423     337.8884      1.534     3.44     1032.758     59.58794     105.8721         5     0.761     0.448  72.71   0
       158    643.4374    782.0208 307.6643881  +6.3670267     883.2541     1308.079     1226.316     84.33747     168.8096     337.7874      1.711     5.47      1019.71     59.58794     120.9309        10     1.158     0.789  85.66   0
       159    918.3615    781.7119 307.5502023  +6.3763458     793.7112     1069.988     1175.426     84.74068     169.0114     338.0901      1.483     4.03     1010.489     59.58794     127.5922         7     0.846     0.705 -29.48   0
       160    725.7739    779.6696 307.6302671  +6.3707529     2506.304     3804.402     3557.338     84.33747     168.9442     337.9892      1.603     3.69     1017.209     59.58794     332.2637        19     1.175     1.035 -71.85   0
       161    169.8953    780.2462 307.8611350  +6.3518686     961.2522     1284.141     904.5158     84.60649     169.0114     338.1909      1.451     3.53     1032.714     59.58794     161.6949         9     0.939     0.657  70.09   0
       162    459.4491    776.2738 307.7410035  +6.3632342     51916.71     81405.58     86162.45     84.74068     169.1458     338.0901      1.734     3.34       1026.9     59.58794     6157.992        82     1.618     1.357 -67.09   0
       163    194.7740    780.0971 307.8508070  +6.3527669     954.3304     1663.268     1804.362     84.87466     168.8096     337.9556      1.910     4.72     1032.714     59.58794     124.0596        10     1.021     0.805  -8.23   0
       164   1002.1747    777.9393 307.5155142  +6.3807007      822.793     893.0784     551.2692     84.33747     169.0786     337.9556      1.259     3.51     1007.745     59.58794     117.9707         8     0.821     0.678  49.00   0
       165    577.1944    775.2792 307.6921301  +6.3675918     6839.216     10571.48     10938.34     84.33747     168.5402     337.8211      1.653     3.29     1022.164     59.58794     876.2322        34     1.419     1.114 -64.44   0
       166    494.0263    773.9351 307.7267203  +6.3653594     4323.994     6675.861      7630.08     84.33747     169.0114     337.9556      1.642     3.40     1025.506     59.58794     586.4771        29     1.436     1.015 -67.60   0
       167    822.3798    771.8843 307.5904009  +6.3771975     11973.89     17692.54      18532.2     84.33747     168.7423     337.9892      1.547     3.11     1013.236     59.58794     1759.757        40     1.379     1.125 -73.04   0
       168     51.7948    768.0624 307.9105983  +6.3529243     1257.354      1828.77     1714.391     84.06759     168.8096     337.8211      1.600     5.31     1032.689     59.58794     147.6704        15     1.336     0.805 -72.33   0
       169    490.6379    767.1990 307.7283547  +6.3680271     2050.592     3359.502     3315.268     83.79684     168.8769     337.8211      1.683     4.08     1025.455     59.58794     259.5974        17     1.320     0.821 -51.21   0
       170    844.0354    766.1232 307.5815990  +6.3802999     1343.219     1838.443      1424.54     84.60649     169.1458     338.0901      1.375     3.49      1012.39     59.58794      215.447        11     1.052     0.693 -75.48   0
       171    180.2699    763.9056 307.8573783  +6.3589643      11156.2      18105.9     19596.09     84.60649     169.1458     338.0565      1.733     3.35     1032.613     59.58794     1404.353        46     1.508     1.271 -66.76   0
       172    188.2656    764.1597 307.8540487  +6.3591283     2828.616     4661.511      4876.38     84.74068     169.0114     338.1573      1.733     3.80     1032.613     59.58794     380.2432        24     1.430     0.996 -70.50   0
       173    172.4214    761.2295 307.8607285  +6.3598052     2817.313     4647.223     6001.952     84.20264     168.8769      337.922      1.872     4.42     1032.595     59.58794     339.7572        27     1.691     0.975 -83.64   3
       174    172.3728    754.5507 307.8609744  +6.3625611     1925.981     3074.393     3464.885     84.33748     169.0786     337.9892      1.840     4.06     1032.557     59.58794     265.3727        21     1.270     1.109  59.51   3
       175    967.9132    760.4525 307.5303323  +6.3867779     6827.118     9593.654     9861.637     84.74068     168.9442     338.1909      1.516     3.18     1008.338     59.58794     984.5764        31     1.344     1.028 -74.04   0
       176   1017.3181    760.2830 307.5098157  +6.3884962     1491.602     2177.423     3040.997     84.47209     169.3472     334.8821      2.073     4.81     1007.115     59.58794     211.6915        13     1.288     0.704 -47.49  16
       177    723.3524    758.1163 307.6319974  +6.3795712     1696.416     2530.403     2513.211     84.74068     169.0786     338.0901      1.572     3.41     1016.439     59.58794     252.0456        16     1.171     0.884 -68.53   0
       178    610.2944    757.4590 307.6789811  +6.3760583     2286.107     3654.324     3844.177     84.60649     169.0786     338.1909      1.804     3.78     1019.803     59.58794     322.5703        22     1.339     1.016 -70.35   0
       179    458.2680    756.8924 307.7421472  +6.3711970     1089.187      2016.77     2322.212     84.60649      169.213     338.0901      1.922     5.68     1026.493     59.58794     152.6438        15     1.220     1.153 -80.12   0
       180    741.3420    756.4393 307.6245812  +6.3808654     576.5323     663.9918     607.6566     84.74068     169.1458     338.1573      1.333     5.21      1015.68     59.58794     92.17377         8     1.112     0.691 -87.61   0
       181    962.1811    752.5239 307.5329792  +6.3898603     3403.741      4615.16     5018.393     84.20264     168.8096     337.9892      1.492     3.08     1008.294     59.58794     471.2675        18     1.123     0.896 -83.64   0
       182   1022.5331    751.7086 307.5079368  +6.3922105     1906.872     2513.649     2657.344     84.74068     151.3487     273.7209      1.390     3.23     1006.907     59.58794     294.0854        15     1.216     0.715 -65.51  24
       183    991.5706    751.8942 307.5207922  +6.3911010     3316.448     4552.272     4690.083     84.87466     168.8096     337.9556      1.458     3.13     1007.598     59.58794     449.3337        20     1.203     0.918 -84.09   0
       184    714.3712    751.5731 307.6359480  +6.3819724     1272.639     1979.659     1575.666     84.20264     168.8769     337.8884      1.656     4.16     1016.554     59.58794     202.3326        16     1.244     0.943 -65.17   0
       185    861.7640    750.0626 307.5747740  +6.3875237     1145.188     1576.516     1607.565     84.74068     169.0786     338.0228      1.402     2.75     1011.517     59.58794     182.3931         9     0.885     0.662 -82.19   0
       186    937.2178    747.6183 307.5435133  +6.3910526     841.5967     1296.205     1499.041     84.47209     168.8096     337.9892      1.485     4.25     1008.679     59.58794     123.3774         7     0.892     0.576 -75.87   0
       187    287.2003    746.6730 307.8135467  +6.3696738     1694.616     2734.568     3237.619     83.93233     168.4727     337.8547      1.812     4.31     1032.221     59.58794     203.3757        14     1.214     0.797 -49.33   0
       188    980.0069    742.1363 307.5259228  +6.3947443     1076.755     1558.593     1620.234      84.0676     168.7423     337.8547      1.437     3.39     1007.649     59.58794     199.7002        11     1.090     0.861 -28.15   0
       189    953.4232    741.1819 307.5369975  +6.3942512      1273.46      1830.14     1359.967     84.47209     169.0114     337.9892      1.580     4.63      1008.13     59.58794     187.3462        12     1.145     0.836 -75.81   0
       190    202.7341    741.9990 307.8487880  +6.3687646     832.0981     1133.687     547.8989     83.93233     168.6749     337.7874      1.569     5.87     1032.475     59.58794     98.38977        10     1.262     0.769 -50.00   0
       191    307.3284    741.9315 307.8053464  +6.3723077     706.3905     1045.599     871.7763     84.74068      169.213     338.0228      1.594     5.71     1031.036     59.58794     100.1781         8     1.222     0.752  -1.27   0
       192   1006.4271    739.8280 307.5150253  +6.3965788     2575.272     3689.207     3895.425     84.20264     168.8769     337.8884      1.503     3.27     1007.131     59.58794     350.1432        17     1.160     0.925 -74.71   0
       193    726.0377    739.1904 307.6315181  +6.3874755     821.9986     1218.929     1284.243     83.93233     168.8769     337.7538      1.651     4.59     1015.568     59.58794     149.9417         8     1.272     0.470 -54.87   0
       194    674.3505    733.3962 307.6531831  +6.3881384     625.2944     1096.215     1329.571      84.0676     168.8769     337.6192      1.647     3.71     1017.574     59.58794     126.4842         5     0.993     0.398  73.15   0
       195    849.7233    731.7546 307.5803902  +6.3946808     1156.246     1875.035      1560.88     84.60649     169.1458     338.0901      1.759     4.73     1011.417     59.58794     157.6248        13     1.219     0.874 -61.24   0
       196    935.7732    729.1012 307.5447345  +6.3986502     1463.664     2119.623      2431.91     84.87466     168.8096     338.0228      1.487     3.60     1008.128     59.58794     231.4769        11     1.065     0.736 -74.55   0
       197    910.0002    724.3703 307.5555993  +6.3997431     1114.539      1647.46     2131.259     83.93233     168.8769     337.8547      1.711     3.11     1008.976     59.58794     164.7135        11     0.986     0.725 -76.05   0
       198    892.6290    720.3850 307.5629490  +6.4008086     1596.233     2488.303     2448.365     84.33747     168.8096     337.9556      1.600     4.34     1009.601     59.58794     235.4462        17     1.272     0.981  89.47   0
       199     91.9800    719.3080 307.8955571  +6.3744069     2289.575     3939.192     4501.831     84.60649     168.8769     337.8884      1.885     3.93     1032.385     59.58794     303.9344        26     1.452     1.105 -59.69   0
       200    156.3837    718.7538 307.8688255  +6.3768031     904.7729     1831.528     2163.521     84.20264     168.9442     337.8211      2.172     7.40     1031.811     59.58794     113.5554        15     1.557     0.986  88.32   0
       201    609.8359    714.5110 307.6806168  +6.3937760     704.1564     1142.523     965.5616     84.74068     169.0114     338.0565      1.815     5.17      1018.65     59.58794     98.61395         7     1.226     0.616 -38.90   0
       202    746.8504    711.4574 307.6238048  +6.3996226      468.005     807.1859     689.8177     84.74068     169.0786     338.0565      1.692     3.52     1013.813     59.58794     109.3175         5     1.020     0.625 -62.99   0
       203    704.5171    707.8605 307.6415108  +6.3996915     6104.066     8988.644     9077.464     84.87466     169.1458     338.0901      1.601     3.36     1015.281     59.58794     790.2116        29     1.352     1.069 -63.01   0
       204    562.1029    707.6131 307.7006767  +6.3950251     847.1603     1063.349     1220.823     84.60649     168.8096     337.7874      1.537     4.87     1020.206     59.58794     146.6655         8     1.102     0.718 -82.35   0
       205    651.3708    707.1591 307.6636110  +6.3982024     1363.397     2371.996     2856.133     84.33747     168.8769     337.8884      1.826     3.86     1017.182     59.58794     205.7255        14     1.173     0.871 -60.70   0
       206    572.9805    707.6196 307.6961581  +6.3953868     710.8105     939.1925     808.9705     84.47209     169.0114     337.9892      1.306     3.55     1019.814     59.58794     111.6865         6     0.811     0.644  34.26   0
       207      1.5831    706.1740 307.9335479  +6.3767852     2374.356     3054.901     3336.406     76.56993      138.244     258.7846      1.330     3.20     1032.748     59.58794     452.4795        14     1.210     0.686 -83.44  24
       208    167.5585    703.7595 307.8646907  +6.3833699      3352.53     5293.284     5643.226     84.47209     169.0786      337.922      1.702     3.47     1031.198     59.58794      444.351        25     1.462     0.954 -71.40   0
       209    678.3234    703.6561 307.6525329  +6.4005510      2153.33     3368.659     3512.779     84.74068     169.0114     338.0228      1.640     3.42     1016.164     59.58794      276.583        16     1.125     0.889 -66.09   0
       210    951.3820    699.7216 307.5392360  +6.4113021     3810.897     5578.884     6174.642     84.20264     168.7423     337.9892      1.539     3.11     1007.004     59.58794     603.8884        25     1.408     0.894 -71.69   0
       211    821.3708    699.8969 307.5932375  +6.4068874     20290.73     30197.62     31556.64     84.87466     168.8096     338.0565      1.588     3.14     1011.341     59.58794     2906.822        47     1.421     1.180 -67.72   0
       212    549.2307    699.9957 307.7062802  +6.3977389     841.7005     1222.889     1208.903     84.20264     168.9442     337.8211      1.545     5.07     1020.435     59.58794     116.0961         9     1.243     0.654 -69.49   0
       213    520.6666    700.3640 307.7181330  +6.3966295     1287.621     1939.161     1930.575     84.60649     169.1458     338.1237      1.687     5.00     1021.755     59.58794     179.8173        13     1.116     0.928 -49.37   0
       214    366.3094    700.0768 307.7822599  +6.3915697     654.8676     1343.121     1381.631     84.60649     169.3472     338.0565      2.004     3.79     1027.157     59.58794      109.139         5     0.843     0.488  39.38   0
       215    294.9918    693.6120 307.8121017  +6.3918437     5712.633     8914.122     9504.235     84.33747     168.8769     337.9892      1.653     3.49      1029.05     59.58794     704.9285        29     1.350     1.121 -64.52   0
       216    702.0021    692.6870 307.6430657  +6.4058725     6840.146     10543.49      10854.6     84.06759     168.6749     337.7538      1.650     3.32     1014.812     59.58794     947.7598        35     1.437     1.148 -64.26   0
       217    684.3356    694.2003 307.6503535  +6.4046564     1009.529     1610.236      2280.03     83.93233     168.6749     337.7874      1.837     4.35     1015.516     59.58794     159.6345        10     0.985     0.766 -38.06   0
       218    397.0275    693.3353 307.7697276  +6.3953844     580.7983     905.3693     920.8899     84.33747     169.0786     337.9556      1.691     3.14     1026.377     59.58794     110.4377         5     0.776     0.585  85.96   0
       219    961.8379    685.3489 307.5353745  +6.4175856      1274.24     1774.767     1388.278     84.47209     169.0114     338.0228      1.465     2.98     1006.149     59.58794     222.6669        11     0.994     0.700 -73.74   0
       220    773.6580    681.1716 307.6136867  +6.4130241     3612.668     5627.304     5737.878     84.33747     169.1458     337.9556      1.650     3.49      1012.11     59.58794     507.5153        23     1.320     0.985 -80.47   0
       221    728.9394    681.6086 307.6322484  +6.4113480     1074.422     1335.336     1338.833     84.06759     168.9442     337.7874      1.400     3.80     1013.435     59.58794     143.4958        11     0.994     0.763 -71.66   0
       222    978.3452    678.1534 307.5287584  +6.4211076     2570.965     3769.467      4145.62     84.74068     169.0786     338.0901      1.543     2.98     1005.239     59.58794     404.7722        19     1.185     0.891 -82.40   0
       223     39.0919    680.0576 307.9188525  +6.3888316     707.0056     916.6995     806.8065     84.60649     169.0114     338.1573      1.416     4.16     1031.743     59.58794     115.9597         7     0.891     0.554  43.80   0
       224     59.1668    677.6085 307.9105970  +6.3905189     1755.892     3409.618     4170.325     84.20264     168.8769     337.8884      2.257     4.99     1031.627     59.58794     214.6549        23     1.385     1.285 -45.62   0
       225    117.3880    672.5669 307.8865844  +6.3945606     23582.89     38327.93     40367.16     84.20264     168.8096     337.9556      1.769     3.51     1030.984     59.58794     2801.006        58     1.586     1.313 -73.49   0
       226    578.6433    673.5969 307.6949512  +6.4096243     1976.377     3112.365     2845.988      84.0676     168.6749     337.6865      1.711     4.28     1018.742     59.58794     246.8176        20     1.330     0.998 -74.28   0
       227    317.2101    673.7878 307.8035419  +6.4007752      400.512     591.1235     312.9727     84.47209     168.8769     337.9892      1.293     4.36     1027.557     59.58794     82.70618         5     0.744     0.728  11.64   0
       228    547.3663    670.7664 307.7080390  +6.4097450     1250.822     2031.009     1905.144     84.20264     168.8096     337.7874      1.771     4.64     1019.685     59.58794     161.0148        17     1.127     1.101 -62.62   0
       229    968.1432    669.9215 307.5332726  +6.4241661     1090.442     1144.915     1446.505     84.74068     169.0786     338.0228      1.251     2.53     1005.372     59.58794     172.2828         9     0.764     0.746 -61.69   0
       230    587.7280    667.2826 307.6913900  +6.4125358     955.4935     1506.851      1100.15     85.00843     169.4143     338.0901      1.701     6.06     1018.325     59.58794     124.1208        12     1.315     0.886 -44.78   0
       231    763.2904    664.8839 307.6185408  +6.4194025      3470.73     5048.311     4533.639     84.47209     169.3472     338.1909      1.524     3.17     1012.082     59.58794     476.7012        21     1.276     0.901 -76.87   0
       232    785.3317    663.0233 307.6094471  +6.4209078     4163.802     6322.336     6168.456     84.33747     169.0114     338.0228      1.598     3.34      1011.41     59.58794      556.046        26     1.385     1.010 -64.52   0
       233    452.7647    661.8692 307.7476359  +6.4102466     1321.661      1841.23     1587.195     84.60649     169.0786     338.1573      1.491     3.83     1023.346     59.58794     170.4487        13     1.107     0.819 -68.46   0
       234    616.8353    660.8718 307.6795145  +6.4161578     2965.147      4704.26     4563.171     84.60649     169.0786     338.0565      1.633     3.83     1017.189     59.58794     374.7852        24     1.363     1.085 -64.29   0
       235    277.5768    660.3548 307.8204584  +6.4049899      1529.06     2640.068     3321.035     84.20264     169.0786      337.922      1.887     4.28     1027.751     59.58794     189.4041        17     1.279     0.961 -55.81   0
       236    361.1602    659.8608 307.7857556  +6.4080015     1315.497     2292.073     1964.749     84.74068     169.0786     338.1237      1.669     4.31     1026.294     59.58794     167.2089        14     1.187     0.931  88.71   0
       237   1023.2292    658.1443 307.5107835  +6.4308668     7723.692     9859.672     10081.42     79.05235     141.2523     261.8834      1.300     3.05     1002.491     59.58794     1167.809        22     1.311     0.757 -84.18  24
       238    743.4814    656.7506 307.6270430  +6.4220982     766.7198     1084.599      776.683     84.74068     169.0786     338.0901      1.586     4.07     1012.624     59.58794     128.3002         7     1.192     0.397 -74.32   0
       239    182.0552    651.5836 307.8604328  +6.4054000     21537.88     36104.69     38203.98     84.20264     169.0114     337.7874      1.805     3.56     1029.718     59.58794     2545.127        57     1.592     1.334 -71.18   0
       240    135.2225    655.1782 307.8797645  +6.4023402     793.9318     991.6729     575.1635     84.47209     168.9442     338.0228      1.410     2.71     1030.356     59.58794     159.5698         7     0.834     0.582 -53.46   0
       241    468.9920    652.4780 307.7412117  +6.4146685     2574.238     4255.331     4236.199     84.33747     168.5402     337.8547      1.740     3.70     1022.302     59.58794     360.2375        25     1.442     1.007 -47.61   0
       242    850.1751    652.0559 307.5828784  +6.4276035     1290.589     1752.296     1715.292     84.33747     169.0786     337.8547      1.447     4.16      1009.31     59.58794     164.9674        14     1.112     0.941 -44.13   0
       243    685.7817    651.7653 307.6511799  +6.4222261     556.6702     800.3974     861.9322     84.20264     168.8769     337.8211      1.444     3.71     1014.478     59.58794     89.43982         5     1.184     0.334 -77.64   0
       244    401.8094    646.3932 307.7693244  +6.4149267     524.3289     933.5305     293.0254     84.20264     168.8769     337.8884      1.719     4.29     1024.564     59.58794     88.39172         5     1.139     0.460 -56.98   0
       245   1018.4247    641.0047 307.5133540  +6.4377836      7129.29     11330.45     11637.26     84.20264     168.8096     326.1154      1.689     3.54     1002.095     59.58794     924.8263        34     1.372     1.205  78.93  24
       246    612.0654    636.2999 307.6823229  +6.4261436     44899.56     71929.04     75968.73     84.74068      169.213     338.0228      1.731     3.44     1016.823     59.58794     5759.952        73     1.611     1.325 -62.96   0
       247    976.2508    638.0789 307.5309724  +6.4375846     623.7416     695.4973     1078.256     84.74068     169.1458     338.0565      1.170     4.22     1003.793     59.58794      116.285         7     0.779     0.650  88.11   0
       248    255.5147    638.0601 307.8303756  +6.4134536     618.4756     933.9197     970.5508     84.87466     169.1458     338.1573      1.482     4.36     1027.756     59.58794     118.4656         6     1.259     0.441  32.67   0
       249     19.6033    636.1526 307.9284335  +6.4063024     766.1238     1146.476     1728.255      84.0676     168.8096     337.6865      1.626     5.04     1031.779     59.58794      153.407         9     1.080     0.807  87.61   0
       250    219.9055    633.1343 307.8453337  +6.4142902     2558.216     4363.429     4826.988     84.74068      169.213     338.0901      1.817     4.55     1028.719     59.58794     320.1447        27     1.487     1.102 -66.84   0
       251    542.5464    633.4526 307.7112978  +6.4249901     645.7754     884.6647     756.4709     85.00843     169.0114     338.0901      1.629     4.40     1019.434     59.58794     113.2803         6     0.973     0.642  25.07   0
       252     63.2989    640.7111 307.9101292  +6.4058921     952.3295     1692.719      1827.64     84.74068     169.5484     338.0228      1.951     5.00     1031.099     59.58794     137.8234        11     1.269     0.822  14.58   0
       253    112.2715    627.3870 307.8902378  +6.4130422     1453.487     2239.817     1954.736     84.20264     168.8096     337.8884      1.682     4.52     1030.124     59.58794     209.9896        15     1.260     0.861  55.84   0
       254    509.3448    620.1056 307.7255398  +6.4293879     56497.48     93226.23     98951.64     84.60649     169.0786     338.2917      1.794     3.54     1020.091     59.58794     6667.086        85     1.658     1.398 -68.57   0
       255     53.0465    621.9825 307.9150216  +6.4132794     1688.693     2815.132     3347.956     84.20264     168.9442     337.7874      1.826     4.15     1031.096     59.58794     205.3702        20     1.267     1.037 -71.63   0
       256    695.4349    616.8814 307.6483430  +6.4369526     797.9866     1389.243     886.7422     84.60649     169.0786     338.0565      1.772     5.88      1014.04     59.58794     103.3637        10     1.152     0.844 -65.91   0
       257    183.9874    615.4781 307.8608505  +6.4203722     1580.809     2837.166     3599.221     84.33747     168.6749     337.8547      2.031     4.49     1029.141     59.58794     190.4283        22     1.286     1.180  62.73   0
       258    462.6405    613.0709 307.7451784  +6.4307262     711.1418     1474.329     1914.692     84.60649     169.0786     338.1237      2.224     6.61     1021.123     59.58794     104.6313         8     1.263     0.969 -23.11   0
       259    978.9197    612.9615 307.5307059  +6.4480447     655.9498      1011.19     761.6197     84.60649     169.1458     338.0228      1.446     4.58     1002.713     59.58794     95.22119         7     1.064     0.560 -56.13   0
       260    654.5952    612.5386 307.6654548  +6.4373787     971.6124     1364.283     1523.697     84.20264     168.8096     337.8211      1.680     5.04      1015.18     59.58794     127.4943         9     1.069     0.673 -58.10   0
       261    362.7860    611.8477 307.7867002  +6.4278801     511.2007     648.6465      997.731     84.06759     168.9442     337.7538      1.582     4.51      1023.95     59.58794     75.50598         5     0.808     0.715 -46.55   0
       262    354.7683    609.5502 307.7901083  +6.4285595     1905.811     3459.756      3817.32     84.47209     169.0786     337.9892      1.991     4.43     1024.048     59.58794     218.2635        21     1.317     1.086 -80.95   0
       263    507.0564    607.7401 307.7269070  +6.4344168     825.5391     1592.631     2169.933     84.87466     169.0786     338.0901      2.624     7.59     1019.849     59.58794     107.0654        14     1.386     1.163 -13.14   0
       264    781.3732    603.5108 307.6130911  +6.4453481      5237.59      8107.19     8213.897     84.87466     168.8096      337.922      1.685     3.38     1010.494     59.58794     659.6384        32     1.421     1.147 -71.26   0
       265    834.9139    598.9204 307.5910027  +6.4490332     13783.26     20870.76     22044.65     84.47209     169.4143     338.1573      1.574     3.17     1008.375     59.58794     1959.798        42     1.429     1.140 -59.53   0
       266    577.3506    598.9474 307.6980015  +6.4404033     1157.373     1956.248     2529.316     84.87466     168.9442     338.0228      2.010     4.15     1017.438     59.58794     155.3879        15     1.207     0.842 -65.16   2
       267     80.1881    598.6227 307.9045378  +6.4238382     568.2634     774.7878     1118.958     84.33747     168.8769     337.9556      1.660     4.20      1030.16     59.58794     76.34631         6     0.750     0.670  71.31   0
       268    658.9100    596.8680 307.6641896  +6.4439935     2563.052     4399.194      4236.79     84.87466      169.213     338.0228      1.749     4.17      1014.93     59.58794     293.9992        25     1.463     1.045 -57.15   0
       269    533.9089    596.2853 307.7161379  +6.4400466     2211.205     2082.337     1648.741     84.47209     169.5484     338.1909      0.719     1.25     1018.838     59.58794     1102.593         7     0.736     0.419  30.51   0
       270    975.4931    593.3412 307.5327875  +6.4560316     1247.422     1821.166     2729.329     84.60649     169.0114     338.1909      1.638     3.73     1002.282     59.58794     180.9904        11     1.069     0.742 -26.11   0
       271      1.3346    592.0371 307.9375156  +6.4239010     1555.935     1926.694     1677.624     73.38758      134.241     254.4008      1.205     3.64     1032.383     59.58794     373.5511        11     1.271     0.513 -80.62  24
       272    417.6845    590.8673 307.7646024  +6.4383855     776.4941     1257.924     1295.097     85.00842     169.3472     338.0901      1.832     4.87     1021.879     59.58794     112.8927         7     1.247     0.539  68.07   0
       273    270.9844    590.5945 307.8255526  +6.4335713      953.066     1718.794     1278.069     84.33747     168.7423     337.8884      1.691     6.20      1025.54     59.58794     163.4177        12     1.455     0.804  -9.43   0
       274    235.6094    591.2576 307.8402252  +6.4321084     741.9239     1175.354     1742.704      84.0676     169.0114     337.7538      1.585     4.02     1026.722     59.58794     119.8413         6     0.914     0.507  44.04   0
       275    911.0040    582.1686 307.5599541  +6.4584920     2735.724     4214.166     4820.479      84.0676     168.9442     337.8211      1.617     3.65     1004.661     59.58794     360.3772        22     1.305     0.972 -64.53   0
       276    206.0629    582.4666 307.8527960  +6.4347445     737.0332     1129.561     1548.975     84.74068     169.0786     338.0565      1.654     4.27     1027.342     59.58794     97.34326         6     0.959     0.541 -73.36   0
       277    869.6083    579.4921 307.5772415  +6.4582145     2594.692      3848.93     3776.986     84.33748     168.7423     337.8547      1.615     3.20     1007.033     59.58794     353.9378        20     1.183     0.975 -75.57   0
       278    840.5309    575.7441 307.5894475  +6.4587904     2569.931      4068.34     4714.147     84.87466     168.9442     338.0228      1.775     3.32     1008.029     59.58794     372.9946        20     1.267     0.905 -62.82   0
       279    297.7426    574.5797 307.8149778  +6.4410828     6838.245     11803.39     12784.89     84.33747     168.9442     337.8547      1.877     3.80     1023.961     59.58794     753.3474        44     1.609     1.269 -60.06   0
       280    850.3069    570.7756 307.5855529  +6.4611686       157623     236370.9     249211.9     84.87466     168.8096     337.8884      1.634     3.26     1007.738     59.58794     22070.13       110     1.595     1.322 -69.36   0
       281    783.7292    575.5358 307.6130524  +6.4569777     667.9296     1185.148     1892.608     84.74068     169.0786     338.0565      1.719     3.30     1009.892     59.58794     112.8705         5     0.750     0.441 -22.58   0
       282    232.0327    569.0429 307.8424615  +6.4411602     50444.12     86959.61     94147.83     84.33747     169.0786     337.8883      1.860     3.67     1025.974     59.58794     5921.371        93     1.740     1.484 -71.94   0
       283      9.9283    567.7790 307.9347673  +6.4342061     3969.318     6637.121     6709.879     84.33747     168.9442     338.0228      1.771     3.78     1032.011     59.58794     491.0778        29     1.368     1.237 -69.01   0
       284    155.9976    565.3529 307.8741720  +6.4401263     5294.612     9407.831     10032.49     84.06759     168.7423     337.6192      1.884     3.88      1028.27     59.58794      616.531        40     1.579     1.305 -68.89   0
       285   1021.2206    562.5238 307.5148233  +6.4702819     1356.932     1831.217     1249.209     84.33747     164.9284      293.318      1.387     3.18     1000.008     59.58794     196.5538        10     0.952     0.691 -88.61  16
       286    270.6914    560.8442 307.8266791  +6.4458449     703.2753     978.3754     415.0266     84.74068     169.0114     338.1909      1.546     3.81     1024.294     59.58794     112.1346         6     1.027     0.407 -76.54   0
       287    886.8980    558.0736 307.5707776  +6.4676357     4306.699     6469.854     6236.621     84.33747      169.213     338.0228      1.547     3.11     1005.698     59.58794     595.5869        27     1.297     1.061 -68.46   0
       288    405.3884    556.1938 307.7708799  +6.4522891     14716.88     25385.41     27068.58     84.33747     168.8769     337.9556      1.835     3.81     1020.809     59.58794     1707.668        55     1.657     1.343 -65.99   0
       289    207.4290    555.1777 307.8531508  +6.4460576      1740.33     3252.841       4490.1     84.20264     168.8769      337.922      2.989     8.78     1026.265     59.58794     218.0143        24     2.399     0.897 -34.87   2
       290    495.5020    555.9450 307.7334523  +6.4554151     715.1683     1247.948     1808.682     84.60649     169.0786     338.2916      2.091     4.61     1018.848     59.58794     118.5862         5     0.861     0.701 -48.49   0
       291    283.3567    553.1587 307.8216773  +6.4494438     729.5314     1523.679     1965.765     84.47209     169.0786      337.922      1.890     4.45     1023.539     59.58794      94.2207         7     1.257     0.449 -81.78   0
       292    840.8337    551.3667 307.5901404  +6.4688660     5706.646     8580.847     8829.996     84.20264     168.8096     337.7874      1.587     3.34     1007.866     59.58794     744.5139        29     1.357     1.043 -71.14   0
       293    571.6089    551.1288 307.7019969  +6.4599549     5713.249     9611.461     10432.82     84.20264     168.6076     337.8884      1.817     3.74     1016.177     59.58794     732.8253        34     1.449     1.207 -67.56   0
       294    144.8071    551.5547 307.8792872  +6.4454467      685.297     1238.465     910.5422     84.20264     168.8769     337.6865      1.839     5.09     1028.115     59.58794     85.26831         8     1.097     0.668  39.82   0
       295    429.9351    547.7573 307.7609670  +6.4565962      1299.08     1938.547     1391.174     84.74068     169.0114     338.0565      1.527     3.88     1020.248     59.58794     215.0101        14     1.242     0.795 -58.53   0
       296    218.6960    544.2866 307.8488383  +6.4509332     5841.792     9762.793     10306.48     84.74068     169.4814     338.0901      1.793     3.62     1025.422     59.58794     718.1445        37     1.474     1.258 -60.81   0
       297    857.3362    543.8901 307.5835354  +6.4725045     1287.858     2013.832     1871.769     84.60649     169.2801     338.0901      1.630     4.41       1007.4     59.58794     199.0172        14     1.332     0.746 -73.88   0
       298    616.5234    544.1686 307.6835719  +6.4643335     2266.425     3877.376     4467.208     84.60649     169.1458     338.0228      1.890     4.52     1015.397     59.58794     232.6524        21     1.363     1.023 -44.24   0
       299     15.5589    545.4846 307.9331832  +6.4436006     1285.217     2159.768      1875.81     84.74068     169.0114     338.0228      1.778     4.33     1031.723     59.58794     177.5681        16     1.193     0.971 -81.08   0
       300    313.9454    540.7701 307.8093883  +6.4555866     72654.58     128237.4     137109.2     84.47209     169.1458     337.9556      1.898     3.83     1021.766     59.58794     8337.014        90     1.724     1.454 -70.90   0
       301     90.4402    543.0620 307.9021590  +6.4471231      4464.71     7667.596     8018.074     84.74068     169.0786     338.0901      1.866     3.96     1029.416     59.58794     501.9791        37     1.589     1.262  82.89   0
       302    603.3151    538.0763 307.6892644  +6.4664065     792.0118     1163.603      1737.58     84.87466     169.4143     338.1237      1.737     3.77     1015.561     59.58794      116.416         7     0.751     0.662 -79.62   0
       303    837.0496    533.1626 307.5923239  +6.4762560     15506.01      23767.4     24259.98     84.47209     168.9442     337.8884      1.603     3.31      1007.64     59.58794     2222.804        45     1.477     1.175 -67.18   0
       304    540.7128    531.5781 307.7154910  +6.4669918     35165.34     64125.05     70273.98     84.74068     168.8769     337.8884      1.972     3.86     1016.284     59.58794     3852.164        84     1.737     1.583 -50.37   0
       305    297.6920    535.8597 307.8163062  +6.4570680     1337.484     2315.045      3082.67     84.60649     169.0114     338.1909      1.810     4.07     1022.068     59.58794     158.2875        14     1.112     0.887 -17.99   0
       306   1013.4108    534.2922 307.5190145  +6.4816783     1585.781     2228.544     2413.094     84.47209     168.7423     337.8884      1.559     3.70      999.072     59.58794     214.1414        11     1.042     0.712 -45.51   0
       307    691.0569    530.7202 307.6530596  +6.4723818     783.4074     1309.553     1572.483     84.74068     169.0786     338.0565      1.532     4.08     1012.987     59.58794     116.0648         6     1.100     0.433  29.74   0
       308    253.3851    527.9350 307.8349801  +6.4588508     1527.958     2591.896     3085.152     84.20264     168.9442     337.9556      1.871     5.12     1023.352     59.58794     197.6727        23     1.526     1.042 -69.23   0
       309     88.5646    528.1283 307.9034435  +6.4532257     1057.277     1829.671     1778.939     84.60649     169.0786     338.0565      1.879     5.57     1028.801     59.58794     160.2249        15     1.384     0.963  89.46   0
       310    700.6273    526.6705 307.6492197  +6.4743741     2846.879     4662.448     5219.675     84.33747     168.9442     337.9892      1.778     3.67     1012.485     59.58794     388.5337        28     1.443     1.154 -61.97   0
       311    762.4488    525.4038 307.6235782  +6.4769655     1176.349      1903.89     2765.383      84.0676     168.8769     337.6529      2.342     5.25     1009.995     59.58794      176.371        16     1.514     0.745 -62.57   0
       312    710.9871    526.6346 307.6449169  +6.4747356     1425.796     2175.032     2334.389     84.20264     168.8769      337.922      1.739     4.34     1012.056     59.58794     192.8173        13     1.050     0.841 -75.40   0
       313    438.4865    522.3392 307.7582716  +6.4673780     1590.326     2559.161     2602.697     84.87466      169.213     338.1237      1.695     4.61     1018.785     59.58794     176.2526        19     1.298     1.024 -41.87   0
       314    550.0226    519.9990 307.7120133  +6.4720848     1803.402     3089.751     3292.654     84.33747     168.7423     337.8211      1.851     4.56     1015.928     59.58794     194.9187        23     1.364     1.131 -79.70   0
       315    369.9645    520.4952 307.7868005  +6.4658394     3359.564     5789.483     6409.827     84.87466     168.9442     338.1573      1.902     4.05     1019.101     59.58794     383.5822        30     1.423     1.242 -69.03   0
       316    185.0583    519.1759 307.8636609  +6.4601695     21857.43     38057.28     40430.93     84.33747     169.0786      337.922      1.853     3.75     1025.704     59.58794     2506.982        59     1.646     1.358 -69.80   0
       317    912.9762    519.4612 307.5612393  +6.4844498       1664.2     2326.995     2129.356     84.33747     169.0114     337.9556      1.464     3.59     1003.244     59.58794     205.7319        15     1.098     0.882 -62.69   0
       318     30.2027    517.4747 307.9280484  +6.4556586     1914.711     3146.903     3576.617     84.20264     168.5402      337.922      1.712     4.24     1030.483     59.58794     246.5647        24     1.394     1.114 -85.68   0
       319    150.3369    517.4055 307.8781448  +6.4597323     2183.567     3736.211     3888.883      84.0676     168.8769     337.7874      1.808     4.22     1026.861     59.58794      265.897        23     1.420     1.025 -63.60   0
       320    386.8545    515.9071 307.7799385  +6.4683008     972.1569     1648.963     1797.823     84.60649     169.0114     338.2245      2.074     5.83     1018.862     59.58794     115.4882        13     1.268     0.903 -64.79   0
       321   1010.5413    513.6453 307.5208990  +6.4901077     5164.013     7197.004     6636.314     84.60649     169.0786     338.1573      1.504     3.11     997.6573     59.58794     727.6569        24     1.271     0.963 -70.90   0
       322    378.7337    513.0291 307.7834094  +6.4692165      5209.35     4987.517     5510.371     84.47209     169.0786     337.9892      0.531     0.87     1018.711     59.58794     3377.633         6     0.442     0.344  -3.76   0
       323     49.3425    503.4896 307.9205709  +6.4620774     22144.94     37395.58     40242.68     84.60649     169.0114     338.1909      1.843     3.70     1029.316     59.58794     2609.682        67     1.698     1.376 -79.52   0
       324    583.7576    506.0609 307.6984675  +6.4789702     1410.273     2294.075     2826.614     84.74068     169.0786     338.1909      1.874     4.73     1015.345     59.58794     202.3438        16     1.313     0.874 -65.61   0
       325    481.9919    500.2539 307.7409420  +6.4779563     35890.62     62507.54     66349.21     84.20264     168.8769     337.7538      1.848     3.79     1016.842     59.58794     4076.097        72     1.666     1.404 -69.37   0
       326    690.0850    499.9304 307.6544991  +6.4850622     11147.11     18074.29     19118.56     84.87466     169.3472     338.0901      1.732     3.45     1012.457     59.58794     1455.414        44     1.511     1.251 -66.64   0
       327     31.9192    497.7477 307.9280032  +6.4638612     170114.3     287414.2     307271.1     84.74068     169.0786     338.0901      1.821     3.62     1029.844     59.58794     21322.58       128     1.748     1.471 -73.86   0
       328    247.2577    497.9243 307.8385395  +6.4710357     15824.59     28995.66     31301.98     84.87466     169.0786     338.0228      1.972     3.91     1022.036     59.58794     1700.985        60     1.676     1.484 -85.33   0
       329    329.6425    500.4091 307.8042297  +6.4727784     840.8191     1659.542     1762.677     84.20264     168.8769     337.7874      2.093     7.45     1018.774     59.58794     117.9604        11     1.405     1.107 -54.47   0
       330    212.9529    499.1837 307.8527484  +6.4693622     1377.751     2386.124     2170.539     84.20264     169.0114     337.8211      1.776     5.90     1023.719     59.58794     153.9812        21     1.441     1.155 -33.33   0
       331   1023.4680    498.4814 307.5160367  +6.4968002     1019.483     1271.387     1577.456     76.56994     137.8325     257.8169      1.165     3.38     995.6323     59.58794      171.973         9     1.052     0.597  80.21  24
       332    864.3242    498.0433 307.5821717  +6.4916681     938.6954      1675.49     1650.882     84.60649     169.1458     338.0901      1.972     5.91     1005.826     59.58794      121.179        12     1.261     0.779 -53.49   0
       333    952.8635    497.6142 307.5454003  +6.4948022      821.954     1283.486     1156.049     84.20264     168.9442     337.8884      1.798     4.13     1000.496     59.58794     128.6306         7     0.845     0.713 -59.73   0
       334    611.9153    496.5695 307.6870887  +6.4838324     2362.394     3867.753     3668.023     84.74068     168.8769      337.922      1.732     3.99     1014.822     59.58794     323.6212        23     1.305     1.120 -64.06   0
       335    985.6850    493.9113 307.5318880  +6.4974266     4885.216     6872.129     7124.188     84.47209     169.3472     338.1909      1.475     3.03     997.9949     59.58794     674.0776        23     1.268     0.939 -58.71   0
       336    658.8824    492.2397 307.6677213  +6.4871931     5759.096     9616.929     10206.97     84.74068     169.1458     337.9892      1.775     3.73      1013.25     59.58794     721.6652        34     1.517     1.141 -54.47   0
       337    146.5979    492.7701 307.8805312  +6.4697779     1073.407      1741.37     2038.545     84.20264     168.8769     337.8547      1.844     4.28      1026.13     59.58794     146.3082        13     1.191     0.838 -43.90   0
       338   1008.2072    485.9796 307.5227964  +6.5014531     3522.129     5170.624     5558.693     84.33747     168.8096     337.8547      1.520     3.00     995.8134     59.58794     536.9867        22     1.226     0.949 -69.69   0
       339    571.1746    483.5110 307.7044546  +6.4878592     6470.608     10762.77     11817.21     84.87466     168.8769     337.8884      1.817     3.71     1015.219     59.58794     759.5848        39     1.493     1.279 -67.55   0
       340    447.2178    485.1563 307.7558980  +6.4830234     659.4847      1320.58     2010.459     84.20264     168.9442     337.7874      2.075     4.33     1016.636     59.58794     84.34125         5     0.836     0.638  49.17   0
       341    927.5337    479.4823 307.5565328  +6.5014432     3180.909      4659.66      5252.85     85.00843     169.3472     338.1237      1.629     3.61     1002.122     59.58794     420.7761        23     1.366     0.898 -65.50   0
       342    416.9580    483.8560 307.7685134  +6.4825448     2199.823     3828.916     3998.508     84.60649     169.0114     338.0565      1.869     4.25     1017.102     59.58794     247.6984        23     1.283     1.180 -51.76   0
       343    934.5786    473.9416 307.5537917  +6.5039662     2113.181     3019.952     3716.839     84.33747     168.9442     337.8547      1.609     3.26     1001.391     59.58794     304.5245        18     1.117     0.989 -62.33   0
       344    974.2858    472.8940 307.5373291  +6.5057242     1148.186     1729.591     1154.308     84.74068     169.5484     338.1573      1.504     4.66     998.1642     59.58794     166.6382        11     1.273     0.606 -72.59   0
       345    154.5755    473.3226 307.8778747  +6.4780758     555.3371     1087.328     1061.098     84.33748     168.9442     338.0228      1.972     5.47     1025.247     59.58794      80.5708         6     1.002     0.841  36.07   0
       346    758.9957    469.7439 307.6268838  +6.4998318     2793.777     4683.252     5119.981     84.06759     168.8769     337.7538      1.731     3.59     1009.421     59.58794     328.5868        25     1.333     1.095 -62.75   0
       347    429.8144    468.0479 307.7637053  +6.4895032     3061.182     5380.352     5134.139      84.0676     169.0114     337.7538      1.824     4.02     1015.815     59.58794     389.7049        26     1.385     1.152 -59.86   0
       348    120.8756    468.6821 307.8920319  +6.4788575     1697.981     2995.039     3013.777     85.00842     169.3472     338.1237      1.866     4.41     1025.728     59.58794     236.9011        22     1.382     1.080 -79.44   0
       349    470.4897    468.4554 307.7467926  +6.4906997     897.7686     1455.135     1807.478      84.6065     168.9442     338.1909      1.985     6.95      1015.06     59.58794     118.3652        13     1.357     0.998 -26.55   0
       350    657.5828    464.5687 307.6691925  +6.4985748     8796.227     14525.22     15930.08     84.33748     168.8769      337.922      1.823     3.75      1012.53     59.58794     1009.598        43     1.542     1.266 -59.53   0
       351    820.2462    461.0951 307.6017262  +6.5054509     15605.24     24037.82     25419.43     84.60649     169.0114     338.1909      1.646     3.28     1006.477     59.58794     2082.862        44     1.497     1.187 -57.29   2
       352    824.2507    456.3298 307.6002225  +6.5075524     1278.751     1988.492     2843.859     84.60649     169.0114     338.0901      1.859     2.99     1006.157     59.58794     189.0227        12     1.019     0.778  62.10   3
       353    340.0269    461.4637 307.8012303  +6.4892072     2242.798     3703.676     3888.302     84.33747     169.0114     337.9556      1.777     3.85     1016.305     59.58794     251.9777        21     1.238     1.067 -54.11   0
       354    849.1936    458.0323 307.5898019  +6.5076830     1236.593     1980.788     1981.803      84.0676     168.8769     337.8547      1.633     3.97     1005.184     59.58794     161.3223        15     1.209     0.833 -60.61   0
       355    423.1661    457.8519 307.7668113  +6.4934899     1391.778     2364.856     2626.718     84.60649     169.0114     337.9556      1.769     4.47     1015.262     59.58794     170.6293        15     1.150     0.937 -38.21   0
       356   1005.3431    456.0362 307.5249906  +6.5137212     2016.539     2948.922     3339.582     84.60649     169.0786     338.0901      1.485     3.47     995.4537     59.58794     294.4341        19     1.302     0.872 -62.31   0
       357    157.7122    453.0792 307.8772562  +6.4865394     3747.545     6828.717     7846.229     84.47209     169.3472     338.1909      2.017     4.21      1024.23     59.58794     442.9843        34     1.568     1.219 -60.95   0
       358    795.8006    451.9446 307.6121904  +6.5084118     2202.362     3382.473     3632.226     83.93233     168.8096     337.6865      1.627     3.63      1007.19     59.58794     265.1465        22     1.269     1.041 -57.62   0
       359    315.5299    450.1996 307.8117880  +6.4930349     1387.605     2424.587     2895.309     84.20264     168.5402     337.8547      1.944     5.36     1016.452     59.58794     178.1549        17     1.312     1.014 -51.70   0
       360    393.6261    447.8849 307.7794203  +6.4966136     2641.617     4449.817     4791.104     84.87466     168.8096      337.922      1.840     4.47     1014.882     59.58794     289.3828        24     1.435     1.076 -63.16   0
       361    749.4921    445.6527 307.6316424  +6.5094610     1398.246     2238.792     2525.701     84.60649     168.9442     338.2581      1.713     4.62     1008.798     59.58794     205.8163        16     1.296     0.887 -86.73   0
       362   1023.2756    444.4273 307.5179290  +6.5191128     612.7844     848.6527     1243.786     78.61997     140.5265     261.1448      1.585     3.04     994.0471     59.58794     129.6965         6     0.892     0.447  88.80  24
       363    590.8233    437.9346 307.6978260  +6.5073358     817.7047     1025.878     1297.173     84.33747     169.0786     337.9556      1.482     4.51     1012.431     59.58794     141.7889         7     0.913     0.634 -61.33   0
       364    513.1123    436.6022 307.7301579  +6.5052811     1122.427      1804.02     1825.839     84.06759     168.6749     337.7874      1.617     5.97     1012.471     59.58794     149.4756        13     1.322     0.758 -42.28   0
       365    875.7343    435.6768 307.5795253  +6.5178004     1503.876     2384.642     2293.351     84.87466     169.0786     338.0228      1.688     3.01     1003.231     59.58794     245.7792        13     1.022     0.826 -52.74   0
       366    861.3458    434.5468 307.5855416  +6.5177862     1847.487     2846.924     2990.206     85.00843     169.0114     338.0565      1.720     3.98     1003.945     59.58794     253.3377        21     1.388     0.962 -83.05   0
       367    758.7308    432.8138 307.6282355  +6.5150712      13326.6     21559.94     23170.22     84.20264     169.0114      337.922      1.725     3.44     1007.871     59.58794     1675.828        46     1.482     1.276 -63.86   0
       368    679.7657    428.8846 307.6611766  +6.5140512     2302.884     4051.666     5148.256     84.74068     168.9442     338.0228      2.104     4.09     1010.931     59.58794     289.0793        21     1.346     0.988 -64.11   0
       369    652.1335    423.9600 307.6728231  +6.5151594     11088.57     25176.72     31063.38     84.60649     169.0114     338.1573      2.476     5.96     1011.294     59.58794     1472.674        73     2.322     1.543  37.77   0
       370    983.9103    422.6304 307.5350163  +6.5267993     3837.207     5498.448     5742.295     84.87466     168.8769     338.0228      1.541     3.17     996.4552     59.58794     580.0009        24     1.333     0.969 -76.68   0
       371    423.1440    418.6599 307.7681424  +6.5096710     23756.29     41971.56     44670.36     84.87466     169.0786     338.0901      1.898     3.93     1012.591     59.58794       2560.8        65     1.685     1.415 -65.89   0
       372    939.6843    418.3998 307.5535342  +6.5270699     1430.905      2377.86     3204.555     83.93233     168.5402     337.6865      1.947     4.29     999.0907     59.58794     224.0182        17     1.362     0.874  77.24   2
       373    169.1789    418.1794 307.8736725  +6.5013346      1992.65     3563.739     3530.757     84.47209     169.0114     338.0228      1.874     4.29      1021.97     59.58794     229.0391        21     1.332     1.041 -49.54   0
       374    102.7768    414.2484 307.9013926  +6.5007225     1214.844      1939.58     2213.572     84.33747     169.0786     337.9556      1.760     4.16     1024.886     59.58794     195.2416        12     1.097     0.965 -26.94   0
       375    952.8111    413.0097 307.5482609  +6.5297337     5068.747     7338.832     7494.798     84.47209     168.8769     338.0228      1.481     3.04     998.0288     59.58794      698.198        27     1.288     1.034 -52.38   0
       376    280.6447    409.2832 307.8276633  +6.5087563     11576.94     20341.99     21644.83     84.74068     169.0786     338.0565      1.890     4.01     1015.645     59.58794     1273.171        50     1.598     1.382 -63.22   0
       377   1008.2860    411.2477 307.5252698  +6.5323126     648.4896     671.0057     463.7538     84.74068     169.0114     338.0565      1.181     4.47     994.5772     59.58794     99.32196         7     1.057     0.538 -63.94   0
       378    116.0073    404.5286 307.8962248  +6.5051810     683.8976     1203.728     1438.857     84.20264     168.5402     337.9892      1.874     4.45     1024.009     59.58794     88.07971         6     0.985     0.571  71.29   0
       379    775.4146    403.3650 307.6222934  +6.5277885     682.1933      929.527     1448.968     84.33748     168.8096     337.8884      1.808     4.55     1006.193     59.58794     111.2441         7     1.406     0.418 -54.83   0
       380   1003.6705    401.2738 307.5275221  +6.5362769     996.0024     1575.277     1339.385     85.00843      169.213     338.0565      1.595     3.33     994.3246     59.58794     172.4812        10     0.964     0.772  54.53   0
       381    393.5718    398.6169 307.7811052  +6.5169538     1028.468     1665.082     1501.698     84.33748     168.8096     337.9556      1.837     5.09     1011.471     59.58794     137.2014        14     1.330     0.924 -89.25   0
       382    180.9413    397.8750 307.8694723  +6.5101136     4407.224     7672.632     7773.427     84.87466     169.0786     338.0228      1.847     3.98     1020.615     59.58794     505.6689        36     1.573     1.238 -53.57   0
       383    285.7268    397.0666 307.8259645  +6.5139711     1192.813     1990.331     2066.219     84.87466      169.213     338.0228      1.707     5.76     1014.827     59.58794     137.9515        15     1.321     0.836 -81.86   0
       384    226.8460    398.1524 307.8503911  +6.5115432     674.1754     1015.629     662.7852     84.74068     168.9442     338.0901      1.692     5.40     1017.792     59.58794     80.23688         7     1.019     0.809 -19.85   0
       385    478.2528    396.9882 307.7459766  +6.5204681     660.3187     1096.293     1249.879      84.0676     169.0114     337.7538      1.610     3.86     1009.544     59.58794     100.2513         5     0.835     0.511 -34.11   0
       386    203.1165    393.7138 307.8603999  +6.5125777     2178.692     3874.564     3947.144     84.47209     169.2801     338.1237      1.861     5.18     1019.084     59.58794      237.575        24     1.429     1.119 -77.99   0
       387    866.9747    393.9913 307.5845648  +6.5347196     703.6581     984.8721     1023.201     84.33747     168.8769     337.8884      1.607     4.78     1002.023     59.58794      90.0722         9     0.838     0.775  49.75   0
       388    598.2279    392.7389 307.6962714  +6.5262448     868.7528     1524.584     690.6588     84.33747     169.1458     337.9892      1.880     6.15     1009.306     59.58794     119.2321        13     1.446     0.814 -63.98   0
       389     19.5510    389.7341 307.9367990  +6.5080403     2166.077     3329.808     4150.012     84.60649     168.9442     338.0565      1.780     3.77     1025.064     59.58794     256.8337        20     1.231     1.015 -78.48   0
       390    426.6248    388.6869 307.7677073  +6.5221633     1705.908     3198.202     3636.346     84.87466     168.8769      337.922      2.056     4.82     1009.893     59.58794     207.1915        21     1.383     1.069 -43.67   0
       391   1014.6586    387.9718 307.5234025  +6.5421359     967.8203     1519.499     1309.798     84.33747     169.1458     337.9556      1.683     5.37     993.0502     59.58794     131.6152        11     1.338     0.634 -63.61   0
       392    315.2318    389.1581 307.8139730  +6.5182280     549.1335     949.7642     758.9283     84.20264     168.9442     337.8884      1.670     5.48     1013.246     59.58794     93.53711         6     1.318     0.643  -8.21   0
       393     27.8769    386.4830 307.9334500  +6.5096631     841.6129     1317.461     1304.043     84.87466     169.4143     338.1909      1.661     3.97     1024.893     59.58794     127.6641         8     0.872     0.691  49.76   0
       394    480.2937    382.0993 307.7456307  +6.5266840      6082.57     10881.42     11574.11     84.74068     169.6154      337.922      1.918     3.93      1008.35     59.58794     671.4868        42     1.580     1.317 -67.08   0
       395     76.6808    383.0169 307.9132913  +6.5127384     2823.336     5293.761     5539.966     84.33747     168.7423      337.922      2.010     4.53     1024.291     59.58794       364.65        32     1.620     1.207 -65.26   0
       396    812.7554    381.1023 307.6075264  +6.5382293     1796.377     2831.597     3323.412     84.74068     169.0114     338.2581      1.729     4.40     1003.861     59.58794     202.3897        20     1.366     1.003 -58.87   0
       397    820.9032    379.3917 307.6041984  +6.5392080     12215.63     18984.73     20051.08     84.47209     168.6749     337.8547      1.662     3.31     1003.417     59.58794     1570.482        47     1.533     1.183 -63.06   0
       398    384.4224    378.2130 307.7855951  +6.5250711     832.6439     1243.102     1218.021     84.47209     168.8769     337.9556      1.625     3.31     1010.076     59.58794     147.9678         9     1.044     0.606 -56.31   0
       399      1.7496    377.1214 307.9446218  +6.5126477     646.9952     954.5701     1159.771     79.19595     141.0914     261.5796      1.471     3.37     1024.992     59.58794     127.6709         7     0.913     0.680  87.96  24
       400    995.7800    370.6409 307.5318282  +6.5486619     621.5332     936.1454      1062.87     84.33747     168.8769     337.8211      1.376     3.53     993.2775     59.58794      122.098         5     0.869     0.550 -52.73   0
       401    229.2600    369.5887 307.8503535  +6.5234178     700.8127     1373.778      1476.25      84.0676     168.9442     337.7538      2.236     6.12     1016.287     59.58794     89.85736         9     1.185     0.887  50.65   0
       402     33.7977    368.7115 307.9315920  +6.5172000     963.7272     2458.023      4109.75      84.0676     168.6749     337.7874      4.004     8.50     1024.418     59.58794     124.8959        21     1.841     1.095 -21.25   0
       403    945.9762    369.4699 307.5525619  +6.5474831     572.9521     664.4055     885.4058     84.33747     168.9442     337.9892      1.312     4.11     995.9036     59.58794     87.47107         5     0.769     0.628 -86.30   0
       404    500.4962    366.3364 307.7377680  +6.5338700     1950.964     3471.823     3328.912     84.60649      169.213     338.0901      1.861     4.75     1007.058     59.58794     216.0316        23     1.503     1.048 -58.47   0
       405    528.4142    365.7299 307.7261886  +6.5350566     2494.837     4144.837     4514.909     84.20264     168.9442     337.9556      1.823     4.15     1006.986     59.58794     293.5978        22     1.399     0.988 -51.80   0
       406    957.0634    365.4919 307.5480885  +6.5494957      855.194     1214.235     1217.333     84.74068     169.2801     338.1237      1.571     4.28     995.0779     59.58794     129.7847        10     1.076     0.701 -50.77   0
       407    886.2385    362.2716 307.5776257  +6.5484602     31973.49     50242.59      53284.6     84.60649     169.0786     338.1237      1.703     3.47     999.2787     59.58794     4242.182        63     1.614     1.248 -72.18   0
       408    378.3255    357.5233 307.7888265  +6.5334088      701.771      1139.34     993.8901     85.00843     169.3472     338.1237      1.662     4.86     1008.772     59.58794     101.4308         6     0.956     0.698 -26.46   0
       409    104.1401    358.0119 307.9027292  +6.5239871     653.3864     873.3682     920.7036      84.0676     168.9442     337.7538      1.463     3.38     1022.937     59.58794     118.0593         6     0.865     0.749 -19.20   0
       410    657.9424    354.7257 307.6727397  +6.5439402     2373.778     3951.816     4378.011     84.74068     169.0786     338.0228      1.905     4.22     1006.603     59.58794     293.7664        22     1.277     1.137 -65.97   0
       411     66.1930    355.3247 307.9185861  +6.5238185     1080.887     2044.372     1933.266     84.33747     168.5402      337.922      1.873     5.36     1023.579     59.58794     149.4976        11     1.087     0.868 -15.56   0
       412    742.7054    348.2948 307.6377359  +6.5494326     72516.66     116988.3     124548.6     84.74068     169.7493     337.9556      1.765     3.51     1005.241     59.58794     8428.487        94     1.649     1.401 -63.11   0
       413    900.6530    349.5357 307.5720638  +6.5542003     1174.549     1871.195     1874.293     84.74068     169.0114     338.0228      1.704     5.27     997.6122     59.58794      147.515        12     1.289     0.754 -81.17   0
       414    122.1437    347.6429 307.8956000  +6.5288744     1278.571     2381.956     2596.311     84.60649     169.0114     338.0901      2.071     6.33     1021.956     59.58794     145.8318        18     1.531     0.957 -50.42   0
       415    605.1321    344.9979 307.6950104  +6.5461879     2363.132     4295.454     5044.122      84.0676     168.6076     337.8547      2.048     4.77     1005.219     59.58794      297.209        25     1.512     1.146 -65.60   0
       416    983.9078    345.7252 307.5375972  +6.5585534     762.9286     1087.561     842.2114     84.74068      169.213     338.0228      1.374     4.40     992.7869     59.58794     115.6182         8     1.107     0.497  56.97   0
       417    142.4616    343.8628 307.8872863  +6.5311190     5215.104     9420.063     10056.52     84.74068     169.0786     338.0901      1.927     4.08     1021.052     59.58794     617.6597        40     1.626     1.317 -72.47   0
       418    588.4393    341.2747 307.7020718  +6.5471659     6222.186     10622.21     10989.36     84.60649     169.0786     338.0901      1.849     3.97     1004.735     59.58794     683.1207        37     1.486     1.279 -65.22   0
       419    451.3779    336.3836 307.7591866  +6.5445893     21573.24     37941.53     40563.91     84.33748     168.8769     337.9892      1.879     3.94     1005.018     59.58794     2357.745        62     1.671     1.403 -62.25   0
       420    317.3739    338.8678 307.8147813  +6.5390639     2141.346     3808.743     3770.009     84.33747     168.9442     337.9556      1.890     4.51     1010.564     59.58794     257.7087        23     1.314     1.199 -38.54   0
       421    559.1368    335.5049 307.7144416  +6.5485661     1055.937     1833.745      1898.58     84.60649      169.213     338.0901      1.854     6.14     1004.122     59.58794     126.6302        12     1.340     0.791 -70.95   0
       422    431.3796    334.6381 307.7675549  +6.5446389     1066.851     1874.384     3120.353     84.33747     168.8096     337.7874      2.727     7.20     1005.434     59.58794      125.123        18     1.492     1.009 -70.49   0
       423    846.1002    328.6003 307.5954350  +6.5610218     807.0104     1404.304     1787.335     84.20264     168.6749     337.6192      1.800     5.93     999.5441     59.58794      132.641        11     1.444     0.761  68.88   0
       424    540.4087    326.8405 307.7225153  +6.5515157     7247.108     12805.31     13781.94      84.0676     168.8769     337.7538      1.895     4.05     1003.143     59.58794     817.7114        41     1.578     1.289 -61.89   0
       425    530.7036    332.1478 307.7263690  +6.5489990     908.6279     1804.648     1792.006     84.60649     169.0786     338.3252      2.038     6.81     1003.706     59.58794     110.2366        13     1.450     0.898 -71.28   0
       426    809.5507    325.4049 307.6107297  +6.5611194     3000.973     4502.194     5183.416      84.0676     168.8769     337.6865      1.732     3.82     1001.053     59.58794     395.0754        23     1.328     1.044 -72.22   0
       427    757.1069    325.3663 307.6325228  +6.5593814     765.4614     963.2973     522.1129     84.87466     168.9442     338.1237      1.520     5.15     1002.797     59.58794     110.9844         7     0.979     0.765 -52.00   0
       428    964.9092    325.0085 307.5461868  +6.5664732     941.3407      1138.54     1359.857     84.33747     168.7423     337.8211      1.449     4.58     992.9404     59.58794     126.4553         8     0.903     0.661 -46.82   0
       429    367.7439    323.2310 307.7943806  +6.5472121     753.6564     1059.084     709.0976     84.60649     169.1458     337.9556      1.455     3.43      1007.47     59.58794     110.2089         6     0.884     0.606  18.96   0
       430    202.4585    317.4054 307.8632531  +6.5440617     905.5837     1535.982     763.5454     84.20264     168.9442     337.7874      1.784     6.61     1016.512     59.58794     115.0161        12     1.459     0.975  72.50   0
       431    430.4258    310.9742 307.7687494  +6.5543773     6013.779     10607.43     11077.43     84.20264     168.8769     337.9892      1.912     4.00     1003.814     59.58794      716.052        43     1.644     1.367 -57.00   0
       432    286.5153    311.5588 307.8285254  +6.5493022     1727.387     2962.803       2922.4     84.74068     169.0114     338.0228      1.853     4.72     1010.688     59.58794     212.6876        21     1.366     1.055 -64.58   0
       433    784.1177    310.7569 307.6217902  +6.5663170     957.3653     1581.162     1801.118     84.74068     169.0786     338.0228      1.665     4.49     1001.037     59.58794     123.5349         8     1.093     0.524 -54.09   0
       434    798.1787    306.8019 307.6160804  +6.5684202     49806.83     79251.42     83699.06     84.33747     168.7423     337.7538      1.693     3.48      1000.47     59.58794     6548.753        75     1.581     1.332 -69.67   0
       435    469.4797    306.3020 307.7526796  +6.5576169     1981.969     3533.059     3728.781     84.60649     169.4814     338.0901      1.943     5.30     1001.644     59.58794      231.386        23     1.472     1.148 -86.56   0
       436    616.1923    303.9896 307.6917956  +6.5634904     1148.529     1713.246     1471.507     84.20264     168.8769     337.9556      1.738     4.23     1000.751     59.58794     166.5706        14     1.234     0.792  66.74   0
       437    973.8777    303.1620 307.5431931  +6.5757929     2330.724     3359.209     3850.295     84.60649     169.1458     338.0565      1.478     3.49     991.8412     59.58794     312.4812        13     1.090     0.760 -66.54   0
       438    507.1693    302.8218 307.7371363  +6.5603181     933.7292     1382.064     2017.911     84.20264     168.8769     337.8884      1.586     5.51      1000.68     59.58794     101.5518        11     0.948     0.903  50.14   0
       439    456.4061    301.8506 307.7582621  +6.5590162     1776.061     3278.063     3009.239     84.20264     168.8096     337.6865      1.923     4.61       1001.9     59.58794     254.7132        23     1.427     1.185 -83.59   0
       440    876.7444    297.3855 307.5837499  +6.5749343     2283.745     3106.321     2995.085      84.0676     169.0114     337.7538      1.240     0.16     995.7596     59.58794     1393.259        12     1.188     0.640 -40.18   0
       441    232.9500    293.2936 307.8513991  +6.5550425     2056.819     3887.848      4185.66     84.60649     168.9442     338.2245      2.042     4.98      1013.94     59.58794     221.9222        28     1.502     1.269 -52.61   0
       442    487.1055    293.5258 307.7457866  +6.5634833     934.1685     1320.341     2149.417     84.47209     169.2801     338.0565      1.586     3.50      999.779     59.58794      142.894         8     0.904     0.623  50.54   0
       443    796.6619    291.3812 307.6172290  +6.5747366     5562.663      8799.14     9449.319     84.33747     169.0114      337.922      1.716     3.39     999.4911     59.58794     657.2061        33     1.385     1.151 -61.83   0
       444    128.9848    291.3733 307.8946615  +6.5523369     922.2545      1600.78     1281.793     84.33747     168.8769     337.9892      1.828     5.02      1019.93     59.58794     151.7842        11     1.271     0.675 -72.86   0
       445    268.8179    291.5854 307.8365536  +6.5569539     637.3683     1059.992     1368.917     84.47209     168.7423     337.9556      1.705     2.59     1011.111     59.58794     98.90381         5     0.713     0.455  20.12   0
       446    812.9707    289.2299 307.6105244  +6.5761702     2526.055     3850.187     4697.689     84.20264     168.8096     337.7874      1.629     3.88     998.6694     59.58794     298.5411        19     1.252     0.951 -44.96   0
       447    116.1296    285.1445 307.9002136  +6.5544758     1040.915     1975.595     2018.714     84.74068     169.0114     338.0228      1.938     6.93     1020.401     59.58794     126.5419        14     1.265     1.064 -70.89   0
       448    402.6011    283.9570 307.7812226  +6.5645982     1492.055     3106.347     3712.918     84.06759     168.7423     337.6529      2.317     5.89     1003.607     59.58794     179.1928        24     1.663     1.061  -6.85   0
       449    529.1274    280.0265 307.7287806  +6.5704664     1703.601     2908.171     2921.486     84.33747     168.9442     337.9556      1.868     4.30     998.4932     59.58794     188.5357        21     1.225     1.132 -78.35   0
       450    291.7839    275.8454 307.8275427  +6.5642246     4680.248     8732.858     10004.07     84.20264     168.9442     337.8211      2.062     4.44     1009.246     59.58794     529.1072        37     1.575     1.293 -69.88   0
       451     22.2564    268.5728 307.9397786  +6.5581554     57368.88     99920.78     107167.1     84.33747     169.1458      337.922      1.883     3.78      1023.58     59.58794     6870.521        88     1.731     1.447 -67.05   0
       452    811.3485    269.0775 307.6118758  +6.5844368     799.8222     1141.406     1148.563     84.74068     169.1458     338.0565      1.513     4.55     997.2375     59.58794     123.2192         7     0.973     0.604 -38.89   0
       453    425.8261    266.6686 307.7721555  +6.5725160     1350.641     2623.162     2059.628     84.33747     168.9442     337.9556      1.943     5.95     1001.199     59.58794      152.502        22     1.410     1.142 -82.44   0
       454   1012.7145    265.7214 307.5283106  +6.5925481     1047.159     1590.116     1576.283     84.74068     169.4143     338.1573      1.563     3.15     988.3325     59.58794     182.3359         7     0.838     0.585 -56.10   0
       455    195.7675    262.2361 307.8678987  +6.5666147     1484.422     2741.026      2914.18     84.33747     168.8096     337.7874      1.913     5.32     1015.208     59.58794     182.9053        21     1.323     1.198 -61.24   0
       456    348.5879    262.4987 307.8043905  +6.5716440     1024.412     1480.071     1133.404     84.47209     168.8096     337.7874      1.533     5.02     1005.514     59.58794     159.1924        11     1.014     0.890 -64.48   0
       457    605.3305    258.1766 307.6978518  +6.5820421     1811.877     3193.435     3581.798     84.33747     168.9442     338.0228      1.933     3.93     996.9306     59.58794     241.3885        21     1.243     1.115 -84.23   0
       458    949.1667    257.2159 307.5550037  +6.5939390     1587.821     2615.446     3016.355     84.33747     168.8096      337.922      1.786     4.59     990.6996     59.58794     203.3357        17     1.314     1.017 -19.30   0
       459    769.0220    255.5764 307.6299184  +6.5885958     4616.402     7588.862     7793.543     84.33747     168.8769     338.0228      1.702     3.50     996.9683     59.58794     605.9712        34     1.394     1.299 -58.54   0
       460    709.7981    255.5950 307.6545280  +6.5866065     1968.796     3239.205     3428.042      84.0676     168.6749     337.8211      1.814     4.23     997.1335     59.58794      251.562        20     1.301     1.041 -58.77   0
       461   1007.0858    255.4175 307.5309953  +6.5966148     868.5545     1302.179     1260.495     84.33747     168.8096     337.9892      1.750     3.33     987.6537     59.58794     157.9668         8     0.977     0.589 -43.09   0
       462    965.0851    247.6543 307.5487096  +6.5984184     1096.213     1550.601      1457.07     84.74068     169.0786     338.2245      1.408     4.64     989.4301     59.58794     140.3282        10     0.975     0.774 -47.98   0
       463    268.6301    240.8664 307.8383454  +6.5778883     1972.293      3494.33     3452.058     84.47209     169.0786     337.9892      1.866     4.73     1010.563     59.58794     244.5604        25     1.452     1.180 -68.09   0
       464    911.2369    239.7635 307.5713516  +6.5998784     1646.314      2331.02     1983.974     84.47209     168.9442     337.8211      1.511     3.74     991.7957     59.58794     216.7645        16     1.194     0.893 -71.68   0
       465    801.7031    239.3161 307.6168843  +6.5964025     1496.702     2313.242     2184.797     84.74068     169.4814     338.1237      1.741     3.90     995.2307     59.58794     208.1742        15     1.102     0.940  79.64   0
       466    502.5359    230.7458 307.7414915  +6.5899219     19281.92     33644.99     36394.71     84.74068     169.0114     338.0228      1.903     3.97     995.1436     59.58794     2259.167        64     1.737     1.401 -53.67   2
       467    508.4864    225.5337 307.7391945  +6.5922735     1308.674     2107.884     2299.102     84.74068     169.2801     338.1237      1.779     4.29     994.7859     59.58794     185.0176        14     1.191     0.954 -56.47   3
       468    363.3922    232.4647 307.7992529  +6.5845417     684.5822     847.9279      766.926     84.20264     168.8096      337.922      1.598     4.77     1002.897     59.58794     105.9894         7     1.121     0.575 -44.96   0
       469    828.4453    229.8457 307.6060897  +6.6012069     12708.04     20204.43     21770.34     84.74068     169.0786     338.0228      1.736     3.40      993.725     59.58794     1698.425        50     1.550     1.331 -43.17   0
       470    190.7000    224.3213 307.8712865  +6.5820982     1848.413     3344.409     3625.114     84.47209     169.3472     338.0901      1.884     4.62     1014.137     59.58794     218.2906        21     1.403     1.015 -58.80   0
       471    165.7933    223.2542 307.8816719  +6.5817006     997.4208     1511.658       1530.9     84.20264     168.8096     337.7538      1.584     3.70     1015.218     59.58794     148.2812        10     1.049     0.668 -73.69   0
       472    765.9766    226.3115 307.6321680  +6.6005772     558.0062     1073.176     977.9452     84.74068     168.8769      337.922      1.909     4.19     994.4999     59.58794     82.75537         5     0.827     0.606 -87.07   0
       473    964.9294    220.0548 307.5497006  +6.6098090     1417.942      2016.34     1577.575     84.60649     169.0114     338.0228      1.490     3.38     987.9691     59.58794     177.5264        11     0.975     0.729  88.66   0
       474     28.6490    217.4896 307.9388528  +6.5794615     4226.578     7315.538     7540.269     84.74068     168.8769     338.2245      1.868     4.20     1023.173     59.58794     529.0939        33     1.578     1.185 -68.93   0
       475    626.6062    216.5303 307.6904133  +6.5999502     4128.878     6865.374     7150.109     84.20264     168.6749     337.8884      1.800     3.78     994.2197     59.58794     477.2488        29     1.403     1.165 -45.11   0
       476    589.1793    216.6025 307.7059637  +6.5986664     1804.204     3234.915     3703.531     84.33747     168.7423     337.7874      1.928     4.75     994.1447     59.58794     211.7462        21     1.416     1.035 -57.62   0
       477    347.3899    217.0462 307.8064230  +6.5903702     893.0089     1515.946     1425.497     84.20264     168.9442     337.7202      1.867     3.63     1003.511     59.58794     132.1901         9     0.944     0.745 -74.47   0
       478    431.2292    215.3017 307.7716434  +6.5939059     1272.687     2225.589     1552.803     84.87466     168.8096     338.0565      1.844     4.63     997.6583     59.58794      189.666        18     1.341     1.021  70.81   0
       479    987.4626    213.6234 307.5405522  +6.6132166     2597.289     3745.031     4268.493     84.33748     169.0786     337.9556      1.562     3.37     986.3272     59.58794     430.1268        19     1.230     0.874 -69.87   0
       480    933.5482    212.9926 307.5629787  +6.6116771     11031.18      16483.5     16509.35     84.20264     168.8769     337.6529      1.561     3.11     989.4921     59.58794       1528.7        38     1.369     1.145 -73.10   0
       481    361.3430    214.0051 307.8007277  +6.5920945     710.5083     1368.517     1481.181     84.06759     168.9442     337.7538      2.253     6.67     1002.292     59.58794     94.74438         8     1.219     1.024 -74.82   0
       482    608.4460    213.1786 307.6980727  +6.6007257     870.6356      1229.84     1101.049     84.33747     169.0786     337.8884      1.680     4.08     993.8649     59.58794      124.757         7     0.974     0.489 -84.04   0
       483   1020.2041    210.8562 307.5270386  +6.6154517     9928.191      14401.9     14992.64     84.06759     168.8769     306.7246      1.526     2.99     984.3483     59.58794     1540.427        37     1.380     1.090 -70.32  16
       484     59.9130    209.6373 307.9261281  +6.5837570     21807.08     38533.59      41872.9     84.74068     169.0114     338.0565      1.911     3.88     1020.944     59.58794     2632.691        68     1.739     1.427 -72.40   0
       485    731.8061    210.8140 307.6468891  +6.6058327     2622.033      4356.52     4701.325     84.33747     168.8096     337.8884      1.766     3.75     993.9326     59.58794     328.2214        23     1.230     1.178  78.26   0
       486    306.1168    210.7261 307.8237869  +6.5915928     896.5242     1527.193     647.7987     84.87466     169.4143     338.1237      1.720     4.95     1007.624     59.58794     120.2296        10     1.214     0.648 -76.79   0
       487    540.3001    205.7381 307.7266417  +6.6015137     1570.668     2807.335     2513.931     84.47209     169.0786     338.1573      1.838     4.68      993.582     59.58794     188.4955        21     1.387     1.063 -61.46   0
       488    872.0795    202.4944 307.5888759  +6.6139585     2027.071     2867.729      3013.62     84.47209     169.3472     338.1237      1.536     3.53     990.7311     59.58794     264.1925        17     1.165     0.920 -60.61   0
       489    552.3636    201.5750 307.7217690  +6.6036370      2026.33     3630.859      3682.88     84.33748     168.8769     337.7874      1.930     5.99     993.2801     59.58794     257.9394        22     1.661     0.987 -56.16   0
       490    924.4451    201.4299 307.5671499  +6.6161473     1909.566     3172.297     3183.349     84.33748     169.0786      337.922      1.818     3.93     988.8791     59.58794     258.9645        21     1.252     1.103 -76.50   0
       491    783.7615    198.9955 307.6256957  +6.6124506     36816.87     59030.74     62060.22     83.79684     168.8096     337.7874      1.686     3.36     993.0262     59.58794     4656.836        61     1.530     1.288 -68.32   0
       492    386.7993    198.3706 307.7906773  +6.5994047     5080.684     11199.96     13321.64      84.0676     168.8769     337.8547      2.341     5.88     999.7608     59.58794     539.8027        54     2.158     1.378 -76.78   0
       493   1017.5667    197.8013 307.5285726  +6.6207540      2887.17     4440.085     4622.474     83.93233     168.8769     332.9426      1.588     3.31     984.6261     59.58794     398.2443        21     1.262     0.985 -58.97  16
       494    951.7053    196.1272 307.5559993  +6.6192471     7441.373     10999.19      11552.5     84.60649     169.1458     338.0565      1.571     3.05     987.3234     59.58794      1034.19        32     1.347     1.056 -63.99   0
       495    495.1609    195.2883 307.7457517  +6.6043144     4192.252     7442.111     7617.401     84.74068     169.0114     338.0901      1.876     4.04     993.6025     59.58794     442.8418        33     1.465     1.228 -61.26   0
       496    152.6030    186.6530 307.8883910  +6.5963682     4009.621     7237.589     8098.151      84.0676     168.8769     337.6192      1.920     4.19     1015.213     59.58794     461.0504        33     1.485     1.258 -53.56   0
       497    322.8584    183.2266 307.8177590  +6.6035093     27689.85     50618.77     54215.67     84.33747     169.1458     337.8547      1.955     4.13     1005.515     59.58794     2934.366        75     1.754     1.479 -62.90   0
       498    298.2958    184.3303 307.8279286  +6.6022281     5220.935     9448.884     10493.66     84.60649     169.1458     338.0565      1.960     3.99      1008.33     59.58794     605.3211        41     1.638     1.312 -60.98   0
       499    972.2817    185.6474 307.5477999  +6.6242610     800.6648     1155.491     1557.667     84.74068     169.0786     338.0901      1.454     3.78     986.1061     59.58794     136.4166         6     0.912     0.449 -87.97   0
       500    752.0907    182.9798 307.6393958  +6.6180039     946.5613     1477.735     1705.154     84.60649     168.8096      337.922      1.769     6.75     992.3516     59.58794     106.3018        13     1.443     0.886 -77.05   0
       501    446.9579    178.6863 307.7663426  +6.6095517     41811.32     74786.79     80482.45     84.74068     168.9442     338.0565      1.925     3.96     994.7454     59.58794     4699.142        80     1.729     1.466 -66.66   0
       502    202.8900    180.0494 307.8677183  +6.6007871     3300.585     5827.087     5540.664     84.74068     168.8769     338.2245      1.865     4.05     1013.036     59.58794     363.9354        29     1.434     1.191 -75.35   0
       503    464.2421    179.1660 307.7591439  +6.6099336     1186.282     2284.709     1762.262     84.47209     169.0786     337.8884      1.959     5.93     994.0192     59.58794     159.7402        16     1.297     0.977 -76.11   0
       504    350.9726    176.3845 307.8063073  +6.6072789     14827.27     26994.21     29511.18     84.33747     168.8769     337.9556      1.936     4.08     1002.216     59.58794     1600.892        57     1.659     1.438 -60.46   2
       505    358.5631    176.0374 307.8031648  +6.6076772     1840.493     3639.038     4548.451     84.47209     168.9442     337.8884      2.199     5.70     1001.408     59.58794     232.1146        24     1.602     1.068 -76.51   2
       506    786.1960    174.8955 307.6254943  +6.6224827     30538.92      48833.1     51724.23     84.47209     168.7423     337.7874      1.710     3.44     991.8754     59.58794     3915.941        68     1.590     1.333 -69.43   0
       507    734.1880    176.5647 307.6470514  +6.6200536     925.6893     1420.101     1762.373     84.20264     168.8769     337.8547      1.596     3.83      992.136     59.58794        135.3         8     0.831     0.778  61.26   0
       508    834.3051    175.3876 307.6054848  +6.6238882      1097.36     1816.849     2051.893     84.47209     168.8096     337.8884      2.188     4.00     990.5648     59.58794     164.8333        11     1.052     0.769 -66.77   0
       509    103.0335    172.2873 307.9094749  +6.6006303     7775.828     13729.25      14587.6     84.74068     168.9442     338.0565      1.893     3.93     1016.699     59.58794     868.7511        44     1.638     1.276 -65.81   0
       510    136.8722    170.7662 307.8954653  +6.6023979      1218.06     2237.894     2882.873     84.60649     169.0114     338.0228      2.115     4.71     1015.485     59.58794     152.6792        19     1.281     1.084 -57.88   0
       511    770.7616    163.1520 307.6323034  +6.6268152     544.9923     686.6423     513.2435     84.60649     169.1458     337.8884      1.265     3.89     991.3087     59.58794     100.2748         5     0.938     0.463 -42.73   0
       512     36.6634    156.9860 307.9375721  +6.6047116     815.9647     1502.373     1243.952     84.20264     168.8769     337.8884      1.898     5.39     1022.252     59.58794     123.2166         9     1.359     0.604 -77.10   0
       513    628.8057    153.1636 307.6916333  +6.6261872     788.3002     1701.806     2053.865     83.79684     168.8096     337.8547      2.442     6.49     990.9323     59.58794      123.974        12     1.589     0.744 -74.59   0
       514    636.7548    151.4158 307.6883887  +6.6271751     1716.257     2907.097     3351.557     84.20264     168.9442     337.8211      1.796     4.06     991.1174     59.58794     196.5634        23     1.236     1.195  76.10   0
       515    321.7856    149.4834 307.8193446  +6.6174051     25718.03     46608.06     50689.36     84.33747     168.8096     337.8884      1.950     4.14     1005.428     59.58794     2889.836        74     1.722     1.493 -65.88   0
       516    381.5913    151.6276 307.7944194  +6.6185290     860.3594     1156.667     628.4702     84.33748     168.8769     337.8884      1.639     6.23     998.4505     59.58794      102.548        11     1.117     0.977  48.51   0
       517     67.0591    148.0690 307.9252436  +6.6094174     3925.172     6551.395     7113.546     84.87466     169.0114     338.0565      1.796     3.81     1018.901     59.58794     459.5978        32     1.448     1.220 -82.79   0
       518    230.8896    147.6552 307.8571787  +6.6151038     675.5441     1411.714     1175.692     84.74068     168.9442     338.1909      2.007     6.47     1011.484     59.58794      107.468        10     1.675     0.701  63.30   0
       519    753.4734    146.0394 307.6400636  +6.6333025      7368.54     11674.92     12714.18     84.60649     169.0786     338.1237      1.724     3.71     990.0577     59.58794      847.103        39     1.475     1.205 -61.04   0
       520    164.1451    143.3726 307.8850591  +6.6146260      3990.45     7288.556     7432.091     84.33747     169.1458     337.8884      1.905     4.15     1013.781     59.58794     457.3483        33     1.496     1.269 -52.81   0
       521    307.3802    144.6045 307.8254957  +6.6189353     700.6583     1204.994     1422.711     84.33748     168.7423     337.8547      1.805     4.14     1007.291     59.58794      84.3963         5     1.006     0.485 -88.87   0
       522    626.3185    141.5968 307.6930564  +6.6308797     754.3541     1367.346     1840.736      84.0676     168.6749     337.7538      2.070     6.01     990.4091     59.58794     99.97412         8     1.432     0.710 -18.51   0
       523    503.0206    140.4468 307.7443348  +6.6272212     1192.367     1877.688     1629.275     84.33747     169.0786     337.8884      1.738     4.96     991.4182     59.58794     156.9797        15     1.168     0.961 -33.50   0
       524    434.7842    139.2368 307.7727326  +6.6254310     3240.633     6424.687     6748.982     84.33747     168.8769     337.7874      2.033     4.91     993.6412     59.58794     345.8047        36     1.546     1.412 -87.32   0
       525    691.8317    140.2551 307.6658756  +6.6336277     782.0405     1229.188     501.2491     84.60649     169.1458     338.0228      1.596     4.29     990.9619     59.58794     114.5228         7     0.876     0.599  35.29   0
       526    399.2874    138.1170 307.7875217  +6.6247016     2738.664     4868.493     4311.667     84.47209     169.2801     338.0901      1.842     4.15     996.3813     59.58794     333.5969        29     1.441     1.246 -65.23   0
       527    611.0457    138.7028 307.6995010  +6.6315629     662.8494     1107.995     1664.449     84.74068     168.9442     338.2245      1.911     4.08     989.9363     59.58794     107.4654         5     0.813     0.584 -84.21   0
       528    153.9751    138.1560 307.8894617  +6.6164375     1486.556     2632.567     2463.403     84.20264     169.1458      337.922      1.912     4.51     1013.944     59.58794     181.6603        17     1.213     0.974 -53.15   0
       529    714.5956    135.5160 307.6565747  +6.6363465     656.8695     1252.974     1177.113     84.20264     168.6749     337.7538      1.852     5.60     990.0284     59.58794     99.16394         7     1.081     0.818  54.64   0
       530    251.1555    127.0341 307.8494542  +6.6242994     4484.527     8232.863     8701.872     84.33747     169.0114      337.922      1.926     4.17     1010.701     59.58794     543.7051        37     1.527     1.314 -77.58   0
       531    134.0752    126.9351 307.8981108  +6.6204003     1883.832     3217.578     3291.135     84.87466     169.0786     338.0228      1.785     4.24      1014.23     59.58794     253.7422        21     1.360     1.033 -67.33   0
       532    712.9570    125.8180 307.6575821  +6.6402958     5508.644     9064.514     9349.919     84.20264     168.9442     337.8211      1.720     3.51     989.3561     59.58794     736.2283        37     1.403     1.287 -63.83   0
       533    860.9387    126.1728 307.5960700  +6.6450988      963.402      1660.74     1817.273     84.33747     169.1458     337.9556      1.725     3.37     986.0731     59.58794     166.2698         6     0.869     0.526  88.73   0
       534    890.2286    126.4334 307.5838885  +6.6459699     658.7615     1030.145     2164.312     84.20264     168.8096     337.8211      1.919     4.28      985.197     59.58794      91.4187         5     0.925     0.565 -50.50   0
       535    665.2079    123.0703 307.6775185  +6.6398316      8433.85     14183.18      15358.1     84.20264     168.6749     337.9556      1.791     3.68     990.1323     59.58794      995.176        38     1.506     1.221 -68.89   3
       536    668.6768    114.6286 307.6763611  +6.6434333     48427.66     79961.39      85089.2     84.60649     169.1458     338.0565      1.802     3.63      989.606     59.58794     5773.186        76     1.656     1.367 -68.41   3
       537    299.9554    123.7428 307.8292860  +6.6272991     700.8252     1197.171     1043.092     84.74068     169.0786     338.0901      1.823     5.41      1008.36     59.58794     122.6484         8     1.629     0.507 -66.94   0
       538     64.1385    122.1951 307.9273334  +6.6200015     863.9147     1789.787     2247.922     84.20264     168.8096     337.8211      2.477     7.43     1017.925     59.58794     140.0677        14     1.681     0.920 -84.14   0
       539    392.2242    119.0170 307.7911017  +6.6323504     3063.806     5889.904     6444.057     84.47209     168.9442     337.9892      2.034     4.82     996.9609     59.58794     361.7085        35     1.706     1.202 -56.40   0
       540    574.3046    118.0913 307.7154643  +6.6388417     1527.443     2518.325     2147.216     84.74068     169.6154     338.0228      1.688     4.33     989.7712     59.58794     184.7098        17     1.175     1.050 -66.72   0
       541    347.9082    108.4597 307.8098746  +6.6352206     3053.104     5456.864     5505.685     84.60649     169.0114     338.2245      1.869     4.35     1002.299     59.58794     323.8514        29     1.502     1.148 -58.79   0
       542    747.4305    103.3603 307.6440107  +6.6507220     811.9658     1312.079     1321.624     84.20264     168.8769     337.8884      1.791     3.71     986.8666     59.58794     128.8791         8     0.834     0.789 -51.15   0
       543     45.3099     91.4072 307.9362004  +6.6320783     741493.1      1795181      1993012     84.33747     168.7423     337.8211      2.347     5.02     1017.504     59.58794     61295.66       401     2.219     1.889 -67.77   4
       544    718.8707    102.0960 307.6559226  +6.6502883     1190.119     1893.912     2001.092     84.60649      169.213     338.0565      1.939     4.87      987.452     59.58794     172.2623        12     1.151     0.755  87.46   0
       545    733.0632     98.7376 307.6501372  +6.6521499     2973.234     4800.584      5287.37     84.74068     169.0786     338.0901      1.716     3.50     986.8699     59.58794     378.0712        25     1.424     1.020 -71.46   0
       546     10.3011     92.1953 307.9507218  +6.6305728     1423.159     2614.114     4260.884     84.47209     168.7423     337.6865      2.640     4.48     1019.777     59.58794     185.2748        19     1.341     1.036 -51.37   0
       547    474.8567     89.5800 307.7577547  +6.6472782     3470.238      6045.22     6685.146     84.33747     169.0786     337.8547      1.866     4.06     990.5295     59.58794     378.6563        30     1.470     1.159 -76.93   0
       548     20.1023     91.4808 307.9466731  +6.6311982     456.6595     1107.859     2085.671     84.60649     169.4143     338.1237      2.254     3.51     1019.047     59.58794     96.13696         5     1.302     0.272  54.42   0
       549    947.3206     84.9301 307.5615546  +6.6650132      4138.05     6030.456       6054.6     85.00842     169.3472     338.0228      1.518     3.09     981.7914     59.58794     590.4397        25     1.229     1.017 -60.37   0
       550    929.3839     85.9149 307.5689762  +6.6640076      2166.91       2912.3     1950.967     84.33747     168.8096     337.9556      1.447     2.95     982.6949     59.58794     315.3979        16     1.061     0.885  88.19   0
       551    639.0040     83.5843 307.6897382  +6.6552572     1474.984     2505.932     1756.073     84.33747     168.6749     337.8884      1.744     4.30     988.0985     59.58794     209.2943        18     1.289     0.973 -85.98   0
       552    286.0394     83.1891 307.8364395  +6.6435748     708.0101     1100.137     1463.111      84.0676     168.8769     337.7874      2.136     5.73     1010.204     59.58794     97.26855         7     1.305     0.708 -66.33   0
       553    438.4137     81.6440 307.7731676  +6.6493317     1830.196     2857.863      3028.35      84.0676     168.8769     337.7874      1.773     4.17      992.445     59.58794     219.4232        18     1.247     0.985 -59.00   0
       554    186.1091     78.3553 307.8781313  +6.6422091     2747.096     5042.465     5548.384     84.74068     169.0114     338.1909      2.039     4.38      1011.49     59.58794     367.3414        31     1.482     1.326 -75.49   0
       555     68.0416     76.1795 307.9272699  +6.6391313     10880.14     19149.11     21782.74     84.33747     168.8769     337.8884      1.917     3.79     1015.176     59.58794     1267.966        50     1.632     1.344 -73.68   0
       556    334.5770     77.0500 307.8164757  +6.6477410      1076.39     1630.339     1544.574     84.33747     169.1458     337.9556      1.825     5.64     1004.122     59.58794     128.8774        11     1.000     0.895  44.70   0
       557    988.9570     75.3691 307.5445708  +6.6703509     600.1309     723.1493     757.6588     84.33747     169.0114     337.8884      1.248     2.86     978.9593     59.58794     120.8374         5     0.757     0.582 -83.33   0
       558    869.7797     70.7416 307.5942582  +6.6682813     6068.583     9156.693     9751.811     84.33747     168.9442     337.8547      1.617     3.22     982.8923     59.58794     832.5264        32     1.310     1.170 -75.74   0
       559    814.7693     71.1433 307.6171078  +6.6662765     3093.827     4790.537     4739.291     84.60649     169.1458      337.922      1.619     3.38     983.8798     59.58794     379.7825        23     1.171     1.098 -51.88   0
       560    460.1826     71.4702 307.7644640  +6.6542629     854.9196     1436.615     1918.322     84.20264     168.9442     337.9556      1.923     4.19      991.306     59.58794     126.1935         9     1.112     0.729  55.85   0
       561    577.2819     69.5080 307.7158641  +6.6590007     1096.261     1717.397      2457.04     84.47209     169.3472     338.1237      1.772     4.15     988.1024     59.58794     147.7657        13     1.112     0.851 -86.98   0
       562    108.4240     68.0408 307.9107639  +6.6438520     2758.202     4832.201     5204.978     84.33747     168.8769     337.8211      1.857     4.19     1013.199     59.58794      412.173        28     1.563     1.117 -70.75   0
       563    469.8937     67.7223 307.7605546  +6.6561363     756.3827     1207.167     1428.457     84.47209     169.2801     338.1237      1.714     5.92     990.7883     59.58794     94.63843        11     1.054     0.935 -57.33   0
       564     50.9163     63.5277 307.9348151  +6.6437777     2184.554     3938.446     5232.815     84.87466     169.4143     338.0901      2.301     4.75     1015.078     59.58794     285.0471        25     1.557     1.073 -69.58   0
       565    632.0910     64.8515 307.6932422  +6.6627601     1191.071     1854.528      2346.26     84.60649     168.8769     338.2245      1.666     5.56     987.4515     59.58794     178.9062        12     1.050     0.831 -58.87   0
       566    809.3289     58.5751 307.6197915  +6.6712838     1961.409     2934.229     2880.814     84.33748     168.9442     337.9892      1.677     3.87     983.4672     59.58794      255.919        18     1.157     1.051 -73.90   0
       567    124.0255     59.6324 307.9045651  +6.6478490     701.2826     1042.728     1018.137     84.20264     168.8769     337.8884      1.311     4.69     1012.511     59.58794      130.016         7     1.333     0.468 -50.18   0
       568    450.3808     58.8609 307.7689630  +6.6591401     860.7933      1530.73     1260.376     84.33747     169.0114      337.922      1.574     4.98     991.8237     59.58794     132.9624         8     1.324     0.530 -25.10   0
       569    147.4552     57.6637 307.8948949  +6.6494508     694.3887     1266.942      1693.52     84.87466     169.0114     338.0565      2.333     4.81     1011.841     59.58794     92.37238         7     1.056     0.620 -69.35   0
       570    136.1299     52.3586 307.8997810  +6.6512598     8107.196     14324.47     15212.33     84.60649     169.0786     338.1237      1.888     4.04     1011.974     59.58794     958.5573        43     1.619     1.291 -71.26   0
       571    465.1237     52.1634 307.7630619  +6.6624002     2161.583     4050.682     3837.561     84.60649     169.1458     338.0901      1.967     4.71     991.0472     59.58794     251.8263        27     1.527     1.150 -54.98   0
       572    302.6449     46.6376 307.8307737  +6.6592242     1284.835     2369.199     2842.224     84.47209     169.0786     337.9556      1.919     5.09     1008.541     59.58794     151.1387        17     1.194     1.140 -55.44   0
       573    678.8103     44.3809 307.6745145  +6.6727769     16735.43     27544.63     29177.86     84.33747     168.7423      337.922      1.759     3.53     986.1425     59.58794     2006.973        53     1.542     1.333 -66.77   0
       574    296.8642     40.8682 307.8333711  +6.6614119     1756.421     3122.253     3991.094     84.74068     169.0786     338.0901      2.100     4.94     1009.378     59.58794     194.5557        24     1.515     1.120 -58.01   1
       575    578.6079     40.2771 307.7162981  +6.6711141     4461.023      7623.02      8367.22     84.33747     168.5402     337.8547      1.885     4.02     986.7811     59.58794     537.0496        34     1.463     1.240 -81.06   0
       576    484.2177     36.0489 307.7556700  +6.6696942     19599.86     33908.43     35598.27     84.20264     169.1458     337.8211      1.844     3.81     990.0521     59.58794      2235.81        58     1.622     1.360 -67.40   0
       577    304.7450     36.4129 307.8302464  +6.6635163     7744.818     13805.83     15593.76      84.0676     169.0114     337.7538      1.955     3.94      1008.34     59.58794     878.9346        48     1.626     1.371 -68.70   0
       578     46.1088     38.4960 307.9376609  +6.6539504     1075.923     2113.053     2383.367     84.74068     169.6154     338.0228      2.044     7.01     1013.163     59.58794     132.8109        15     1.310     1.052  75.34   0
       579    665.1546     34.7757 307.6805135  +6.6762854     2842.316     5246.561     6255.028     84.20264     169.0786      337.922      2.117     4.70     986.0663     59.58794     349.1966        36     1.730     1.272  77.92   0
       580    364.7769     36.7043 307.8052876  +6.6654135     825.0641     1402.604     982.8414     84.74068     168.8096     337.8884      1.772     6.43     1000.344     59.58794     104.7192        12     1.399     0.830  80.12   0
       581     70.3705     36.0512 307.9276611  +6.6557774     2161.396     3572.188     4000.318     84.33747      169.213     337.9556      1.747     4.56     1012.729     59.58794     279.3047        23     1.403     1.126 -81.03   0
       582    962.1437     35.9523 307.5570381  +6.6857307     1957.485     2972.585     3527.624     84.74068     169.0786     338.1573      1.615     4.07     977.9457     59.58794     313.8366        15     1.305     0.846 -59.60   0
       583    292.7530     33.1822 307.8353394  +6.6644471     2506.492     4611.718     5350.823     84.20264     169.0114     337.8211      1.988     4.70     1009.964     59.58794     303.5463        26     1.404     1.232  87.31   0
       584    345.8295     31.2974 307.8133447  +6.6670092     896.5249     1469.459         1696     84.87466     168.8096     338.0565      1.726     6.87      1002.88     59.58794     115.6476        13     1.383     0.956 -63.51   0
       585    734.0255     25.5031 307.6522015  +6.6824196     1686.918     2815.403      3006.09     84.87466     168.8096     337.9556      1.850     4.67     983.6198     59.58794     219.0124        18     1.397     0.931 -59.07   0
       586    982.4445     26.4733 307.5489187  +6.6903222      982.087     1486.585     1557.819      84.6065     169.1458     338.0901      1.737     4.88     975.5518     59.58794     143.3077         9     1.006     0.671 -65.29   0
       587    300.1995     20.5853 307.8326704  +6.6698983     683.2118      916.882     902.9512     84.33747     168.7423     337.8211      1.405     4.40     1009.102     59.58794     113.1248         6     0.949     0.581  66.39   0
       588    792.7652   1020.4526 307.5943546  +6.2735740     1371.088     1750.517      1331.27     84.60649     169.0786     303.7092      1.425     4.17     1024.301     59.58794     193.2893        14     1.163     0.815 -78.66  16
       589     35.5266     18.9272 307.9427216  +6.6616729     961.8299     1566.884     1976.796     85.00842      169.213     338.1237      1.953     4.02     1011.587     59.58794     111.0551        10     0.955     0.793  21.23   0
       590    665.3062   1018.4805 307.6473536  +6.2701254     682.2991     1014.569     1152.217     84.47209     169.3472     325.8017      1.405     4.60     1025.612     59.58794     102.9854         8     1.143     0.525  39.45  16
       591   1000.2336   1014.5824 307.5083898  +6.2829251      7554.97     10934.23     11176.31     84.33747     168.8769     337.8884      1.571     3.09     1015.034     59.58794     1111.925        32     1.347     1.072 -77.01   0
       592    284.5812   1014.8933 307.8055816  +6.2588417     1317.982     2019.122     2279.737     84.60649     168.8096      337.922      1.591     4.23     1034.594     59.58794     223.1957        14     1.266     0.883 -63.53   0
       593    754.7280   1015.4282 307.6103200  +6.2743770     969.9529     1376.918     2070.965     84.47209     169.0786     337.9892      1.586     4.88     1024.758     59.58794     144.5035        10     1.159     0.825 -65.99   3
       594    827.2414     11.3888 307.6139330  +6.6913654     587.6858     741.2625     213.6375      84.0676     168.8769     337.7874      1.280     3.40     981.2574     59.58794     88.00244         5     0.744     0.450  18.33   0
       595    759.8718   1012.7956 307.6082722  +6.2756359     2831.246     4292.611     4511.425     84.33747     168.6749     337.8884      1.561     3.33     1024.569     59.58794     415.5759        22     1.259     0.942 -82.96   2
       596    483.0141   1013.7191 307.7232170  +6.2659854     981.5466     1327.394     1203.855     84.33747     168.8096     337.8547      1.491     4.60     1029.958     59.58794      128.309         8     0.974     0.654 -73.33   0
       597    775.8327   1012.1445 307.6016656  +6.2764384     1135.798     1666.758     1131.671     84.60649     169.0786     338.0228      1.557     3.87     1024.212     59.58794     178.1808        11     1.108     0.736 -57.77   0
       598    406.6512   1010.1315 307.7550498  +6.2649057     1886.208     2918.332     3144.252     84.60649     168.9442     337.9892      1.552     3.71     1032.159     59.58794     279.8647        17     1.306     0.816 -59.95   0
       599   1016.7548   1008.6613 307.5017268  +6.2859210     534.5662     1048.856     1130.886     84.60649     168.9442     337.6192      2.042     5.14     1013.775     59.58794     77.31726         8     1.404     0.533 -72.49  16
       600    793.3998    999.6202 307.5947906  +6.2821968     8624.061     12236.96     12203.49     84.33748     168.7423     337.7202      1.523     3.10     1023.257     59.58794     1243.736        33     1.343     1.043 -68.26   0
       601    588.9153   1000.2918 307.6796897  +6.2750780     4521.906     6572.372     6721.995     84.47209     169.5484     338.1573      1.562     3.34     1028.035     59.58794     699.8027        27     1.433     0.935 -75.72   2
       602    586.1180    992.4329 307.6811159  +6.2782292      9044.96     13077.59     13669.99     84.60649     169.0114     338.0228      1.539     3.16     1028.013     59.58794     1331.934        34     1.373     1.058 -72.56   2
       603    559.0742   1001.6995 307.6920351  +6.2734972     1182.864     1727.996     1533.616     84.20264      169.213     337.9556      1.547     3.02     1028.786     59.58794     199.7305        11     0.993     0.712 -73.88   0
