#   1 NUMBER                 Running object number                                     
#   2 X_IMAGE                Object position along x                                    [pixel]
#   3 Y_IMAGE                Object position along y                                    [pixel]
#   4 ALPHA_J2000            Right ascension of barycenter (J2000)                      [deg]
#   5 DELTA_J2000            Declination of barycenter (J2000)                          [deg]
#   6 FLUX_APER              Flux vector within fixed circular aperture(s)              [count]
#   9 FLUXERR_APER           RMS error vector for aperture flux(es)                     [count]
#  12 FLUX_RADIUS            Fraction-of-light radii                                    [pixel]
#  13 FWHM_IMAGE             FWHM assuming a gaussian core                              [pixel]
#  14 BACKGROUND             Background at centroid position                            [count]
#  15 THRESHOLD              Detection threshold above background                       [count]
#  16 FLUX_MAX               Peak flux above background                                 [count]
#  17 ISOAREA_IMAGE          Isophotal area above Analysis threshold                    [pixel**2]
#  18 A_IMAGE                Profile RMS along major axis                               [pixel]
#  19 B_IMAGE                Profile RMS along minor axis                               [pixel]
#  20 THETA_IMAGE            Position angle (CCW/x)                                     [deg]
#  21 FLAGS                  Extraction flags                                          
         1    534.4904     30.7325 307.7162100  +6.6711426     5693.139     8226.447     8595.443     78.12064     155.7476     311.1551      1.531     3.68     825.1748     54.84615     854.8359        25     1.428     0.852 -73.75   0
         2    260.7021     26.9410 307.8300924  +6.6635767      9704.54     14417.03     14902.85      77.7501     155.5621     311.2788      1.543     3.93     836.8264     54.84615     1353.194        33     1.531     0.896 -74.48   0
         3    621.1562     25.2543 307.6803829  +6.6762895      3153.76     5524.277     6598.434     77.99732      155.624     311.1551      1.978     6.27     823.6028     54.84615      508.375        28     2.046     0.931  81.29   0
         4    938.4909     16.6963 307.5488116  +6.6903645     1085.648     1636.109     1710.567     77.99732      156.118     311.1551      1.356     4.88       821.98     54.84615     143.4715        14     1.436     0.683 -77.23   0
         5    689.9734     15.7068 307.6521069  +6.6825204     1832.616     2771.908     2339.639     78.12064     155.3763     311.0004      1.620     4.75     823.5469     54.84615     276.7086        18     1.610     0.728 -70.28   0
         6    255.5652     11.2684 307.8327507  +6.6698758      790.435     1194.902     1607.524     77.87381     155.6858     311.2479      1.666     3.92     836.5797     54.84615     137.4703         8     0.953     0.588 -71.67   0
         7    201.1925     11.9398 307.8553192  +6.6677819     885.3065     1381.182     1439.027     77.37779     155.4383     310.9385      1.524     4.70     836.4707     54.84615     160.6218         9     1.074     0.676 -47.25   0
         8    178.1734      9.0225 307.8649808  +6.6682169     11191.59     16573.15     16803.05     77.50209     155.4383     311.1242      1.533     3.70     836.4078     54.84615      1693.54        35     1.457     0.974 -74.69  16
         9    923.8989      6.3809 307.5552174  +6.6941395     4151.962      6555.53     7594.219     77.99732     155.5002     298.3953      1.718     3.92     821.8099     54.84615     578.2944        29     1.482     1.045 -66.23  16
        10    522.3635      6.9560 307.7220414  +6.6805554     3238.245     4844.616     4936.661      77.7501     155.5621     303.2273      1.551     3.53     825.1856     54.84615     493.0878        20     1.328     0.847 -78.30  16
        11    724.5731      4.9509 307.6380883  +6.6881116     2075.544     3000.464     3100.665      77.6262      155.624     284.2534      1.522     3.85     823.9805     54.84615     293.1723        16     1.257     0.757 -70.84  16
        12    460.5112      5.2657 307.7477975  +6.6791924     2066.194     2928.857     3115.216     77.99732     155.8094      287.854      1.474     3.90     827.2709     54.84615     314.0413        17     1.289     0.829 -74.74  16
        13    988.5314      2.8069 307.5284797  +6.6977582     1961.761     3009.784     3288.494     77.50209     143.0549     256.7831      1.666     4.51     821.0186     54.84615     274.2008        18     1.356     0.849 -71.27  24
        14    707.6544      1.2602 307.6452411  +6.6890729     2157.811     2288.124     2457.215     67.11878     122.6201     233.0025      0.862     2.17     823.5542     54.84615     715.9384         9     0.927     0.494   4.30  24
        15    363.3321   1000.9179 307.7549509  +6.2648712     1699.187     3024.259     3299.766     78.12064     155.8712      311.186      1.950     4.84     857.2222     54.84615     201.6682        22     1.498     0.959 -70.32   0
        16    793.4860   1022.4706 307.5756468  +6.2702816     5406.202     8221.916     8615.455     78.12064     140.1316     252.7402      1.720     4.67     853.4109     54.84615     638.1915        29     1.367     1.175 -48.87  24
        17    582.9715   1023.8727 307.6629998  +6.2627075     28869.83     33349.23      34517.3     64.78349      120.402     230.7192      1.023     2.76     859.1758     54.84615     8646.426        16     1.334     0.381   4.21  27
        18    584.1905   1019.0922 307.6626528  +6.2647218     66051.52     115493.6     124043.4      77.6262     155.2524     294.0736      1.879     4.66     858.9913     54.84615     8007.553        90     1.803     1.366 -75.11  19
        19    241.0290   1005.4099 307.8055762  +6.2589371     1107.377     2077.604      1568.37     77.50209     155.4383     311.0004      1.914     6.74     856.7469     54.84615     145.3264        15     1.565     0.814 -63.13   0
        20    545.4672    990.8796 307.6796684  +6.2750820     3966.416     6456.161      7011.72     78.12064     155.8094     311.1551      1.807     4.24      858.345     54.84615     473.4131        31     1.594     1.016 -73.29   0
        21    750.0917    990.2087 307.5947345  +6.2821613     6765.179     12107.96     12851.08      77.6262     155.3144     310.9075      1.875     4.22     854.3101     54.84615     805.4484        44     1.674     1.230 -73.19   0
        22    515.9706    991.4869 307.6918944  +6.2738495     1056.132      1730.13     1737.033     78.12064     155.3763     311.0313      1.766     5.51      858.345     54.84615     127.8434        15     1.123     1.099 -55.86   0
        23    295.7969    989.6763 307.7833639  +6.2672605     13962.74     23242.75     25910.54     77.50209     155.1283     311.0313      1.846     4.17     857.0114     54.84615     1730.463        63     1.984     1.243 -53.05   0
        24    420.0870    990.3931 307.7317390  +6.2711081      878.698       1296.8     1188.275     77.50209     155.3144     310.9075      1.657     5.59     857.0778     54.84615     104.7812        12     1.218     0.722 -79.16   0
        25    810.9557    989.2798 307.5694955  +6.2845655     915.2355     1590.724     1571.048     77.99732      155.624     311.1551      1.744     5.49      853.033     54.84615     112.0521        10     1.098     0.775  16.10   0
        26    267.0021    987.4620 307.7953924  +6.2672140     885.2761     1474.266     1061.477     77.37779     155.4383     310.8766      1.582     4.05      856.578     54.84615     153.7357        12     1.145     0.771  88.02   0
        27    911.3766    983.5443 307.5279919  +6.2902649     7103.201     13456.57     15088.86      77.6262     155.6858     310.9695      2.047     4.47     851.2315     54.84615     808.7335        45     1.759     1.293 -79.53   0
        28    542.6423    983.0702 307.6811012  +6.2782124      7776.83     13018.28     13903.93     77.87381      155.624      311.217      1.790     3.97     858.0826     54.84615     882.1268        36     1.554     1.127 -71.93   0
        29    884.9308    979.8545 307.5390944  +6.2909114      10085.8     19528.48     21306.96     77.99732     155.5002     311.0932      2.047     4.54      851.942     54.84615     1130.728        55     1.803     1.383 -72.52   0
        30   1006.6414    979.1088 307.4885854  +6.2952534     3646.389      7300.16     8002.205     77.99732      155.624      311.217      2.134     4.92     848.3323     54.84615     424.2324        40     1.808     1.286 -75.20   0
        31    597.6357    979.9498 307.6583728  +6.2813302     1246.275     1865.383     2233.383     77.87381      155.624     311.0932      1.798     4.85      857.468     54.84615     178.9052        16     1.341     0.864 -70.69   0
        32    529.1037    978.9860 307.6868580  +6.2794481     3812.264     6523.457     6858.651      77.7501     155.3763     310.9385      1.800     4.20     857.9514     54.84615     484.9983        30     1.573     1.054 -70.49   0
        33    638.5881    978.2421 307.6414269  +6.2833972     1318.019     2292.252      2152.56     77.37779     155.4383     310.8766      1.807     4.23     856.3379     54.84615     157.8616        16     1.111     1.023  31.52   0
        34    482.1728    975.5853 307.7064560  +6.2792899     2217.918     3383.853     3356.378      77.6262     155.4383     311.0623      1.632     4.26     857.8531     54.84615     307.6481        23     1.507     0.922 -81.26   0
        35     63.8740    977.5225 307.8800544  +6.2645332      1004.36     1582.505     1405.309     78.24376     155.8712      311.186      1.597     4.91     852.9867     54.84615     159.3957        12     1.315     0.737 -68.52   0
        36    916.7258    967.3356 307.5263084  +6.2971347     36096.61      67766.2     73411.76     78.12064      155.624     311.1551      2.013     4.44     850.8827     54.84615     3927.805        80     1.842     1.425 -74.32   0
        37    224.1908    965.8154 307.8138887  +6.2747225      1571.75     2752.614     2675.889      77.7501     155.3763     311.0313      1.787     5.13     855.0602     54.84615     209.1883        17     1.535     0.807 -72.16   0
        38    111.9517    964.2368 307.8605389  +6.2716255     513.7772     786.2796      525.055     77.87381     155.5621     311.0623      1.832     5.29     852.7723     54.84615     81.04584         7     1.148     0.688 -76.00   0
        39    762.9263    959.0757 307.5904397  +6.2954419     5970.233     10361.57     11771.46     78.24376     155.8712      311.186      1.920     4.17     853.8729     54.84615     732.6638        41     1.804     1.152 -75.58   0
        40    622.8188    963.5095 307.6484640  +6.2889557     736.4668     976.8799     777.8872     77.87381     155.3763     311.0313      1.517     4.11     856.3958     54.84615      115.763         9     1.044     0.638 -70.55   0
        41    814.7191    961.2020 307.5688649  +6.2962834     2045.669         3534      3514.65     77.37779     155.1904     310.9075      1.822     4.20     852.7908     54.84615     244.1909        24     1.362     1.151 -81.01   0
        42    549.2955    958.4178 307.6791593  +6.2886123     990.8855     1675.897     1652.926     77.87381     155.4383     311.0004      1.899     5.69     857.2176     54.84615     119.7045        11     1.404     0.648 -76.07   0
        43    232.3767    958.4723 307.8107353  +6.2780276     1473.058     2258.819     2115.203      77.6262     155.4383     311.1242      1.690     4.20     854.9513     54.84615      183.149        18     1.269     0.982  87.51   0
        44    196.6109    958.0355 307.8255988  +6.2770138      850.954      1508.86     1698.857     77.50209     155.4383     310.9385      1.923     6.85     854.0449     54.84615     114.0796        14     1.614     0.816 -79.82   0
        45     57.2333    956.4619 307.8835157  +6.2730064     2515.111     4212.043     4125.529      77.7501     155.6858     311.0932      1.755     3.98     852.4012     54.84615     389.3485        24     1.448     0.969 -64.10   0
        46    951.0809    954.0931 307.5124832  +6.3037412     5484.843     10687.88     11529.91      77.7501     155.8712      311.217      2.046     4.54      849.883     54.84615     642.3318        41     1.678     1.306 -73.97   0
        47    206.9410    950.9011 307.8215483  +6.2803044     611.3187     1076.882     1097.093      77.7501     155.5621     311.2788      1.877     4.86     854.0191     54.84615     83.56641         8     0.863     0.774 -19.01   0
        48    633.0527    948.3538 307.6447190  +6.2955535     632.0369     1166.021     1142.985     77.99732      155.624      311.217      1.782     4.37     855.6826     54.84615     84.79388         6     1.078     0.505 -50.47   0
        49    924.8143    945.6922 307.5236677  +6.3063391     1797.869      3289.14      3121.24      77.7501     155.3763     310.9385      1.933     4.98     850.5043     54.84615     211.3196        28     1.613     1.144 -78.98   0
        50    645.5190    941.8439 307.6397595  +6.2986558     4307.914     6746.825     7067.358     77.99732      155.624     311.1242      1.720     3.89     855.2816     54.84615      542.288        28     1.502     0.982 -76.30   0
        51    257.6139    942.2405 307.8007995  +6.2855716      4273.39     6727.169     6757.857     77.50209     155.4383     310.9075      1.695     3.95     855.0961     54.84615     529.7377        28     1.521     0.963 -71.59   0
        52    784.0308    942.1091 307.5822406  +6.3031479      1391.96     2044.079     1997.947     78.12064     155.4383     311.1242      1.545     3.60     853.3088     54.84615     195.1457        14     1.134     0.829 -59.01   0
        53    467.3869    940.1589 307.7137748  +6.2934244     1055.378     1684.172     1993.786     77.37779     155.4383     310.8766      1.651     4.40     856.5173     54.84615     136.1733        13     1.067     0.878 -74.61   0
        54     26.3595    939.7616 307.8968919  +6.2788689     2040.836     3153.281     3336.531      77.7501     155.6858     311.0313      1.775     3.76      852.024     54.84615     249.1962        19     1.330     0.894 -80.66   0
        55    877.1826    938.2458 307.5436917  +6.3078342     867.0434     1718.809     1641.445     77.50209     155.5002     310.9075      2.131     6.36     851.3694     54.84615     121.9907        15     1.325     0.973 -71.32   0
        56    968.7463    936.6858 307.5057253  +6.3115140     568.6915     894.8924     1098.126     77.99732     155.5621     311.3098      1.712     5.14     849.3515     54.84615     74.54559         8     1.204     0.619 -81.04   0
        57    948.0927    936.3767 307.5143112  +6.3109571     635.4714     1043.598     1257.267     77.99732     155.4383     311.0004      1.639     4.69     849.8733     54.84615      114.019         6     1.050     0.886  24.00   0
        58    570.1488    934.3787 307.6713013  +6.2992315      1696.92     2568.852     2671.177     77.50209     155.6858     311.0313      1.513     4.41     856.1505     54.84615     244.1093        16     1.455     0.727 -78.75   0
        59    293.8099    935.2229 307.7860058  +6.2896767     798.4498     1335.944     1035.917      77.6262     155.4383     311.0004      1.645     4.93     855.8015     54.84615     124.8463         9     1.059     0.649 -60.87   0
        60   1001.6378    933.4249 307.4921765  +6.3139502     601.6155     1435.576     1665.521      77.6262     155.4383     310.9695      2.543     7.42     848.5276     54.84615       76.625        11     1.688     0.913 -75.08   0
        61    609.5781    930.8027 307.6550493  +6.3020195     1123.793     1788.872     1888.175      77.6262     155.3144     310.9075      1.772     4.30     855.5173     54.84615     141.3246        12     1.183     0.792  88.69   0
        62     59.3450    931.4421 307.8834758  +6.2834068     679.9705     1019.322     1074.142     77.87381      155.624      311.186      1.453     3.15     851.7285     54.84615     117.9872         7     0.846     0.655  68.67   0
        63    289.3368    928.7114 307.7880803  +6.2922159     1445.123     2210.648     2100.331     77.87381     155.8094      311.186      1.631     4.88     855.6642     54.84615      193.157        16     1.428     0.789 -69.74   0
        64    756.5292    924.2162 307.5942536  +6.3096225     669.7478     1267.247     1191.686     77.50209     155.5621     311.0313      1.815     5.85     853.7878     54.84615     102.7422         8     1.535     0.628 -78.64   0
        65    893.7377    921.0436 307.5373885  +6.3154859      5862.01     10642.15     10537.98     77.99732     155.5621     311.2479      1.906     4.30     850.8173     54.84615     676.7549        40     1.660     1.234 -73.89   0
        66    131.6508    922.9739 307.8537397  +6.2893199      595.514     766.8895     937.1441      77.6262     155.6858     311.0623      1.610     4.57     851.5759     54.84615     97.44556         6     0.925     0.640 -48.37   0
        67    429.5689    918.5396 307.7301968  +6.3010908     2183.517     3449.582     3414.551      77.7501     155.6858     311.1242      1.694     4.16     855.6022     54.84615     286.5698        20     1.466     0.874 -73.63   0
        68    102.5509    920.0933 307.8659175  +6.2895368     422.6801     573.6599     371.1585     77.87381     155.5002     311.2788      1.297     4.39     851.5468     54.84615     83.10864         5     1.429     0.384 -76.72   0
        69    331.2925    916.7955 307.7710585  +6.2985351      9246.78     14502.36     15311.73      77.6262     155.3144     310.9075      1.652     3.82     855.3084     54.84615     1320.808        38     1.498     1.103 -75.21   0
        70    251.3745    915.7357 307.8042747  +6.2963065     6912.569     10819.37     11391.77      77.6262      155.624     311.0932      1.700     3.87     854.1376     54.84615     941.4108        35     1.587     0.979 -75.09   0
        71    579.4211    909.9932 307.6682628  +6.3096083     1113.875     1958.962      1851.23      77.6262     155.4383     310.9695      1.802     5.70     855.4515     54.84615     162.7445        13     1.432     0.677 -77.10   0
        72    909.1217    906.7435 307.5314751  +6.3219004       842.65     1423.591      1848.75     77.99732      155.624     311.1242      1.812     3.30      850.292     54.84615     131.6633         7     0.867     0.566  25.28   0
        73    865.4592    905.0612 307.5496604  +6.3211469     718.1667     1281.428     1366.617     77.99732     155.5621      311.186      1.935     5.10     851.3925     54.84615     126.7684         8     1.128     0.653  87.23   0
        74    213.4632    905.7681 307.8203478  +6.2991563     574.4827     857.5786     585.8166      77.7501     155.6858     311.1242      1.538     5.99     852.8899     54.84615     77.12646         7     1.159     0.872  75.66   0
        75    408.3979    904.9338 307.7394404  +6.3060029     606.1722     831.6108     1285.655     77.37779     155.2524     310.9385      1.585     4.16     855.1177     54.84615     84.86945         5     1.065     0.465  27.46   0
        76    745.6706    898.9951 307.5996000  +6.3196754     1513.383     2606.071     3153.179     77.50209     155.2524     311.0313      2.048     6.04     853.4846     54.84615      176.251        20     1.478     0.952 -66.51   0
        77    570.1753    899.9081 307.6724374  +6.3134647     610.2196     897.4038     742.0645     78.12064     155.3763     311.0004      1.620     4.02     855.3038     54.84615     85.68793         6     0.962     0.480 -55.00   0
        78    609.8230    896.0104 307.6561050  +6.3163928     784.3464     1112.521     1201.324      77.6262     155.4383     311.0004      1.515     5.35      854.951     54.84615        125.9        11     1.452     0.556 -59.23   0
        79    977.2090    894.5919 307.5036066  +6.3291746     1130.139      2087.14     3013.941     77.37779     155.4383     311.0313      2.417     6.21     848.2372     54.84615     145.2289        21     1.468     1.175 -62.02   0
        80    530.8720    894.7814 307.6889270  +6.3142735     1101.617      1598.54     1155.848     77.50209     155.5621     311.0932      1.451     4.65     855.3687     54.84615     149.0903        11     1.188     0.625 -64.22   0
        81    664.3270    892.5357 307.6335898  +6.3196397     2536.841      3972.38     4382.604     77.99732      155.624     311.1551      1.713     3.93       854.54     54.84615     352.3824        23     1.423     0.963 -75.63   0
        82    954.5101    890.9918 307.5131511  +6.3299088     607.7508     1033.405     1552.001      77.6262     155.3144     310.9075      1.808     5.11     848.7234     54.84615     81.68323         7     1.027     0.718  -1.83   0
        83     60.9170    889.0028 307.8842427  +6.3009812     2686.776     4370.333      4039.75     77.37779     155.2524     310.8456      1.693     4.28     850.4876     54.84615     350.1691        24     1.555     0.875 -69.79   0
        84    825.4859    889.1091 307.5667875  +6.3264071     673.0237     1110.145     725.9494      77.7501     156.0563     311.2788      1.751     5.31     851.9556     54.84615     109.4606         8     1.110     0.805 -70.96   0
        85    204.5764    887.8612 307.8246355  +6.3062529     2084.444     3160.461     3170.532      77.6262     155.5621     311.0623      1.554     4.12     852.4043     54.84615     282.9818        17     1.400     0.763 -71.63   0
        86     78.2732    888.2764 307.8770610  +6.3018614     1897.698     2721.953      2847.43     78.24376     155.8712      311.186      1.565     3.76     850.8759     54.84615     260.1586        18     1.281     0.893 -68.76   0
        87    942.1035    888.3698 307.5183896  +6.3305802     683.6391     1077.656     838.2565     78.12064     155.3763      311.186      1.624     6.13     849.0014     54.84615     98.68152         8     1.249     0.846  55.06   0
        88    238.4394    884.8235 307.8106773  +6.3086376     742.3453     966.7243     254.9795      77.6262     155.3763     310.9385      1.573     5.60     853.0121     54.84615      92.1239        11     1.341     0.659 -60.76   0
        89    658.9365    881.7009 307.6361883  +6.3239340     6734.366     10737.34     11161.28     77.87381     155.6858      311.186      1.661     3.90     854.5009     54.84615      906.803        31     1.543     0.980 -74.18   0
        90    343.5728    883.4742 307.7670712  +6.3127022      863.393     1386.552     1646.185     77.87381     155.5621     311.1242      1.936     5.95     854.2324     54.84615     131.0283         9     1.199     0.831 -76.53   0
        91    796.5528    882.2257 307.5790297  +6.3282888     805.8358      1169.16     849.6584      77.6262     155.6858     311.0313      1.643     4.55     852.2661     54.84615      135.606         7     0.924     0.637 -16.71   0
        92     19.0290    880.4030 307.9019215  +6.3031309     963.7853     1682.922     1814.333     77.50209     155.3763     310.9695      1.901     5.58     848.9714     54.84615     135.9882        13     1.249     0.746 -76.54   0
        93     31.9776    878.6448 307.8966043  +6.3042899     1084.664     1697.379     1536.851     77.50209      155.624     311.0004      1.624     5.74     849.3099     54.84615     136.6938        15     1.377     0.876 -64.64   0
        94    896.6814    877.7709 307.5376016  +6.3334504     2546.666     4238.413     4371.905     77.87381     155.5002     311.1551      1.824     4.00     850.2515     54.84615     294.9215        25     1.440     1.021 -73.92   0
        95    449.1532    879.0158 307.7233824  +6.3180618     513.3868     568.8048      318.634     77.50209     155.5002     310.9075      1.441     3.67     854.7789     54.84615     89.10651         6     0.913     0.460 -54.04   0
        96    341.9528    875.0342 307.7680254  +6.3161329     16282.62     25268.78     26500.68      77.7501     155.6239     311.0932      1.632     3.80     853.9637     54.84615     2114.745        45     1.559     1.066 -69.65   0
        97     76.6589    876.1987 307.8781352  +6.3067940     1183.083     2128.736     1803.231     77.37779     155.3144     310.8766      1.816     4.69     850.6207     54.84615     183.7957        14     1.373     0.757 -53.21   0
        98    349.7449    875.8353 307.7647634  +6.3160620     495.7711     715.6394     868.4589     77.87381      155.624      311.186      1.578     3.44     854.0344     54.84615     83.02985         5     0.989     0.346 -47.63   0
        99    212.8075    874.6422 307.8216595  +6.3119855     1218.694     1802.385     1351.992     77.50209     155.4383     310.8766      1.504     4.10     852.3315     54.84615     212.5904        13     1.330     0.670 -81.00   0
       100    392.3815    874.3096 307.7471113  +6.3181133     664.6137     890.6153     795.9678      77.7501     155.3763     311.0623      1.453     4.01     854.2269     54.84615     111.8975         7     0.996     0.462 -80.19   0
       101    419.7778    865.6018 307.7360264  +6.3226215     1055.231     1478.451     1540.157      77.6262     155.3144     310.8766      1.472     4.96     854.2108     54.84615     159.9615        11     1.387     0.538 -66.23   0
       102    105.3320    865.9054 307.8665746  +6.3120023     1514.848     2495.248     2424.787     77.87381     155.8094      311.186      1.701     4.68     851.2385     54.84615     229.8118        17     1.388     0.785 -67.16   0
       103    500.3938    862.2584 307.7026649  +6.3266871     563.1895     805.6185     491.9191     77.50209     155.5002     310.8766      1.286     4.22     854.4805     54.84615      92.6178         5     1.265     0.401 -76.58   0
       104    673.2607    861.8071 307.6309020  +6.3326240     878.7703     1483.452     2233.188     77.37779     155.4383     310.9075      2.354     5.29     854.2429     54.84615     126.5895        10     1.049     0.755 -60.77   0
       105    887.1164    859.6002 307.5421760  +6.3406356     1675.977     2969.999     3242.552     77.25329     155.1283     310.8146      1.920     4.80     850.3418     54.84615     216.4612        18     1.471     0.822 -77.51   0
       106    857.9730    858.9469 307.5542990  +6.3399387     1913.244     3159.666     3088.666      77.7501     155.7476     311.0932      1.743     4.18     851.2155     54.84615     252.9847        22     1.459     0.959 -63.11   0
       107     88.7017    859.3326 307.8736992  +6.3141601     2395.104     3850.983     4108.868     77.99732     155.7476      311.186      1.694     3.91     850.6661     54.84615     316.4408        22     1.421     0.900 -73.89   0
       108    821.0463    858.6428 307.5696423  +6.3388389     2882.707     4725.686     5203.109     77.99732      155.624     311.0932      1.745     4.09     851.6641     54.84615      329.628        24     1.429     0.981 -69.83   0
       109    336.7287    857.2542 307.7707876  +6.3232996      809.394     1180.446     1348.153     77.87381     155.5002     311.1242      1.737     5.58      853.448     54.84615     108.9588        10     1.319     0.666 -77.95   0
       110    557.0292    850.1279 307.6795527  +6.3335807     330377.7       513353     536899.1     77.87381     155.6239     311.1242      1.652     3.93     853.7617     54.84615     44931.25       161     1.736     1.227 -73.43   0
       111    644.8605    852.9692 307.6429883  +6.3353290       1160.2     1883.118     1684.698      77.7501     155.6239     311.1242      1.553     5.20     853.9402     54.84615      173.095        12     1.350     0.626 -75.50   0
       112    401.3009    852.8929 307.7441219  +6.3272530     7849.258     12179.21     12613.02     77.99732      156.118     311.0932      1.652     3.78     853.5735     54.84615     1122.997        36     1.509     1.031 -74.63   0
       113    344.4694    851.2847 307.7677727  +6.3260224     12489.06     19062.95     19575.55     78.12064     155.8712      311.186      1.649     3.97     853.3563     54.84615     1700.976        38     1.520     1.028 -70.88   0
       114    662.8230    847.3820 307.6357156  +6.3382330     3458.683     5501.501     5833.217      77.7501     155.5621     311.0932      1.699     4.27     853.6755     54.84615     460.7057        26     1.518     0.949 -63.03   0
       115    895.3856    846.0175 307.5391929  +6.3465181     4751.372     8346.968     9216.852      77.7501     155.3144     311.0932      1.881     4.15     849.6539     54.84615     581.6306        39     1.597     1.257 -68.25   0
       116    734.4043    843.6906 307.6061155  +6.3421357     674.1951     893.8157     1008.001      77.5021     155.3144     310.8766      1.550     4.27     852.5831     54.84615     119.1325         7     1.110     0.467 -26.85   0
       117    637.7514    841.4462 307.6463235  +6.3398503     3436.776     5407.999     5830.782     77.99732     155.5002      311.186      1.672     3.79     853.4727     54.84615     444.8917        26     1.498     0.983 -75.98   0
       118    826.0397    840.4004 307.5681745  +6.3465367     1539.219     2536.031     2837.299     77.00368     155.3763     310.8766      1.783     5.40     851.1973     54.84615     197.0641        16     1.413     0.783 -66.53   0
       119    629.8480    837.2261 307.6497456  +6.3413299     1855.939     3964.046     5200.779      77.6262     155.6858     311.0623      2.534     8.83     853.3222     54.84615     289.6819        31     2.583     0.843 -62.31   0
       120    451.6519    856.6159 307.7230913  +6.3273935     402.4171     657.4423     1728.525     77.37779     155.6858     310.8766      1.685     4.87     854.0577     54.84615     71.24146         6     1.164     0.578 -63.90   0
       121    953.4118    839.3303 307.5153199  +6.3512030     638.0829     1230.782     1717.443      77.5021     155.4383     311.0004      2.414     4.07     847.7644     54.84615     85.63995         7     1.029     0.460 -79.06   0
       122    914.3143    833.9270 307.5317340  +6.3521378     2726.995     4703.371     4546.987     78.12064     155.9329     311.1551      1.876     4.42      848.817     54.84615     312.4854        28     1.531     1.143 -77.16   0
       123    324.4982    835.2835 307.7765988  +6.3319629       940.44     1419.561     1232.121     77.99732     155.9946      311.217      1.325     4.26     852.9616     54.84615     171.8391         9     1.192     0.486 -83.77   0
       124    372.2597    830.2124 307.7569365  +6.3356493     2651.388     4037.465     4382.948     77.37779     155.5621     310.8766      1.638     3.94     852.8318     54.84615     360.9767        23     1.378     0.947 -65.61   0
       125    790.9871    828.8127 307.5831145  +6.3501576      406.485     736.4138     1193.272     77.87381     155.3144     311.0932      2.440     4.33      851.736     54.84615     66.95978         5     1.064     0.502 -36.64   0
       126    508.5885    819.9202 307.7006723  +6.3444406      3080.56     4607.696     4837.783      77.6262     155.3144     311.0004      1.587     3.96     852.2591     54.84615      414.722        22     1.450     0.836 -69.69   0
       127    853.1514    818.6412 307.5576388  +6.3564205     932.6766     1375.478      1534.25     77.99732     155.5621     311.0623      1.637     3.56      849.895     54.84615     133.4048        11     1.011     0.728 -75.73   0
       128    573.7256    817.5814 307.6737031  +6.3475742     773.6304     1170.181     1287.895      77.5021     155.5002     311.0623      1.599     4.49     852.3257     54.84615     113.2048         8     1.032     0.556 -70.42   0
       129    555.4493    815.9304 307.6813470  +6.3476477      6002.44     9325.099     9975.456     77.99732     155.5621      311.186      1.684     3.89     852.0952     54.84615     855.3867        31     1.505     0.964 -75.08   0
       130    473.2010    814.9870 307.7155306  +6.3452991     1614.174      2516.12       2622.4      77.6262     155.3144     310.9385      1.600     4.00     852.0034     54.84615     279.9067        17     1.427     0.742 -78.91   0
       131    267.1844    815.7783 307.8010475  +6.3381040     663.0563     944.0898     570.4622      77.7501     155.4383     311.0932      1.565     5.04     852.2461     54.84615     92.75696         8     1.260     0.571  85.30   0
       132    891.2664    813.7482 307.5419739  +6.3597052     1158.038     2052.909     1936.634     77.87381     155.5621     311.1242      1.868     5.98     848.8431     54.84615     155.8933        17     1.618     0.759 -83.79   0
       133    562.2656    815.2825 307.6785382  +6.3481420     1379.043     2331.116     2749.073     78.24376     155.8712      311.217      1.766     4.35     852.0983     54.84615     205.2027        14     1.259     0.817 -68.39   0
       134    842.3125    815.2283 307.5622529  +6.3574700     1598.377     1416.131     1163.311     78.12064     155.3763     311.0313      0.738     1.49     850.1259     54.84615     724.3989         6     0.656     0.385  39.12   0
       135    114.8518    814.0360 307.8643563  +6.3337358     1508.355     2236.715     2175.817     77.87381     155.6239     311.1242      1.616     5.00     849.7673     54.84615      191.478        14     1.281     0.783 -79.09   0
       136    691.1550    812.6050 307.6251074  +6.3535336     616.9258     1057.736     1094.828     77.37779     155.3144     310.8456      1.773     5.75     852.2621     54.84615      92.8739         8     1.454     0.641 -71.41   0
       137    526.1229    809.8390 307.6937272  +6.3491867     19842.28     30360.82     31183.32     77.87381     155.6858     311.1551      1.624     3.84      851.729     54.84615     2810.997        47     1.584     1.032 -71.12   0
       138    367.1887    811.9827 307.7596501  +6.3430069     774.7737     1149.237     1074.146      77.6262     155.3144     311.0623      1.395     3.70     852.3763     54.84615     138.1918         7     1.018     0.570 -72.46   0
       139    939.8312    807.7365 307.5220067  +6.3637977     3340.346     5671.779     5734.025      77.7501     155.6858     311.1242      1.756     4.05     847.7313     54.84615     436.0353        28     1.463     1.084 -79.04   0
       140    172.4974    809.5630 307.8405707  +6.3375087     612.7194     780.2687     529.7542     77.99732     155.5002     311.3098      1.530     3.53     851.2974     54.84615     98.39758         6     0.905     0.431 -71.42   0
       141     59.5600    806.1719 307.8875769  +6.3351341     508.5151     637.4062     829.4009      77.6262     155.3763     311.0313      1.392     5.39     848.3149     54.84615     77.64923         7     1.113     0.736 -27.59   0
       142     36.5025    800.4688 307.8973414  +6.3367176     1535.734     2387.597     2456.305     77.87381     155.7476     311.1551      1.721     4.70     847.8732     54.84615     208.4856        19     1.410     0.976 -63.03   0
       143    318.7113    798.6479 307.7802240  +6.3468959     3442.856     5260.271      4685.26     77.99732     155.5002     311.2479      1.652     4.00     852.2169     54.84615     422.2127        27     1.501     0.942 -68.06   0
       144    784.2805    794.2117 307.5870485  +6.3642214      52199.2     83349.81     87769.82      77.6262     155.3144     311.0004      1.714     4.03     851.2145     54.84615      7028.47        70     1.690     1.136 -74.14   0
       145    581.0541    799.2228 307.6712710  +6.3553979     540.4233     780.1964     845.2621     77.50209      155.624     310.9695      1.484     4.65     851.5497     54.84615     84.47491         5     0.987     0.622  34.21   0
       146     18.5855    797.0055 307.9048966  +6.3375481     2112.867     3513.305     3377.511      77.6262     155.3144     311.0004      1.772     4.20     847.5549     54.84615     277.3436        20     1.397     0.887 -68.59   0
       147    241.4796    792.4370 307.8125000  +6.3468831     5178.363     8392.764     10446.19     77.87381     155.6858     311.1551      1.939     4.19     851.3155     54.84615     647.7161        35     1.580     1.123 -66.00   0
       148    427.5663    792.7988 307.7352191  +6.3529399     905.1234      1194.46     1143.323     77.12859     155.4383     310.9075      1.586     4.60     851.0862     54.84615     126.1168        10     1.102     0.718 -70.48   0
       149    909.5374    789.4085 307.5351943  +6.3703607     7843.634     12972.63     13810.17     77.37779     155.3763     310.9695      1.791     3.93     847.9977     54.84615     1052.755        40     1.635     1.100 -76.27   2
       150    906.4589    780.8340 307.5367571  +6.3737990     6136.757     10349.13     10900.93     77.87381      155.624     311.0932      1.827     4.07     847.9086     54.84615     792.6838        40     1.615     1.168 -73.30   2
       151    712.5167    788.8580 307.6170264  +6.3640482     21021.83     32798.39     34845.37     77.99732      155.624      311.217      1.686     3.77     851.3951     54.84615     2774.072        53     1.592     1.141 -71.90   3
       152    706.2147    785.3807 307.6197589  +6.3652746     87230.26     134603.8       140200      77.7501     155.3763     311.0623      1.656     3.81     851.2522     54.84615     12760.48        73     1.629     1.122 -72.95   3
       153    351.0600    786.4470 307.7671989  +6.3530123     21514.66     32294.97      33759.9     77.99732      155.624     311.2479      1.626     3.83     851.5153     54.84615     3115.233        49     1.599     1.026 -72.02   0
       154    400.2479    786.5122 307.7467722  +6.3546252     1592.956     2405.739     2340.107     77.99732     155.5002      311.217      1.598     4.01     851.1217     54.84615     223.2186        15     1.271     0.752 -75.17   0
       155    412.9669    784.2726 307.7415655  +6.3559737     22513.85     33756.11     35020.46     77.87381      155.624     311.1551      1.603     3.99     850.9289     54.84615     3282.374        48     1.565     1.033 -73.15   0
       156    241.0218    770.8049 307.8134125  +6.3557992     740790.9      1735293      1900646      77.6262     155.3763     310.9695      2.281    10.81     850.4664     54.84615     63456.55       583     2.498     1.960 -79.03   4
       157    639.7191    785.6235 307.6473631  +6.3629641     939.9901     1493.069      2101.08      77.6262     155.3144     311.0932      1.776     5.62     851.3668     54.84615      139.171        11     1.082     0.823 -50.80   0
       158    950.0664    782.9955 307.5185769  +6.3743523     1911.754     3458.537     3421.863     77.37779     155.3763     310.9695      1.859     4.91     846.9175     54.84615      235.075        23     1.618     0.921 -71.85   0
       159    646.9924    780.0139 307.6445294  +6.3655220     6326.003     9817.707     10696.85      77.6262     155.3763     311.0004      1.642     3.95     851.1633     54.84615     861.1411        33     1.566     0.988 -74.69   0
       160    879.4087    781.8793 307.5479553  +6.3724702     605.7926      1058.21     1140.136      77.6262     155.2524     311.0004      1.804     5.92     848.3373     54.84615     91.57239         8     1.118     0.881  60.02   0
       161    136.5035    780.3293 307.8564931  +6.3483759      543.277     719.1441     817.1489     77.87381     155.7476      311.186      1.729     4.97     849.5637     54.84615     88.07568         7     1.053     0.665  73.83   0
       162    435.7751    777.9661 307.7323049  +6.3593376     1673.217     2384.596     2378.631     77.37779     155.4383     310.9385      1.553     5.07      850.733     54.84615     235.3615        15     1.335     0.739 -67.93   0
       163    160.6372    777.9435 307.8465520  +6.3501673     623.2524     998.3623      787.763     77.99732     155.6858      311.186      1.471     3.52     850.1721     54.84615     133.3445         5     1.030     0.347 -47.16   0
       164    875.1445    771.0527 307.5500853  +6.3767990     737.3749     1299.065     1455.529     78.12064      155.624     311.1242      1.791     6.91     848.2446     54.84615     99.35327        12     1.795     0.747 -62.10   0
       165    599.9784    772.4703 307.6643030  +6.3670732     883.6143     1224.145      1710.13      77.6262     155.5002     311.1242      1.498     5.24     850.8452     54.84615     141.3605         9     1.303     0.596  86.58   0
       166    415.8741    766.9612 307.7409354  +6.3632181     54480.52     82658.28      86328.2     77.87381     155.6239      311.217      1.600     3.98     850.5273     54.84615     7370.143        71     1.611     1.115 -70.89   0
       167    682.1913    770.2204 307.6302387  +6.3707357     2522.378     3941.429     4198.093      77.6262     155.3763     310.9385      1.706     4.18     850.7815     54.84615     387.3549        21     1.415     0.912 -64.38   0
       168    151.2764    771.4125 307.8506571  +6.3525510     879.7148     1041.529     609.3135      77.6262     155.2524     310.9695      1.400     3.98     849.6135     54.84615     138.6265         8     0.988     0.561 -72.12   0
       169    126.2384    770.8924 307.8610708  +6.3519291     1032.407     1320.616     1005.462     78.12064     155.5621      311.217      1.485     4.52     848.9984     54.84615     169.5514        13     1.360     0.651 -65.15   0
       170    959.0118    767.8314 307.5153649  +6.3809099     643.3811     1019.543       1335.9     77.50209     155.3763     311.0623      1.725     5.58     846.2853     54.84615     93.84613        10     1.257     0.698  79.14   0
       171    533.5807    765.9160 307.6920929  +6.3675700     7241.773     11016.05     11208.07      77.6262     155.3144     311.1242      1.609     4.01     850.3989     54.84615     966.6515        32     1.505     0.952 -72.03   0
       172    450.3959    764.5456 307.7266810  +6.3653657     4668.598     6948.107     8237.832     77.37779     155.3763     310.8456      1.691     3.66     850.3922     54.84615     708.8203        30     1.551     0.936 -73.31   0
       173    778.8605    762.3200 307.5903584  +6.3772091     11277.66     17804.96     18540.51     78.12064      155.624     311.1242      1.692     3.95     849.9115     54.84615     1491.592        42     1.601     1.065 -69.23   0
       174      7.9170    758.7831 307.9106056  +6.3529719     978.2047     1481.597     1311.649      77.6262     155.3144     309.2623      1.593     4.56     846.2836     54.84615     144.8044        13     1.176     0.813 -68.43  16
       175    446.9928    757.8162 307.7283183  +6.3680308     2251.631     3374.395     3818.053      77.6262     155.3763     311.0004      1.555     4.81     850.2321     54.84615     337.3148        15     1.372     0.656 -73.74   0
       176    968.1742    756.1769 307.5119465  +6.3860256     601.7082     1089.554     1302.147     77.50209     155.5002     311.0932      1.533     3.56      845.711     54.84615       116.23         5     1.124     0.326 -79.61   0
       177    800.6523    756.2504 307.5815107  +6.3804387     1234.667     1959.282     2333.262     78.12064     155.5002      311.186      1.722     4.76     849.5295     54.84615     196.5618        14     1.259     0.765 -70.70   0
       178    144.6232    754.9575 307.8539697  +6.3591225      2930.79     4556.447     5165.038      77.6262     155.5002     311.0004      1.621     3.91     848.8785     54.84615     402.0836        20     1.403     0.798 -70.44   0
       179    136.5536    754.6439 307.8573309  +6.3589823     11621.88     17760.02     19271.49     77.99732      155.624     311.0932      1.685     3.96     848.7451     54.84615     1480.574        43     1.601     1.070 -69.19   0
       180    128.6481    751.9693 307.8607029  +6.3598224     2947.846     4592.443     5388.323      77.6262      155.624     311.0623      1.649     4.37     848.5254     54.84615     420.7504        22     1.683     0.765 -77.97   3
       181    128.9211    745.4496 307.8608076  +6.3625233     1914.532     2991.912     3545.294     77.99732     155.6858     311.1551      1.596     4.27     848.3239     54.84615     282.0322        17     1.459     0.773 -76.86   3
       182    924.3356    750.8240 307.5303289  +6.3867826     6054.236     10204.21      10790.5      77.6262      155.624     311.0623      1.796     4.00     847.0104     54.84615     751.5524        34     1.561     1.096 -70.22   0
       183    973.5977    750.7548 307.5098740  +6.3884441     1319.494      2387.62     2883.052     77.37779     155.2524     310.8146      2.012     4.57     845.3931     54.84615     167.4697        17     1.246     1.008 -63.97   0
       184    679.7846    748.5004 307.6319603  +6.3796236      1558.03     2321.423      3049.95     77.99732     155.3763     310.9075      1.772     4.57     850.0563     54.84615     199.9914        15     1.285     0.762 -73.62   0
       185    566.7151    747.9492 307.6789319  +6.3760909     2370.768     3545.521     3998.435     77.99732     155.5621     311.2479      1.574     3.71     850.0094     54.84615     316.8892        17     1.290     0.809 -68.57   0
       186    414.4852    747.3680 307.7421654  +6.3712615     1152.714     1907.487     1652.421     77.99732     155.4383     311.0932      1.762     6.61     850.0619     54.84615     166.9357        15     1.450     0.906 -72.49   0
       187    698.1546    745.8833 307.6244189  +6.3813147     640.8206     1115.234     1247.031     77.99732      155.624     311.1551      1.944     4.98        849.8     54.84615     107.2796         6     1.116     0.629  79.34   0
       188    918.5698    742.9897 307.5329832  +6.3898261      2878.41     4610.412     5034.439     77.50209     155.4383     311.0004      1.713     4.19     846.9474     54.84615     377.3267        26     1.555     0.948 -71.00   0
       189    978.9355    742.1935 307.5079412  +6.3921559     1776.022     2969.082     3640.494     77.50209     155.3763     310.9385      1.815     4.23     845.0125     54.84615     235.1942        20     1.447     0.914 -77.64   0
       190    948.0287    742.3367 307.5207713  +6.3910724     2838.972     4623.599     4683.298      77.7501      155.624     311.0932      1.727     4.46     846.0712     54.84615     317.3607        24     1.500     0.953 -66.20   0
       191    670.7625    741.9342 307.6359252  +6.3820348     1426.744     2300.146     2514.075     77.87381     155.5621     311.2479      1.685     4.90     849.8745     54.84615     242.9725        15     1.533     0.686 -74.00   0
       192    818.1233    740.6008 307.5747752  +6.3874802     978.7695      1594.55     1345.292     77.25329     155.0663     310.9075      1.683     5.06     848.6813     54.84615      130.404        10     1.026     0.707  87.11   0
       193    893.7354    738.3995 307.5434486  +6.3908978     623.0233     1041.049     1282.469     77.25329     155.3144     310.9075      1.419     5.36     847.3796     54.84615       112.64         7     1.273     0.637 -64.97   0
       194    243.4554    737.2256 307.8135234  +6.3697445     1947.262     3073.287     3455.585      77.6262      155.624     310.9695      1.715     4.38     849.1245     54.84615     296.1036        21     1.456     0.900 -61.85   0
       195    936.4494    732.6140 307.5259024  +6.3947030     963.2603     1445.118     1348.512     77.37779     155.5621     310.8766      1.670     6.22     846.2634     54.84615     146.6172        14     1.394     0.791 -77.81   0
       196    680.1617    733.4240 307.6323050  +6.3858610     591.3699     1067.015     1622.048      77.6262     155.3763     310.9695      2.108     4.80      849.538     54.84615     137.6304         5     1.433     0.495 -64.96   3
       197    682.4271    729.5140 307.6314942  +6.3875507     1025.382     1421.861     1763.298     78.12064     155.3763     311.0313      1.554     5.03     849.4455     54.84615     165.4549        10     1.264     0.566 -81.01   2
       198    264.1789    732.8228 307.8050651  +6.3722540      736.044     1071.047     868.8138      77.7501     155.4383     311.1242      1.431     4.99     849.2686     54.84615       123.04         9     1.380     0.539 -61.19   0
       199    910.4179    730.9805 307.5367669  +6.3945143      1061.08     1885.958      1997.19      77.7501     155.4383     311.0932      1.924     6.36     846.8591     54.84615     129.2687        17     1.409     0.940 -73.35   0
       200    159.0178    732.4175 307.8487460  +6.3689096     791.3282     1116.359     1306.113      77.7501     155.3144     311.0932      1.577     4.57     848.1913     54.84615     124.2161         8     1.017     0.584 -66.82   0
       201    962.9503    730.1492 307.5149788  +6.3965991     2409.147     4278.021      4927.66     77.99732     155.5002     311.0932      1.888     4.22     845.3051     54.84615     329.5139        25     1.465     1.034 -70.84   0
       202    971.1473    729.0330 307.5116117  +6.3973317     379.3638     524.9153     1101.677     77.87381     155.6239     311.0623      1.467     4.95     845.0275     54.84615     81.83191         5     1.580     0.439 -65.81   0
       203    403.4070    725.3586 307.7474995  +6.3799795     598.7755     974.1755     864.3872     77.37779     155.3144     310.8766      1.843     4.71     849.0576     54.84615     97.77893         7     1.352     0.465 -82.81   0
       204   1004.7551    723.4295 307.4978408  +6.4007589     1478.714     2644.602     3180.881      77.6262     155.6858     311.0313      1.986     4.94      843.881     54.84615     193.1346        21     1.434     1.090 -70.88   0
       205    473.6619    724.7416 307.7183461  +6.3825751     529.5596     620.2498     854.2554     78.12064     155.5621      311.186      1.351     3.97     849.2596     54.84615     97.64471         6     1.102     0.410 -76.62   0
       206    806.0253    722.1985 307.5804102  +6.3946767     1102.114     1701.376     2142.565      77.6262     155.3144     310.9385      1.640     4.95     848.3842     54.84615     171.3698        14     1.336     0.801 -70.22   0
       207    892.2818    719.2765 307.5446867  +6.3987453     1574.136     2672.562     3365.756     78.24376     155.8712     311.2788      1.926     4.65     846.9617     54.84615     205.2606        21     1.473     1.005 -68.00   0
       208    866.5173    714.8124 307.5555344  +6.3997338     914.4399     1265.772     1515.434      77.6262     155.3763     311.0004      1.648     5.37     847.4648     54.84615     135.2827        10     1.119     0.727 -83.52   0
       209    652.1688    714.3034 307.6445655  +6.3928251      614.253     888.5167     1140.487     78.12064     155.4383     311.2479      1.489     3.47     849.2444     54.84615     107.9971         5     1.117     0.311 -78.76   0
       210    849.1565    710.7008 307.5628805  +6.4008555     1598.545     2435.561     2459.564     77.99732     155.5002     311.3716      1.625     4.26     847.6257     54.84615     238.2272        19     1.406     0.887 -66.32   0
       211     48.1031    710.0109 307.8955515  +6.3744528     2425.642     3864.092     3861.409      77.7501     155.2524     310.9695      1.712     4.59     846.2948     54.84615     322.1232        22     1.434     0.971 -71.88   0
       212    112.1682    709.0048 307.8689827  +6.3770104     1024.989     2177.752     1956.145     77.37779     155.5002     310.9385      2.180     7.53      847.113     54.84615      146.837        19     1.937     0.818  85.97   0
       213    460.6183    709.2623 307.7242784  +6.3885317     535.8431     759.8958      589.786      77.6262     155.5621     311.0313      1.400     3.42     848.7195     54.84615       92.008         5     0.780     0.434 -70.32   0
       214    566.1909    704.9932 307.6805796  +6.3938093      535.514     876.3356     647.6642     77.37779     155.4383     311.0004      1.358     3.58     849.0993     54.84615     93.48029         5     1.378     0.267 -77.70   0
       215    660.8589    698.3459 307.6414874  +6.3997026      6374.38     9723.284     10537.87     78.12064     155.5621     311.1551      1.641     4.15     848.8405     54.84615     914.3368        29     1.457     0.951 -77.63   0
       216    607.9034    697.5548 307.6635050  +6.3982682     1541.069     2401.373     2550.644     77.99732     155.5002     311.3098      1.735     4.83     849.3152     54.84615     185.9606        15     1.436     0.683 -79.79   0
       217    518.5842    697.9431 307.7005841  +6.3951356     724.8696      1075.81     1150.308     77.37779     155.5621     310.9075      1.700     5.37     848.7129     54.84615     109.6066        10     1.265     0.643 -57.19   0
       218    529.3782    698.1603 307.6960944  +6.3954052     763.0466     946.0232     1182.044      77.6262     155.4383     310.9695      1.268     3.33     848.7435     54.84615     161.3052         6     0.820     0.470 -79.87   0
       219    123.6902    694.4972 307.8646833  +6.3833853     3960.119     5855.349      5875.31     77.99732     156.0563     311.1551      1.597     3.89     846.7877     54.84615      515.609        24     1.405     0.898 -74.75   0
       220    997.8689    693.4973 307.5016927  +6.4128896     2478.643      4056.98     3978.839     77.87381     155.8094     311.1551      1.726     3.77     843.7799     54.84615     346.2096        26     1.410     1.056 -81.06   0
       221    634.8393    694.1031 307.6524340  +6.4005893     2178.232     3269.967     4014.654     77.99732     155.5002     311.3407      1.680     4.26     849.0181     54.84615     278.1373        17     1.304     0.856 -84.09   0
       222    310.8747    693.7075 307.7869803  +6.3899620     711.8329      1179.46     1309.609     77.99732     155.7476     311.1242      2.116     5.43     847.3525     54.84615     143.4498         9     1.650     0.505 -65.68   0
       223    246.6501    693.8200 307.8136464  +6.3877722     843.3501     1474.942     1835.027     77.50209     155.6858     311.0313      2.163     4.84     847.2382     54.84615     133.9724        10     1.312     0.753 -89.68   0
       224    777.7914    690.3438 307.5931934  +6.4068918     19828.56      30523.8     32391.49     77.37779     155.5621     310.8766      1.649     3.90     847.8959     54.84615     2644.364        53     1.633     1.055 -75.97   0
       225    907.8223    690.0034 307.5392042  +6.4113473     3569.349      5437.11     5400.777      77.6262     155.3144     310.9695      1.611     3.68     845.8129     54.84615     420.7991        26     1.410     0.994 -75.60   0
       226    476.7610    690.6326 307.7181957  +6.3967613     1351.075     1979.585     2374.569      77.6262     155.4383     310.9695      1.594     3.99     848.3625     54.84615     212.2758        11     1.217     0.623 -79.44   0
       227    505.4042    690.2515 307.7063136  +6.3978725     1003.534     1353.475     929.7017     77.37779     155.4383     310.7527      1.446     5.35     848.4766     54.84615     165.5766        11     1.295     0.624 -57.50   0
       228    322.7178    690.6177 307.7821654  +6.3916327     741.2416     1047.031     823.1937      77.6262     155.3144     311.1242      1.453     4.53     847.1483     54.84615     101.9183         8     1.071     0.545 -71.26   0
       229    658.2640    683.2896 307.6430659  +6.4058329     7215.701     10971.23     12123.25     77.87381     155.8094      311.186      1.637     3.94     848.5466     54.84615     1147.469        34     1.548     0.968 -70.60   0
       230    251.2836    684.2441 307.8120421  +6.3918805     6579.078     9756.239     10147.85     77.99732      155.624     311.1551      1.591     3.76     846.7956     54.84615     1016.186        31     1.449     0.954 -71.99   0
       231    640.5796    684.2584 307.6503777  +6.4048449     805.8035     1225.765     1466.711      77.6262     155.5002     310.9695      1.621     4.07     848.7827     54.84615     131.0215        10     1.153     0.609  83.78   0
       232    353.5924    683.6014 307.7695783  +6.3955594     650.8742     1107.667      950.907     77.37779     155.3144     310.9695      1.784     4.72     846.7387     54.84615     94.79895         8     1.354     0.467 -68.71   0
       233    918.2142    675.5849 307.5353669  +6.4176452     1511.491     2463.787     2433.542      77.7501     155.3144     311.0932      1.758     4.78     845.1531     54.84615     193.1595        18     1.361     0.930 -64.56   0
       234    729.9812    671.5933 307.6136715  +6.4130456     3709.882     5768.171     6388.573      77.6262     155.3144     311.0004      1.677     3.89      847.726     54.84615     489.7455        27     1.498     0.959 -81.26   0
       235    685.3204    672.4437 307.6321904  +6.4112104     941.0672     1425.833     1066.076     77.99732      155.624     311.1551      1.835     4.98     847.9924     54.84615     117.2274        10     1.394     0.503 -76.76   0
       236    996.3852    667.9902 307.5031543  +6.4233721     8255.305     13643.99     14374.84      77.7501     155.3763     311.0932      1.785     3.96     843.5687     54.84615     1013.441        39     1.586     1.121 -77.83   0
       237     15.6245    668.4629 307.9104287  +6.3905200     1877.885     2996.232     3709.323      77.6262      155.624     311.0932      1.803     4.51     845.8087     54.84615     253.7374        19     1.535     0.807 -74.25   0
       238    934.8205    668.6882 307.5286991  +6.4210434     2247.455     3322.579     3570.916     77.87381     155.3763     311.0623      1.588     3.89      844.582     54.84615     299.2852        20     1.382     0.875 -74.95   0
       239    737.6424    669.5344 307.6105583  +6.4141502     553.6566     973.5007     1487.463     77.99732     155.5621      311.217      1.669     3.54     847.6119     54.84615      88.5672         5     1.097     0.329 -70.54   0
       240    548.9672    666.9734 307.6889981  +6.4089338     500.2138     417.4226     656.4118     77.50209     155.3763     310.9695      1.060     3.77     847.9791     54.84615      79.3302         5     0.655     0.622  -1.22   0
       241    431.9533    666.6639 307.7376021  +6.4051647     552.4954     827.2364     522.8599     77.87381     155.5621      311.186      1.763     4.23     846.5638     54.84615       93.552         6     1.295     0.395 -72.00   0
       242     73.6685    663.3412 307.8864971  +6.3945762     26139.65     39630.77     41438.21     78.12064     155.5621     311.1551      1.650     3.90     845.6938     54.84615     3516.672        54     1.587     1.095 -69.90   0
       243    535.0224    664.0380 307.6948869  +6.4096817     2113.454     3130.908     3087.473      77.6262     155.3763     310.9695      1.528     3.98     847.7591     54.84615     328.3224        16     1.315     0.745 -64.96   0
       244    503.8641    661.3834 307.7079148  +6.4097404     1294.584     2030.517      2442.13     77.50209     155.5621     311.0004      1.667     4.00     847.5275     54.84615     213.1368        14     1.398     0.704 -64.43   0
       245    924.5830    660.3947 307.5332258  +6.4241283     919.7472     1375.093     1152.889      77.6262     155.3144     311.0004      1.632     5.56     844.6339     54.84615     116.1376        11     1.230     0.710 -68.19   0
       246    543.9681    657.6713 307.6913839  +6.4126081      1005.67     1439.739     1714.921     77.87381      155.624     311.1242      1.589     5.07     847.5098     54.84615     151.9493        12     1.218     0.693 -81.10   0
       247    719.7000    655.2569 307.6184842  +6.4194491     3486.376      5384.73     5532.704      77.7501      155.624     311.3716      1.582     3.93     847.1786     54.84615     524.0912        23     1.418     0.870 -72.26   0
       248    741.6870    653.5203 307.6094108  +6.4208966       4074.5     5993.854     5979.896      77.7501     155.8712     311.2788      1.609     4.04     847.0404     54.84615     546.6188        26     1.448     0.906 -71.64   0
       249    409.3083    651.9830 307.7474956  +6.4104715     1454.243     2214.205     2645.627      77.7501     155.3763     311.0623      1.714     4.52     845.4938     54.84615     229.9003        17     1.465     0.771 -70.53   0
       250    573.1887    651.3798 307.6794583  +6.4161783     3248.697      4943.75     4640.809      77.6262     155.3144     311.0623      1.614     4.05     847.4385     54.84615     519.7284        20     1.460     0.793 -72.15   0
       251   1014.5664    649.4148 307.4962193  +6.4316441      4561.47     7509.784     7440.684      77.6262     155.3763     311.0313      1.772     4.00      843.178     54.84615     537.8438        32     1.576     1.032 -72.65  16
       252    979.9746    648.3542 307.5106207  +6.4309358     7557.327     12218.67     12887.12     77.50209     155.6858     311.0313      1.731     3.97     843.6411     54.84615     915.5599        36     1.637     1.037 -72.04   0
       253    317.3539    650.8301 307.7857208  +6.4078812     1407.354     2002.755     1932.467     77.50209     155.6858     311.0313      1.587     3.59     845.3869     54.84615     238.4011        15     1.324     0.734 -75.40   0
       254    233.8693    650.9943 307.8203843  +6.4050271     1642.495     2337.585     2121.415     77.50209     155.2524     311.0004      1.485     4.63     845.4609     54.84615     221.6984        15     1.291     0.762 -73.79   0
       255    533.9738    649.3321 307.6958121  +6.4157186     607.2518     884.5134     888.8497      77.6262     155.5002     311.0623      1.747     6.01     847.0681     54.84615     135.6038         7     1.435     0.709 -79.59   0
       256    699.8441    647.4670 307.6269893  +6.4220057      995.795     1324.056     1420.615     77.99732     155.5621      311.186      1.488     5.77     846.9645     54.84615     118.2131        15     1.331     0.815 -77.15   0
       257     91.5927    645.6295 307.8796464  +6.4024882     827.6849     1538.962     1825.816      77.6262     155.4383     310.9385      1.679     5.41     845.3774     54.84615      119.373        11     1.592     0.520 -64.27   0
       258    425.2675    643.1676 307.7411619  +6.4146431     2933.423     4532.746     5317.054     77.87381      155.624     311.1242      1.658     4.09     845.2967     54.84615     468.2296        20     1.445     0.814 -71.60   0
       259    138.4095    642.2291 307.8603187  +6.4054572      24931.5     37331.62     38508.94     77.50209     155.4383     311.0004      1.611     3.74     845.2937     54.84615     3742.503        49     1.554     1.046 -71.94   0
       260    806.6082    642.2181 307.5828245  +6.4277191     1239.766     1838.931     1680.326      77.6262     155.3763     311.0004      1.636     4.99      846.149     54.84615     185.0856        13     1.220     0.774 -73.94   0
       261    357.9120    636.6400 307.7693513  +6.4150928     819.4023     1141.544     753.2875     77.99732     155.5621      311.186      1.439     4.97     844.6722     54.84615     125.2983        10     1.104     0.634 -58.36   0
       262    974.8719    631.3696 307.5133030  +6.4377795     6366.923      11053.3     11655.12     77.87381      155.624     311.1242      1.848     4.05     843.5344     54.84615     819.1414        42     1.583     1.255 -87.98   0
       263     19.7346    630.8616 307.9099807  +6.4061819     1197.515     1902.156     1994.947     77.99732      155.624     311.1551      1.653     4.97     845.5686     54.84615      191.764        14     1.359     0.787 -67.38   0
       264    568.4095    626.8660 307.6822593  +6.4261406     49563.38     73689.45     76197.23     77.50209     155.4383     311.0623      1.591     3.82     846.1644     54.84615      7456.19        62     1.586     1.027 -72.91   0
       265    933.0876    628.1237 307.5307643  +6.4377347     732.5976     1231.822     1345.882     77.99732     155.9329     311.2479      1.750     4.76     843.9387     54.84615     121.0294         8     1.474     0.435 -79.15   0
       266    211.7169    628.0432 307.8303503  +6.4137633     728.3742     1049.836      864.741     77.99732      155.624     311.1242      1.627     5.17     844.6197     54.84615     112.0035         9     1.151     0.727 -79.52   0
       267    527.5265    626.5475 307.6992485  +6.4249113     658.7633     1221.206     832.8542     77.99732     155.6858      311.186      1.690     5.71       846.05     54.84615     126.4347        10     1.721     0.533 -78.49   0
       268    175.9676    623.7747 307.8453388  +6.4143315     2846.666     4357.304     4106.764     77.50209     155.4383     311.0004      1.550     4.20       844.51     54.84615     359.9376        23     1.467     0.906 -76.15   0
       269    498.8423    623.6638 307.7112570  +6.4251469     552.2923     802.0541      543.254     77.99732     155.5621      311.186      1.498     3.52     845.8721     54.84615     125.4088         5     1.155     0.310 -80.05   0
       270     68.4845    617.9587 307.8901683  +6.4131399     1456.162     2079.957     1957.016     77.99732     155.5621     311.1242      1.455     3.56     845.0951     54.84615      192.051        13     1.127     0.778 -72.78   0
       271    465.6523    610.6779 307.7254734  +6.4294030     66232.73     96928.57     100361.6     77.99732      155.624     311.1551      1.577     3.89     844.8912     54.84615     9063.101        66     1.552     1.033 -70.91   0
       272      9.1637    612.5494 307.9149835  +6.4133887     1864.398     2716.474      3169.32     77.87381     155.5621     311.0623      1.589     3.90     845.5508     54.84615     251.4755        15     1.220     0.794 -70.64   0
       273    651.3767    607.9219 307.6484332  +6.4367221     938.4622     1228.244     1211.346      77.6262     155.4383     311.0932      1.466     3.70     845.3912     54.84615     161.1778        11     1.146     0.712  79.34   0
       274    140.0360    605.9671 307.8608558  +6.4204831     1834.681      2830.72     2657.327      77.6262     155.3763     310.9075      1.626     4.21     844.0974     54.84615     271.0223        21     1.472     0.928 -55.44   0
       275    419.4362    603.7093 307.7448993  +6.4307403     870.2369     1316.154     1554.825     78.12064     155.5621      311.186      1.485     4.89     843.4964     54.84615     139.3028         9     1.368     0.495 -62.96   0
       276    611.7987    602.2169 307.6650601  +6.4377614     829.6099     1233.219     1307.462      77.6262     155.1904     310.8766      1.354     4.32     844.9355     54.84615     157.5925        10     1.315     0.540 -71.99   0
       277    493.3877    601.6230 307.7142567  +6.4340655     588.1812     851.3214     1087.542      77.6262     155.4383     311.0623      2.294     3.88     844.8941     54.84615     98.82599         5     1.160     0.373 -73.40   0
       278    311.0771    600.0922 307.7900210  +6.4286203     2393.661     3675.921      4293.08      77.7501     155.8094      311.186      1.609     4.25     843.3823     54.84615     320.5567        18     1.314     0.824 -84.88   0
       279     11.9976    601.8635 307.9141644  +6.4178954     742.9946     1102.657     1618.742     77.37779     155.4383     310.9385      1.648     5.34     845.4638     54.84615     107.2567         6     1.189     0.677 -63.60   0
       280     18.4724    600.2299 307.9115303  +6.4187865      570.649     961.0411     1533.054     77.87381      155.624     311.1242      1.792     4.61     845.3859     54.84615     100.0125         6     1.156     0.521 -44.67   0
       281    463.1250    598.7100 307.7269219  +6.4342601     967.0314      1229.09     1808.249     77.99732     155.9329      311.217      1.520     4.06     844.3561     54.84615     163.7197        10     1.093     0.663 -76.27   0
       282    737.6528    594.1214 307.6130605  +6.4452877      5307.99     7801.132     8296.725     77.99732      155.624     311.1551      1.554     4.03     845.0179     54.84615     739.2753        27     1.457     0.884 -74.77   0
       283    791.2833    589.3510 307.5909452  +6.4490386     14108.75     20986.07     21385.34     77.99732      155.624     311.2479      1.609     3.88     844.4642     54.84615     2164.549        38     1.521     0.969 -73.06   0
       284   1008.2827    589.5848 307.5008122  +6.4561393       894.96     1310.432      1066.39      77.6262     155.3144     311.0313      1.620     4.41     842.4886     54.84615     138.0599        11     1.238     0.758 -75.41   0
       285    533.6651    588.6075 307.6979628  +6.4407804     1198.649     2156.051     2787.056      77.5021     155.3763     311.0004      2.042     6.37     844.4279     54.84615     189.5383        22     2.070     0.815 -80.98   0
       286    615.2677    587.4875 307.6641096  +6.4439584     3067.491     4247.451     4435.953     78.12064     155.8712      311.186      1.534     3.80     844.2643     54.84615      513.473        18     1.428     0.716 -67.73   0
       287     36.7744    588.6953 307.9043160  +6.4241611     720.3036     1194.402      1137.43     78.12064     155.3763     311.0313      1.861     4.63      845.063     54.84615     127.3754         7     1.092     0.558 -70.37   0
       288    932.1770    583.5853 307.5326200  +6.4560940     1120.828     1886.957     2499.332      77.7501     155.4383     311.0623      2.065     4.13     842.7429     54.84615     172.8808        13     1.256     0.783 -76.57   0
       289    373.4899    581.0189 307.7647376  +6.4385770     993.4199     1606.899     1791.666      77.7501     155.3763     311.0623      1.556     5.03     842.6782     54.84615     163.4536        10     1.225     0.584 -67.62   0
       290    227.4623    581.2120 307.8253762  +6.4336245     1345.095     1974.417     2309.769     77.50209     155.4383     310.9075      1.554     3.75     843.2553     54.84615     218.4829        13     1.235     0.675 -69.30   0
       291    867.2505    572.6277 307.5599495  +6.4584648     2869.823     4362.007     5039.081      77.6262     155.7476     311.0932      1.681     3.97     843.1618     54.84615     441.7744        24     1.373     0.982 -74.36   0
       292    162.5004    572.9963 307.8526290  +6.4348465     672.6747     965.5724     948.8239      77.7501     155.3763     310.8146      1.530     4.05     843.2441     54.84615     113.7484         6     0.959     0.500  88.91   0
       293    825.9793    570.0031 307.5771778  +6.4581789     2539.465     3895.935     4436.705      77.6262     155.3144     310.9385      1.661     4.22      843.598     54.84615     366.0643        22     1.497     0.869 -64.07   0
       294    739.5118    566.7592 307.6131979  +6.4566469     585.3571     977.5487     1480.189     77.99732     155.5621      311.186      1.794     4.84     844.0951     54.84615     80.78333         8     1.349     0.493  86.11   0
       295    254.0098    565.2180 307.8148854  +6.4411144      8027.06     12015.56     12847.23      77.7501     155.3763     311.0313      1.580     3.97     842.5607     54.84615     1137.149        32     1.496     0.936 -71.61   0
       296    797.0386    565.7688 307.5893383  +6.4589664     2445.556     3806.266     4667.088      77.6262     155.3763     311.0004      1.704     4.27     843.8643     54.84615     340.6145        20     1.415     0.900 -69.36   0
       297    806.6187    561.1682 307.5855123  +6.4611840     158182.9     239216.4       250038      77.6262     155.4383     311.0313      1.618     3.85     843.6329     54.84615     23337.78       120     1.698     1.146 -75.59   0
       298    188.1945    559.8361 307.8423983  +6.4411385     59809.68     90482.82     95294.68     77.12859     155.3763     310.9385      1.607     3.80     842.9299     54.84615      8713.52        76     1.626     1.112 -69.45   0
       299    112.0908    556.0427 307.8741308  +6.4401613      6435.66     9626.593     10012.72     77.99732     155.6239     311.2479      1.561     3.89     843.4324     54.84615     960.8713        29     1.455     0.906 -72.75   0
       300    977.6153    553.1139 307.5147586  +6.4701816     1210.522     2117.793     2146.923      77.6262     155.3763     311.0623      1.872     4.66     841.4775     54.84615     158.4411        14     1.240     0.932 -60.83   0
       301    997.9739    551.8399 307.5063451  +6.4713823     640.0966     875.6519     709.9528      77.6262     155.4383     310.9695      1.517     3.88     841.3762     54.84615     100.2196         6     0.973     0.444 -34.96   0
       302    226.7839    551.2544 307.8266589  +6.4459705     688.5995     1138.296     1259.347     77.37779      155.624     310.8766      2.253     6.46     842.5779     54.84615     90.31989        11     1.567     0.748 -67.69   0
       303    843.1356    548.3997 307.5707696  +6.4676682     4461.393     6584.257     7419.649     77.25329     155.2524     310.9075      1.572     3.83     842.5579     54.84615     684.4128        27     1.434     0.908 -75.28   0
       304    361.5795    546.8762 307.7708232  +6.4522766     17810.44     26588.67     27584.03      77.6262     155.3763     311.0932      1.569     3.93     841.5573     54.84615     2505.737        38     1.513     0.958 -71.53   0
       305    452.0276    546.6785 307.7332652  +6.4553732     753.6778     956.4824     1099.871     77.87381     155.5621     311.1551      1.467     5.23     842.4678     54.84615     115.7135         9     1.228     0.630 -71.59   0
       306    163.3852    545.7466 307.8531726  +6.4461267     1898.372     2807.879     2948.733     77.37779     155.5621     310.8766      1.611     4.19     842.7617     54.84615     281.0026        16     1.380     0.790 -62.23   2
       307    168.3999    543.4216 307.8511677  +6.4472542     739.0863     1197.127     1585.178      77.5021     155.3144     310.8456      1.650     4.23     842.7069     54.84615     98.14899         6     0.928     0.548 -46.70   3
       308    238.7210    543.5764 307.8219578  +6.4495392     836.3265     1311.845     893.8058      77.6262     155.4383     311.1242      1.529     5.05     842.1932     54.84615     170.4113        10     1.395     0.562 -72.45   0
       309    797.0617    541.8286 307.5901241  +6.4688519     5833.502      8735.87     9100.113      77.6262      155.624     311.1242      1.563     3.82     843.2401     54.84615     870.3193        30     1.449     0.945 -74.41   0
       310    100.7815    543.2850 307.8792543  +6.4450504     803.2814     1387.188      1557.84      77.6262     155.3763     311.0932      1.792     4.33     843.2872     54.84615     148.0858         9     1.255     0.500 -76.20   0
       311    527.9887    541.6086 307.7018859  +6.4599965     6795.356     9966.145     10432.86      77.6262     155.4383     311.0932      1.560     4.00     842.5166     54.84615     1053.462        26     1.484     0.837 -69.67   0
       312    386.4502    538.2783 307.7607809  +6.4566558     1466.744     2113.169     2172.761     77.99732     155.6858     311.1551      1.696     5.28     841.6981     54.84615     220.0608        16     1.481     0.882 -54.43   0
       313    174.9354    535.0021 307.8487350  +6.4509487     6885.999     10381.23     10381.45     77.37779     155.3763     310.9385      1.549     3.97     842.5811     54.84615     1005.405        31     1.493     0.915 -72.28   0
       314    572.6804    534.6450 307.6835561  +6.4643593      2481.59     4162.162     4378.436     77.99732      155.624     311.1551      1.821     5.06     842.2202     54.84615       332.78        26     1.725     0.932 -55.24   0
       315    813.7346    534.2028 307.5834525  +6.4725540     1303.467     1923.877     1940.712     77.37779     155.3763     310.9385      1.495     4.41     842.6939     54.84615     179.0818        14     1.328     0.728 -75.51   0
       316     46.4760    533.7855 307.9021251  +6.4471561     5107.089     7942.906     8598.284     77.50209     155.3763     311.0004      1.649     3.98     844.3283     54.84615     720.4249        25     1.443     0.916 -71.60   0
       317    855.9683    534.5997 307.5658979  +6.4737919     526.3656     975.1258     1147.516     77.37779     155.4383     310.9075      1.883     4.15      841.952     54.84615     83.43823         5     1.073     0.458 -64.48   0
       318    270.1571    531.3959 307.8093090  +6.4556177     89718.51     133384.9     139148.6     77.37779     155.3144     310.8766      1.597     3.82     841.2548     54.84615     14075.42        82     1.605     1.100 -70.51   0
       319    559.5396    528.8763 307.6892060  +6.4663037     929.5489     1229.571     1424.087     78.24376     155.6858     311.1242      1.336     3.75      842.091     54.84615     165.9144         7     0.962     0.489 -83.44   0
       320    253.9913    526.4025 307.8161897  +6.4571397     1485.303     2354.381     2835.862     77.37779     155.3144     310.9695      1.985     4.26     841.3544     54.84615     208.2419        15     1.363     0.700 -66.96   0
       321    969.6578    524.9091 307.5189991  +6.4815634      1526.56      2284.65     2604.135     77.87381     155.5621     311.2479      1.599     4.25     840.8134     54.84615     219.8086        18     1.514     0.784 -76.53   0
       322    793.3329    523.5510 307.5922800  +6.4762746     16424.48     23958.78      24815.8     77.87381     155.5621      311.186      1.595     3.86     842.5428     54.84615     2547.875        39     1.528     0.971 -72.61   0
       323    647.5038    520.3759 307.6529544  +6.4727398     1053.867     1687.452     1966.293     78.12064     155.3763     311.0313      1.855     4.31     841.7484     54.84615     160.1965        11     1.198     0.674 -74.85   0
       324    209.3560    518.7433 307.8349832  +6.4588114     1944.992     3209.068     3532.022     77.87381      155.624     311.1551      1.732     4.60     841.8267     54.84615     273.9996        23     1.621     0.915 -78.00   0
       325    720.5107    520.4204 307.6226302  +6.4751483     522.2074     745.4415     995.7209     77.87381     155.3763     311.0004      1.002     2.93     842.2532     54.84615     110.3537         5     0.732     0.452  67.84   3
       326    719.2300    515.8624 307.6233137  +6.4769877     1333.701     2015.065     2516.329      77.7501      155.624     311.0932      1.720     4.47     842.0854     54.84615     190.8383        14     1.296     0.751 -79.52   2
       327     44.9395    518.9836 307.9032587  +6.4532160     1148.954     1742.555     1681.513     77.50209     155.5621     310.9075      1.581     4.14     844.2196     54.84615     178.8125        14     1.265     0.756 -83.59   0
       328    656.9459    516.9656 307.6491462  +6.4744619     2804.031     4209.469     4921.541     77.87381     155.6239     311.1551      1.580     3.97     841.6841     54.84615      422.979        20     1.464     0.753 -71.17   0
       329    496.9362    522.0884 307.7154332  +6.4670220     41348.73     67018.61     70832.63     77.87381     155.8094      311.186      1.740     3.79     841.7585     54.84615       6208.6        66     1.619     1.270 -67.56   0
       330     95.3330    518.9487 307.8823312  +6.4549160     547.0171     794.0098     720.2248     77.87381     155.5002     311.1551      1.407     4.19     843.0665     54.84615     109.6411         5     1.091     0.458 -83.59   0
       331    666.9182    516.7950 307.6450100  +6.4748639     1316.506     2193.745     2148.791      77.6262     155.2524     310.9385      1.580     3.99     841.7213     54.84615     236.5484        11     1.365     0.602 -77.24   0
       332     75.7427    515.0094 307.8905990  +6.4558872     814.2535     1204.107     1100.517     77.37779     155.5621     310.8766      1.454     5.10     843.4605     54.84615     114.4213         9     1.145     0.642  89.30   0
       333    394.5579    512.9250 307.7582593  +6.4673939     1737.244     2771.206     3019.088     77.87381     155.6858      311.186      1.577     3.99     840.9059     54.84615     267.7947        18     1.450     0.819 -72.65   0
       334    326.1177    511.1701 307.7867428  +6.4658360     3955.532     5539.675     5456.554     77.87381     155.4383     311.1242      1.469     3.78     840.4037     54.84615     635.3422        21     1.400     0.790 -68.65   0
       335    141.2353    509.8451 307.8635721  +6.4602091     26497.68     39448.09     40859.43      77.7501     155.5621     311.0623      1.578     3.79     842.6968     54.84615     3834.935        47     1.541     0.995 -71.31   0
       336    505.9724    510.3894 307.7120700  +6.4721532     2175.283     3140.465     3217.836      77.6262     155.4383     311.0313      1.519     3.73     841.4339     54.84615     317.7314        18     1.356     0.761 -71.51   0
       337    869.2651    509.6589 307.5612032  +6.4845308      1560.46     2483.372     2983.406     78.12064     155.5621      311.186      1.692     3.85     841.3006     54.84615     225.6049        14     1.226     0.756 -71.28   0
       338    106.3855    508.1715 307.8781016  +6.4597351     2884.758     4173.886     4387.998      77.6262     155.4383     311.0623      1.550     3.97     842.8409     54.84615     417.8999        19     1.403     0.813 -77.50   0
       339    411.1945    509.4290 307.7514663  +6.4693920     536.0192     566.7543     184.5091     77.50209     155.4383     310.9695      1.335     4.47     840.9092     54.84615     88.35571         5     0.975     0.582 -46.56   0
       340    343.2187    506.3011 307.7798029  +6.4684167     999.2139     1535.445     2156.551     77.99732     155.5002     310.9075      1.531     3.40     840.2676     54.84615     192.2855        10     1.167     0.581 -74.43   0
       341    966.8875    503.8959 307.5208467  +6.4901477     4896.919     7592.215     7886.418     77.99732     155.9946      311.186      1.648     4.19     840.4083     54.84615     632.3949        30     1.520     0.963 -72.14   0
       342    539.9702    496.6758 307.6984063  +6.4789473     1405.094     2180.799      2262.45     77.87381     155.6858     311.1551      1.573     4.52     841.0417     54.84615     224.2844        15     1.406     0.681 -69.96   0
       343      5.4861    494.2538 307.9204719  +6.4621058      25531.9     38499.19     39869.35     77.99732     155.5621     290.2517      1.627     3.83     844.9997     54.84615      3769.49        49     1.554     1.056 -71.10  24
       344    438.2531    490.7870 307.7408496  +6.4779907     44199.78     64755.21     67194.86     77.37779     155.5621     310.9075      1.571     3.72     840.4209     54.84615     6689.121        59     1.525     1.027 -71.79   0
       345    414.8854    493.6314 307.7504602  +6.4760375     546.6756     728.7579     701.2704     77.99732     155.4383     311.0623      1.382     4.50     840.3054     54.84615     83.84448         7     1.101     0.523 -66.50   0
       346    646.2990    490.3595 307.6544536  +6.4850931     12730.22     18287.23     19117.67     77.99732     155.5002     311.3716      1.562     3.97     840.7695     54.84615     2064.857        33     1.475     0.899 -72.29   0
       347    286.0179    490.9661 307.8040719  +6.4728396      1135.07     1833.085     1779.299     77.50209     155.4383     310.9695      1.714     5.95     839.8924     54.84615     155.8661        14     1.421     0.700 -79.19   0
       348    203.3980    488.4985 307.8384685  +6.4710997     19597.91     30673.84     31706.24      77.5021     155.3763     310.8456      1.725     3.91     841.1603     54.84615     2414.896        46     1.545     1.140 -76.43   0
       349    979.9680    488.5579 307.5159223  +6.4969142     1107.158     1775.566     1617.894     77.50209      155.624     311.0004      1.700     4.71     839.8445     54.84615     177.2745        14     1.387     0.789 -74.49   0
       350    169.0464    489.2454 307.8527106  +6.4696436      1511.41     2120.062     2130.928     77.99732     155.5621      311.186      1.607     4.90     842.2583     54.84615     231.1528        14     1.379     0.743 -74.39   0
       351    908.8204    488.3771 307.5454801  +6.4946300     723.5242     1039.623     992.9695      77.7501     155.4383     311.0932      1.424     4.74     840.8586     54.84615      104.068         6     0.971     0.656 -83.95   0
       352    820.2935    488.2606 307.5822544  +6.4917407     1098.296     1525.777     1311.114     77.87381      155.624      311.186      1.516     5.02     841.0765     54.84615      156.114        10     1.124     0.669 -61.24   0
       353    568.1233    487.1913 307.6870291  +6.4838004     2900.846     4253.066     4165.141      77.6262     155.1283     310.9695      1.573     3.87     840.6749     54.84615     479.4167        18     1.325     0.811 -78.20   0
       354    941.9460    484.1994 307.5318597  +6.4974534     4496.141     6803.246      7115.56     77.25329     155.3144     310.7527      1.565     3.88     840.5251     54.84615     643.1763        28     1.488     0.946 -74.85   0
       355    615.0787    482.7401 307.6676744  +6.4872006     6694.437     9636.966     10259.03     78.12064      155.624     311.1242      1.536     3.70     840.5366     54.84615     1072.194        28     1.446     0.851 -70.76   0
       356    102.6384    483.6607 307.8804779  +6.4697295     1252.081     1982.202     2160.201     77.99732     155.6858     311.1551      1.773     4.88     842.5701     54.84615     223.6109        14     1.419     0.747 -75.83   0
       357    214.8439    482.5474 307.8339137  +6.4739390     555.6844      826.484     884.6714     77.99732      155.624     311.1551      1.533     4.81     840.6226     54.84615     90.84827         6     1.211     0.623  79.44   0
       358    964.5499    476.3755 307.5227304  +6.5014332      3308.74     4996.342     4994.921      77.6262      155.624     311.0623      1.623     3.78     839.7343     54.84615     485.7076        25     1.543     0.902 -85.52   0
       359    527.3094    474.1191 307.7044164  +6.4878390     7704.979     11277.89     11328.27      77.7501     155.8712      311.186      1.534     3.69     840.1537     54.84615     1221.707        34     1.491     0.929 -74.42   0
       360    403.1720    475.7960 307.7559201  +6.4830109     756.2685     1052.964      1308.93     77.50209     155.4383     311.0004      1.464     4.34     839.4807     54.84615     145.2238         9     1.308     0.535 -76.02   0
       361    373.2723    474.3630 307.7683865  +6.4826056     2877.481     4138.608     4341.393     77.87381      155.624      311.217      1.511     3.96     839.3452     54.84615     452.6868        21     1.473     0.785 -66.85   0
       362    742.9853    473.9952 307.6148389  +6.4950634     566.6323     580.6547     486.8876      77.6262     155.3144     311.0004      1.373     3.90     840.5986     54.84615     119.0489         5     0.856     0.510  65.63   0
       363    994.5702    472.2831 307.5103967  +6.5041178     476.8007     799.2143     113.4225     77.99732     155.4383     311.0623      1.887     4.93     838.9268     54.84615     78.84094         6     1.474     0.467  62.29   0
       364     96.0027    473.4865 307.8835742  +6.4737083     546.3534      665.981      728.676     77.37779     155.2524     310.8766      1.455     4.78     842.5562     54.84615     74.38202         7     1.141     0.569 -25.95   0
       365    883.8618    469.8237 307.5564629  +6.5014627     3106.901     4853.752     5799.609      77.6262     155.5621     311.0623      1.679     3.96     840.3493     54.84615      460.956        26     1.553     0.883 -71.25   0
       366    536.6002    470.8564 307.7006661  +6.4894955     667.8764     994.8412     1370.059     77.25329     155.2524     310.8456      1.865     5.24     839.9935     54.84615     117.2202         7     1.581     0.490 -70.80   0
       367    231.6775    469.3684 307.8273626  +6.4799425     745.5348     992.1285     773.4749     77.87381      155.624     311.1242      1.509     4.84     839.8484     54.84615     103.5751         9     1.165     0.570 -75.79   0
       368    930.6543    463.7177 307.5372295  +6.5055357     1282.716     1997.828      1872.71     77.99732      155.624      311.217      1.665     4.37     839.7891     54.84615     230.7584        14     1.395     0.858 -81.13   0
       369    891.2440    464.0974 307.5535866  +6.5040718     2096.527     3229.166     3531.584     77.99732     155.5621     311.3716      1.661     4.41     840.0722     54.84615     304.3553        18     1.416     0.799 -67.67   0
       370    109.8214    463.9361 307.8781545  +6.4781134     822.8104     1202.544      1353.01      77.6262      155.624     311.0313      1.343     4.42     842.3915     54.84615     145.2943         8     1.004     0.627  78.33   0
       371    715.1936    459.9935 307.6268480  +6.4999211     3011.603     4311.217     4375.927     77.37779     155.4383     310.9695      1.497     3.69     839.8898     54.84615     471.9994        19     1.336     0.793 -66.87   0
       372     76.8756    459.4457 307.8919880  +6.4788655     2017.058     2897.141     2926.237     77.87381     155.6858      311.186      1.590     4.05      842.909     54.84615     330.5138        17     1.357     0.788 -69.94   0
       373    426.3925    458.5014 307.7468525  +6.4909254     909.7676     1346.278     1377.951      77.7501     155.2524     310.9695      1.662     5.48     838.7386     54.84615     138.6833        10     1.346     0.641 -66.71   0
       374    386.0152    458.4694 307.7636241  +6.4895926     4040.434     5895.676     6087.637     77.50209     155.5002     311.0623      1.575     3.73     838.6534     54.84615     615.1643        23     1.409     0.835 -71.23   0
       375    613.7363    454.9135 307.6691583  +6.4986451     10440.42     15188.52     15599.04     78.12064     155.7476      311.186      1.527     3.84     839.2308     54.84615     1471.439        32     1.501     0.872 -68.36   0
       376    776.4444    451.4719 307.6016899  +6.5054744     16742.62     24565.65     25742.49     77.87381      155.624      311.186      1.616     3.84     839.7978     54.84615     2663.133        44     1.575     0.977 -73.32   2
       377    780.5322    446.7979 307.6001473  +6.5075400     1477.757      2330.75     2817.595     77.37779     155.1904     310.9695      1.640     4.87     839.6735     54.84615     239.9974        14     1.482     0.690 -87.96   3
       378    296.1106    451.9421 307.8011833  +6.4892885     2738.021     3968.894     3591.327     77.87381     155.5621     311.2788      1.560     4.25     838.6174     54.84615     409.2148        20     1.434     0.810 -70.57   0
       379    419.8357    451.3600 307.7498141  +6.4936555     652.9849     844.9866     871.1462      77.7501      155.624     310.9695      1.727     4.87     838.2801     54.84615      90.9057         8     1.315     0.511 -76.39   0
       380    805.4587    448.6403 307.5897324  +6.5076070     1225.488     1723.494     1394.959     77.99732      155.624      311.217      1.630     5.24     839.8152     54.84615     169.7789        13     1.297     0.733 -72.27   0
       381    379.2523    448.6450 307.7667609  +6.4934234     1815.073     2551.728     3423.503     77.99732      155.624     311.1551      1.616     4.20     838.2759     54.84615     249.1913        16     1.375     0.686 -67.75   0
       382    394.6059    447.9691 307.7604063  +6.4942144     416.2802     526.6028     875.3196     77.37779     155.5002     310.9385      1.339     3.46     838.1805     54.84615     64.74878         5     1.460     0.237 -72.75   0
       383    961.6667    446.2220 307.5249282  +6.5137877     1621.923     2595.993     2234.592      77.6262      155.624     311.0623      1.653     4.34     838.3103     54.84615     220.2941        17     1.455     0.779 -66.09   0
       384    709.8658    445.6980 307.6295364  +6.5056464     559.4622     1041.708     956.1675     77.99732     155.6858      311.186      1.865     4.94     839.2917     54.84615     99.37775         7     1.381     0.499 -75.81   0
       385    113.7837    443.6372 307.8771880  +6.4866266     4573.006     7033.971     7202.167      77.7501     155.4383     310.9075      1.626     4.02     842.1477     54.84615     596.0746        27     1.457     0.899 -77.02   0
       386    367.8120    444.7372 307.7716430  +6.4946553     808.3771     1090.901     1288.508     77.50209     155.4383     310.9385      1.545     4.42     838.1454     54.84615     127.6294         7     1.056     0.526 -63.89   0
       387    752.0241    442.4373 307.6121336  +6.5083935     2425.104     3625.003       3550.7      77.6262     155.4383     310.9075      1.604     3.76     839.3657     54.84615     398.4561        20     1.382     0.842 -70.39   0
       388   1015.7161    441.0135 307.5026501  +6.5177294     3722.712      6967.72     7486.271      77.6262     155.4383     311.0004      1.967     4.35     837.2676     54.84615     406.3464        37     1.536     1.322  88.30  16
       389    271.7022    440.7585 307.8116946  +6.4930912     1577.584     2320.538     2445.422     77.99732     155.5002     311.3716      1.508     4.89     838.5414     54.84615     231.8489        16     1.539     0.678 -55.00   0
       390    349.9041    438.1893 307.7792995  +6.4967615     3337.563     4882.799     5044.422      77.7501     155.2524     310.9385      1.543     3.86     837.9447     54.84615     525.2104        23     1.441     0.848 -67.93   0
       391    979.7449    434.9991 307.5177912  +6.5190207     594.5629     1019.548     902.7773     77.37779     155.3763     310.7837      1.723     6.88     837.5197     54.84615      107.835         9     1.550     0.857  89.24   0
       392    705.7763    435.9990 307.6315576  +6.5095151     1649.139     2498.133     2379.028      77.6262     155.3144     310.9385      1.532     4.96      838.862     54.84615     223.9888        13     1.330     0.637 -68.58   0
       393    409.3160    434.1973 307.7547559  +6.5003909     508.7166     594.9032     612.9766     77.37779     155.2524     310.8456      1.292     4.00     837.4565     54.84615     77.99817         6     1.094     0.418 -78.43   0
       394    237.3921    434.5631 307.8261521  +6.4945035     952.0984      1160.27     1409.001     77.25329     155.3763     310.8766      1.482     3.60      838.942     54.84615      156.095         9     1.018     0.597 -79.87   0
       395    695.7723    428.3724 307.6359666  +6.5123315     520.2247     858.1661     699.5388     77.50209     155.4383     310.9695      1.639     4.48     838.4758     54.84615      81.3656         8     1.750     0.327 -58.97   0
       396    547.1858    428.8655 307.6976682  +6.5071852     1038.936     1770.549     2127.346     77.50209     155.5002     311.0932      1.853     5.19     837.9504     54.84615     163.2091        14     1.323     0.820 -83.82   0
       397    448.1802    429.5805 307.7387674  +6.5035924     705.4044     887.7596     624.4072      77.7501     155.5621     311.0932      1.232     3.58      837.298     54.84615     109.4034         5     1.004     0.367 -83.07   0
       398    469.4469    426.6735 307.7300310  +6.5055013     1438.336     2118.187     1886.661     77.87381     155.6858     311.1551      1.570     4.41     837.1738     54.84615     234.5024        17     1.444     0.779 -71.83   0
       399    831.8046    426.0851 307.5795383  +6.5177944     1580.263     2165.189     2195.229     77.50209     155.2524     310.8146      1.469     3.37     839.0505     54.84615     254.2114        13     1.218     0.687 -72.86   0
       400    616.9865    425.6511 307.6687824  +6.5108352     797.3558      1255.95      1217.18     77.37779      155.624     310.9075      1.609     5.26     837.8604     54.84615     126.1093        10     1.246     0.628 -76.87   0
       401    817.6888    424.8236 307.5854436  +6.5178466     1964.208     2752.608     2613.625     77.99732     155.4383     311.0313      1.483     3.91     839.0209     54.84615     292.1613        17     1.371     0.790 -70.74   0
       402    714.9338    423.2059 307.6281793  +6.5151015     15268.81     22392.76     23075.43     77.50209     155.3763     310.9695      1.514     3.83     838.3917     54.84615     2361.072        37     1.470     0.944 -73.54   0
       403    635.9405    419.2679 307.6611220  +6.5141011     2779.781     3837.371      4452.54     78.12064     155.5621     311.1551      1.504     4.20     837.6769     54.84615     476.7611        17     1.304     0.759 -73.50   0
       404    611.1085    416.4900 307.6715289  +6.5144221      5653.33     8211.338     8836.255     77.99732      156.118     311.2479      1.574     3.56     837.3143     54.84615     973.1572        25     1.475     0.836 -74.13   3
       405    607.3813    413.7420 307.6731685  +6.5154327     15327.88     22105.79     22729.49      77.6262     155.5002     310.9385      1.544     3.67     837.1588     54.84615     2421.632        35     1.449     0.933 -71.48   3
       406    708.7266    417.6944 307.6309409  +6.5171708     636.5883     967.5333     1184.451     77.87381     155.7476     311.1551      1.365     4.55     838.1519     54.84615     126.1424         7     1.056     0.558 -64.01   0
       407    940.1702    412.8640 307.5349642  +6.5268482     3728.852     5692.116     5707.193      77.7501     155.6858     311.0932      1.590     3.85     836.9937     54.84615     559.4869        23     1.508     0.822 -72.62   0
       408    379.3005    409.2378 307.7680558  +6.5096953      30607.2     44522.92     45636.84     77.99732     155.5002     311.3716      1.562     3.76     836.6122     54.84615     4906.854        52     1.527     1.008 -73.04   0
       409    416.1032    410.3883 307.7527310  +6.5104473     601.4617     910.9024     975.2298      77.7501     155.3763     310.9695      1.609     4.35     836.3264     54.84615     108.3985         7     1.226     0.440 -69.59   0
       410    125.3485    408.9665 307.8735445  +6.5013278     2400.775     3543.809     3336.492     77.87381      155.624     311.0623      1.554     3.71     841.3997     54.84615      366.796        20     1.380     0.811 -73.47   0
       411    895.8797    408.7515 307.5534983  +6.5270773     1390.759     2110.638     2598.664     77.99732     155.6858     311.1242      1.626     3.75     837.7622     54.84615     206.0979        15     1.327     0.716 -86.68   0
       412    908.9501    403.2717 307.5482509  +6.5297734     4992.559     7299.741     5869.249     77.99732      155.624      311.186      1.559     3.85     837.2952     54.84615     713.3826        28     1.609     0.846 -76.39   0
       413    590.6979    405.1499 307.6803845  +6.5184251     641.9334     1079.599     1285.798     77.99732     155.5621     311.3098      1.716     5.49     836.5233     54.84615     99.78265         7     1.237     0.687 -64.46   0
       414     58.6384    404.4565 307.9014031  +6.5009587     1578.541     2666.604     2652.047     77.99732     155.6858     311.1551      1.826     4.36     842.6161     54.84615     191.6176        19     1.421     0.870 -67.68   0
       415    964.5386    401.8515 307.5252072  +6.5322030     707.0979     926.3831      1004.97     77.99732     155.5621     311.1551      1.530     4.09     836.3888     54.84615     94.64935         7     1.006     0.476 -80.38   0
       416    236.8118    399.8084 307.8275545  +6.5088334     14584.77     21622.17      22316.8      77.6262     155.4383     311.0932      1.573     3.92     838.1606     54.84615     1969.829        42     1.514     0.983 -71.36   0
       417     72.2551    394.1960 307.8960909  +6.5056505      885.105     1306.998      1753.72     77.37779     155.4383     310.8146      1.661     4.13     842.3652     54.84615     130.1959        10     1.104     0.606 -69.97   0
       418    959.9375    392.0564 307.5274434  +6.5360948     1062.159     1685.853     1737.361     78.12064     155.5621      311.186      1.624     5.27     836.1566     54.84615     149.9755        14     1.380     0.862 -84.46   0
       419    731.7820    392.8856 307.6221892  +6.5281802     738.2396     951.1194     1132.682      77.6262     155.3763     311.0932      1.562     5.67      836.938     54.84615     100.7505        11     1.431     0.633 -76.29   0
       420    699.9130    392.5922 307.6354368  +6.5272422     850.3466     1192.924     1305.221      77.6262     155.3144     310.9075      1.407     5.16      836.704     54.84615      181.916         9     1.252     0.602 -47.43   0
       421    349.6339    389.4818 307.7810376  +6.5168627     1275.252     1848.294     1946.335     77.87381     155.5621     311.1242      1.555     4.06     836.1461     54.84615     192.0777        13     1.327     0.652 -72.59   0
       422    137.0077    388.5671 307.8693843  +6.5101398     5263.491     7845.313     7981.165     77.50209     155.5002     310.9695      1.593     3.93     840.8424     54.84615     754.1431        27     1.503     0.873 -66.87   0
       423    182.4440    389.2525 307.8504893  +6.5113755     843.6204     1168.007     1210.942     77.99732      155.624     311.1551      1.449     4.61     839.5178     54.84615     118.7886         8     0.954     0.632 -85.17   0
       424    434.8243    386.9853 307.7457355  +6.5207340      727.677     1106.698     992.7007      77.7501     155.4383     311.0932      1.717     6.81     835.2984     54.84615     127.2719        10     1.475     0.881 -82.54   0
       425    630.2498    387.1607 307.6645544  +6.5271684     525.8076     721.7332     650.7131     77.87381      155.624     311.0932      1.590     4.36     835.5751     54.84615     111.6652         7     1.258     0.429 -65.39   0
       426    241.9542    387.1946 307.8258401  +6.5142130     1392.257     2022.921     1734.675     77.37779     155.3763     310.8146      1.543     5.14     837.7867     54.84615     230.4962        13     1.299     0.639 -70.93   0
       427    159.0476    384.1710 307.8603770  +6.5126916     2553.645     4107.702     3981.941      77.6262     155.6858     311.0623      1.697     4.12     840.1913     54.84615     377.4235        25     1.612     0.879 -74.50   0
       428    823.2305    384.8232 307.5844706  +6.5345462     755.8591      941.387     662.8115     77.37779     155.5002     311.0004      1.414     4.69     837.5823     54.84615     136.1227         7     1.047     0.595 -72.90   0
       429    554.4826    383.2829 307.6961557  +6.5262483     1014.324     1387.604     1786.747      77.7501     155.8712     311.2479      1.512     5.29     834.9037     54.84615      137.886        12     1.331     0.632 -68.19   0
       430    382.4608    378.9800 307.7677528  +6.5222934     2064.723      3250.41      2983.28      77.6262     155.5621     311.0932      1.588     4.59     835.5203     54.84615      320.334        18     1.516     0.754 -74.37   0
       431    971.0148    378.2017 307.5233016  +6.5421824     1059.728      1715.05     1931.528      77.6262     155.3144     310.9385      1.972     6.01     835.5685     54.84615     159.6332        15     1.706     0.641 -58.02   0
       432    270.9530    379.7760 307.8140429  +6.5182442     918.7845     1086.341     978.4579      77.6262      155.624     311.0313      1.424     4.85      836.916     54.84615      135.939         8     1.028     0.648  88.21   0
       433      1.3089    379.4763 307.9260510  +6.5093536     747.3097     1070.502     1020.786     67.54766     123.7142      233.745      1.423     4.32     843.1404     54.84615     146.5097         7     1.172     0.454 -85.49  24
       434    316.3327    377.1525 307.7952814  +6.5208420     694.8257     1137.521     1518.659     77.99732     155.5621      311.186      1.808     4.25      836.088     54.84615     129.8629         7     1.273     0.404 -78.38   0
       435    436.3708    372.6109 307.7455725  +6.5267204     7711.931     11093.85     11183.81      77.5021     155.4383     311.0004      1.576     3.89     834.6909     54.84615     1171.698        28     1.502     0.828 -71.88   0
       436     32.8878    373.1782 307.9131457  +6.5130108     2959.302     4980.021     6209.156     77.99732     155.4383     311.0313      1.967     5.62     842.6667     54.84615     446.5516        31     2.012     0.893 -57.87   0
       437    196.8661    372.2562 307.8450672  +6.5188746     560.1625     680.9467      269.745     78.12064     155.5621     311.1551      1.469     4.28      838.884     54.84615      100.431         6     1.686     0.310 -85.11   0
       438    768.7602    371.3324 307.6075454  +6.5383077     2055.587     3091.521     2683.075     77.87381     155.5621     311.2479      1.605     4.03       836.42     54.84615     372.4739        18     1.268     0.976 -76.21   0
       439    777.0341    369.7440 307.6041613  +6.5392383     13585.46     19468.44     20213.65     77.87381      155.624     311.1551      1.533     3.93     836.5383     54.84615     2084.174        36     1.497     0.901 -72.56   0
       440    340.5045    368.2228 307.7855393  +6.5253354     1275.858     1652.142     1568.816     77.99732     155.4383     311.0004      1.430     4.10      835.507     54.84615     194.7579        13     1.227     0.708 -68.70   0
       441   1020.9506    364.7417 307.5030046  +6.5493947     3487.174     5340.529     5423.876     77.99732     153.9448     273.7301      1.607     3.68      834.274     54.84615     469.4133        22     1.411     0.884 -70.62  16
       442    951.7569    361.4341 307.5318576  +6.5484672     534.4695     926.1632     951.5558      77.7501      155.624     310.9695      1.693     4.27     835.3902     54.84615     125.1703         5     1.082     0.484  59.80   0
       443    185.2319    360.6380 307.8502880  +6.5232827     773.9465     1236.726     1057.377      77.6262     155.3763     310.9695      1.580     3.93      839.205     54.84615     136.2594         8     1.107     0.517 -69.08   0
       444    524.8203    357.4464 307.7093378  +6.5359281     581.0814     927.3251     994.4828      77.6262      155.624     311.0004      1.519     4.83     832.9733     54.84615     100.1457         7     1.440     0.458 -71.10   0
       445    484.5690    356.1822 307.7260997  +6.5351094     3293.538     4959.516     4851.014      77.6262     155.4383     311.0313      1.572     4.03     832.8806     54.84615     484.6528        21     1.375     0.826 -75.97   0
       446    456.7858    356.8786 307.7376171  +6.5338962     2333.632     3292.005     3313.838      77.6262     155.3763     310.9695      1.492     3.98     833.5102     54.84615     342.2366        18     1.306     0.762 -68.79   0
       447    913.4164    355.5806 307.5479786  +6.5496127     661.1897     986.2734     1061.676      77.7501     155.3763     311.0623      1.671     3.92      835.895     54.84615     100.6221         5     1.069     0.413 -74.11   0
       448    842.4253    352.5824 307.5775681  +6.5484952     33943.03     51287.03     53844.09      77.6262     155.5002     311.0932      1.630     3.86      836.405     54.84615     4851.949        56     1.641     1.020 -75.11   0
       449     59.9132    349.5853 307.9027105  +6.5236558     702.0906     1029.764     1051.281      77.6262     155.3763     311.0313      1.592     5.30     842.0673     54.84615     88.75415        10     1.534     0.516 -64.22   0
       450    334.5295    348.5682 307.7886773  +6.5332510     1018.022     1243.464     1229.212     77.87381      155.624     311.1551      1.423     5.65     834.9838     54.84615     127.2697        12     1.120     0.824 -79.91   0
       451     22.1661    345.8715 307.9185135  +6.5239260     1128.457     1664.649     2010.643     77.87381      155.624     311.1551      1.583     4.74     842.7896     54.84615     188.9915        13     1.363     0.707 -89.82   0
       452    614.2677    345.0686 307.6725944  +6.5440158     2957.798     4455.821     5195.026     77.99732     155.7476     311.1551      1.576     3.65      832.752     54.84615     497.6747        19     1.354     0.815 -65.15   0
       453    698.8651    338.6496 307.6376665  +6.5494794     83530.42     120059.2       124615     77.87381     155.5002     311.1551      1.545     3.85     833.9351     54.84615     12068.66        72     1.594     0.996 -74.93   0
       454    145.4158    344.0985 307.8673795  +6.5287806     585.9211     817.2682     1139.924     77.99732     155.3763     310.9385      1.351     3.70     840.3866     54.84615     117.7855         6     0.814     0.484 -81.74   0
       455    856.8527    340.3414 307.5719815  +6.5540282     1217.203     1524.368     1837.241     77.99732      155.624     311.1551      1.449     4.03      835.654     54.84615     217.4117        13     1.368     0.687 -71.21   0
       456     77.9339    338.4837 307.8955970  +6.5288422     1423.922     1893.514     2054.686     78.12064     155.8712      311.217      1.544     4.92     841.7617     54.84615     222.1698        13     1.260     0.657 -74.02   0
       457     98.4831    334.5301 307.8871939  +6.5311618     6668.201     9640.029     9886.985     78.24376     155.8712      311.186      1.596     4.10     841.3716     54.84615     898.8321        29     1.515     0.902 -70.50   0
       458    561.2897    335.4189 307.6949226  +6.5462370     2977.654     4166.173     4782.032      77.7501     155.3763     311.0623      1.522     3.85     832.0636     54.84615     513.4544        20     1.412     0.750 -69.44   0
       459    940.5078    335.2394 307.5373998  +6.5589097     862.7013     1293.787     1143.665     78.12064     155.5621      311.217      1.669     3.77     834.5601     54.84615      160.833         8     1.044     0.564 -68.17   0
       460    388.4149    335.5118 307.7667301  +6.5404390     556.3499     874.2834     888.8853      77.7501     155.4383     311.0313      1.647     3.82     833.8417     54.84615     113.9937         6     0.958     0.639 -66.06   0
       461    759.4405    333.6587 307.6126692  +6.5535530     672.1164     905.9772     1067.474     77.99732      155.624      311.217      1.535     5.66     834.6473     54.84615      93.0545         7     1.185     0.762 -56.97   0
       462    544.5959    331.6294 307.7019834  +6.5472459     7671.246     10905.87     10591.99      77.5021     155.4383     311.0004      1.529     3.70     831.8616     54.84615     1147.945        26     1.412     0.859 -74.64   0
       463    273.5471    329.4131 307.8146479  +6.5391243     2859.191     4361.024     4596.391     77.37779     155.5621     310.9075      1.696     3.75     835.6315     54.84615     423.9183        20     1.359     0.830 -76.91   0
       464    407.4915    326.8962 307.7590934  +6.5446322     27224.55     40109.64     41735.66     77.99732      156.118     311.1242      1.558     3.85     833.0644     54.84615     4035.756        49     1.534     1.011 -72.92   0
       465    515.2275    325.5732 307.7143847  +6.5487684     1494.188     2191.364     1911.585     77.50209     155.4383     311.0004      1.505     4.41     831.6229     54.84615     239.5119        16     1.427     0.731 -79.03   0
       466    585.8231    326.2042 307.6850384  +6.5508581     747.8975     787.8716     444.0918      77.6262     155.3763     311.0004      1.419     3.89      831.865     54.84615     126.5119         6     1.200     0.361 -83.79   0
       467    387.3062    324.8987 307.7675448  +6.5447839     1287.881     1726.661     2011.751     77.99732     156.1796     311.0313      1.427     3.85     833.4061     54.84615     199.7922        12     1.173     0.730  86.23   0
       468    674.0760    324.4812 307.6484353  +6.5545052     605.2786     755.9977      919.149     78.24376     155.8712     311.2479      1.402     4.24     833.0065     54.84615     101.8574         6     0.965     0.531 -74.70   0
       469    486.7968    322.2178 307.7263066  +6.5492068     1331.784     1794.788     2034.106      77.6262     155.1904     310.9695      1.547     5.08     831.4637     54.84615     186.3497        13     1.350     0.676 -68.19   0
       470    802.3615    318.8117 307.5953330  +6.5611086     777.3768     1208.923     581.4788     77.50209     155.4383     310.8766      1.598     4.83      834.591     54.84615     132.6254         8     1.470     0.450 -83.15   0
       471    638.3165    319.1321 307.6634680  +6.5555245      636.173     979.3082     1244.555     78.24376     155.8712      311.186      1.414     3.89     832.2224     54.84615     106.2234         6     1.103     0.393 -76.02   0
       472    384.3257    319.5548 307.7689612  +6.5468909     780.6912     1091.314     1340.386     77.87381     155.6858      311.186      1.472     3.78     833.2748     54.84615     127.1959         9     1.095     0.583 -77.68   0
       473    496.5744    317.1905 307.7224126  +6.5516082     9072.773     13029.48     13142.56      77.6262     155.4383     311.0313      1.524     3.77     831.2648     54.84615     1374.671        31     1.469     0.869 -72.56   0
       474    765.6744    315.8506 307.6106716  +6.5611128     3265.815     4644.592     4989.247     77.99732     155.6858      311.186      1.543     3.68     834.0612     54.84615     449.1952        23     1.420     0.856 -72.63   0
       475    920.9101    315.5862 307.5461932  +6.5663744     935.7883     1429.345      1594.55      77.7501     155.4383     311.0004      1.692     4.20     833.8512     54.84615     135.3112        12     1.144     0.813 -84.52   0
       476    713.2947    315.7262 307.6324349  +6.5594237     863.3551     1041.508     1100.392      77.7501     155.8094     311.1551      1.327     4.20     833.3412     54.84615     140.9664         9     1.026     0.638 -86.73   0
       477    322.9507    314.1756 307.7946353  +6.5470644     1063.083     1652.777     934.1154      77.6262     155.6858     311.0623      1.591     5.43     834.3782     54.84615     156.6074        11     1.305     0.638 -69.78   0
       478    258.6262    308.0715 307.8215589  +6.5474375     633.5637      708.769     930.4716      77.6262     155.5002     311.0932      1.276     5.11     835.5468     54.84615     103.8805         8     1.010     0.818 -85.32   0
       479    158.6908    307.9425 307.8630748  +6.5441520      1164.37     1500.794     1564.163     77.87381     155.5621     311.2479      1.551     4.63     840.0248     54.84615     214.2767        16     1.319     0.855 -71.49   0
       480    435.3942    307.6496 307.7481449  +6.5535089     631.9872     757.1162     679.5881      77.5021     155.4383     310.8146      1.329     4.47     831.5329     54.84615      97.2785         7     1.164     0.487 -87.89   0
       481    386.4162    301.4953 307.7686955  +6.5544169     7974.741     11461.18     12003.97      77.7501     155.4383     311.0313      1.600     3.83     832.4538     54.84615     1222.248        29     1.437     0.917 -72.33   0
       482    242.2604    302.1189 307.8285560  +6.5493486     2313.345       3265.7     3684.961     78.12064      155.624     311.1242      1.530     3.58     835.8227     54.84615     324.6375        18     1.245     0.861 -85.27   0
       483    739.6891    301.2360 307.6219522  +6.5662836     944.2427     1472.329     1504.525     77.99732     155.5621     311.1551      1.562     4.10     833.3461     54.84615     191.8917         9     1.238     0.594 -68.22   0
       484    754.3287    297.1988 307.6160049  +6.5684369     56282.77     81556.23     84572.45     77.37779     155.1904     311.0004      1.542     3.55     833.2734     54.84615     9850.761        64     1.530     1.020 -74.87   0
       485    425.9937    296.8192 307.7524111  +6.5576671     2494.217     3613.275     3628.714      77.6262     155.3144     310.9695      1.502     3.81     831.0593     54.84615     362.0817        18     1.363     0.736 -69.26   0
       486    989.1546    294.0431 307.5185578  +6.5775318     1637.348     2346.176     2211.695     77.99732      155.624     311.0932      1.553     3.98     832.6225     54.84615     237.6144        16     1.326     0.774 -74.11   0
       487    930.1340    293.4229 307.5430971  +6.5758313     2440.452     3415.381     3501.859      77.6262      155.624     311.0623      1.485     3.70     832.6638     54.84615     360.7679        18     1.359     0.753 -73.12   0
       488    571.9864    294.1912 307.6918525  +6.5636152     1337.121     1845.393     1805.041      77.7501     155.3763     311.0623      1.654     3.70     830.5799     54.84615     217.6533        13     1.298     0.660 -82.60   0
       489    462.8493    293.1071 307.7372250  +6.5604281      1140.13         1659     1478.641     77.87381     155.5002     311.2788      1.666     4.05     830.4842     54.84615     178.5432        10     1.308     0.527 -70.02   0
       490    412.3170    292.4531 307.7582381  +6.5590138     2207.994     3192.832     3437.024     77.99732      155.624     311.2788      1.566     4.21     831.0692     54.84615     358.4969        17     1.302     0.788 -70.89   0
       491    292.1186    291.8837 307.8081873  +6.5552391     647.9458     887.8711     451.9533      77.7501     155.8712      311.217      1.659     5.82     834.4165     54.84615     125.3703        10     1.519     0.627 -64.82   0
       492    833.8385    286.7089 307.5833236  +6.5754084       1278.5     2180.542     2194.697     78.12064     155.5621      311.186      1.729     5.31     832.7424     54.84615     168.5953        18     1.623     0.818 -89.74   0
       493    462.8522    287.5074 307.7374105  +6.5627402     845.7031     1266.075     1284.693     77.87381     155.5002     311.3716      1.693     3.64     830.2789     54.84615     166.6133         9     1.101     0.535 -64.58   0
       494    188.9030    283.9603 307.8513271  +6.5550632     2500.155     3479.273     3538.465     77.99732     155.5002     311.3407      1.446     3.35     838.2205     54.84615     378.7938        18     1.339     0.784 -72.86   0
       495    443.0473    283.8886 307.7457583  +6.5635743     1243.839     1662.441     1856.517     77.99732     155.5002     311.2788      1.526     3.88     830.3593     54.84615     183.3717        11     1.141     0.618 -73.09   0
       496    752.7581    281.7676 307.6171705  +6.5747560     6433.725     9274.775     9606.273      77.7501      155.624     311.0004      1.527     4.04     832.6269     54.84615     867.9267        27     1.452     0.837 -73.76   0
       497    224.2597    282.3910 307.8366927  +6.5568924     567.2023     1146.799     1464.915     77.37779     155.5002     310.8766      2.244     5.73     836.1604     54.84615     95.55078         9     1.647     0.561 -69.38   0
       498    769.2286    279.6343 307.6103992  +6.5761840     2838.806     4090.279     3887.293     77.50209     155.3763     310.9385      1.530     3.83     832.5399     54.84615     475.8942        20     1.473     0.768 -68.64   0
       499    343.5131    281.6898 307.7871786  +6.5611630     779.3622     1077.805     952.5526      77.7501     156.0563     311.2788      1.557     5.68     833.2309     54.84615     111.2473        11     1.076     0.846 -54.19   0
       500     85.2272    280.7708 307.8944994  +6.5529138     1099.136     1752.973     1521.778     77.50209     155.4383     310.9695      1.635     4.02     841.6759     54.84615      175.655        12     1.175     0.723 -64.03   0
       501    471.2073    279.1898 307.7342171  +6.5664527     565.3042     825.7303     972.1367     77.50209     155.4383     311.0313      1.800     4.95      829.951     54.84615     122.9503         9     1.282     0.542 -63.09   0
       502    360.2988    275.2904 307.7804194  +6.5643651     1087.371     1881.662     2193.034     77.99732     156.0563     311.1242      1.913     5.54     832.5106     54.84615     171.6706        11     1.349     0.642 -64.53   3
       503    357.3273    274.3012 307.7816868  +6.5646744     1570.183     2242.863      2510.67      77.7501     155.7476     311.1551      1.540     4.48     832.5825     54.84615     262.0721        16     1.456     0.796 -59.09   3
       504     72.2234    275.1891 307.9000879  +6.5547833     1361.051     2060.982     1911.406      77.6262     155.4383     311.0313      1.570     4.81     841.9703     54.84615     201.0176        14     1.316     0.702 -70.05   0
       505   1007.4040    270.4760 307.5117581  +6.5878671     5875.608     9102.979     9893.348      77.6262     155.1283     311.0313      1.703     3.87     831.0876     54.84615     858.0995        35     1.529     1.047 -71.63   0
       506    485.3594    270.6619 307.7286225  +6.5704452     2312.318     3437.156     3132.536     77.99732      155.624      311.186      1.565     4.03     829.6116     54.84615     360.1811        18     1.361     0.757 -70.65   0
       507    256.0427    267.8115 307.8239774  +6.5639734     551.2368     706.3582     1667.318     77.37779     155.4383     310.8766      1.437     4.92     835.4944     54.84615     97.95569         6     1.303     0.527 -81.30   0
       508    247.9652    266.2041 307.8273865  +6.5643673     6141.187     9079.487     9345.593     77.12859     155.5002     310.9385      1.553     3.77     835.7964     54.84615     917.2144        28     1.503     0.865 -72.21   0
       509    915.6321    265.2638 307.5500563  +6.5869768     646.2791     973.8334     950.1123      77.7501     155.6858     311.1242      1.474     4.07     831.6725     54.84615     85.33923         6     0.911     0.519  46.92   0
       510    939.2084    261.2599 307.5403948  +6.5894118     493.5781      533.117     646.1689     77.37779     155.4383     310.9075      1.457     3.44     831.3725     54.84615      93.0614         5     0.973     0.352 -46.47   0
       511    767.3486    259.5076 307.6118493  +6.5844315     772.0678      1085.92     918.3621     77.87381     155.5002     311.3407      1.540     3.56     831.5202     54.84615     144.4301         7     1.123     0.472 -86.37   0
       512    382.1938    257.0716 307.7719322  +6.5726175     1753.822      2818.18     2777.507      77.6262     155.1904     311.0623      1.682     3.86     831.1643     54.84615     291.0438        17     1.328     0.875 -67.41   0
       513    969.0638    255.7736 307.5281738  +6.5926669     1031.381     1315.772     1659.357      77.6262      155.624     311.0932      1.375     4.99     830.6886     54.84615     166.4824        12     1.377     0.603 -68.97   0
       514    304.2290    252.9413 307.8044574  +6.5717216     1271.084     1898.585     1428.727      77.6262     155.6858     311.0623      1.499     3.99     833.8209     54.84615     179.1739        14     1.279     0.719 -60.77   0
       515    187.9413    254.1590 307.8527231  +6.5673351     612.5491     792.9018     883.4398     77.99732      155.624      311.217      1.562     3.89     838.5593     54.84615     98.80029         5     0.982     0.441 -47.92   0
       516    151.7085    252.9717 307.8678139  +6.5666143     1780.228     2722.573     2461.126     78.12064     155.3763     311.0313      1.536     4.10     839.9727     54.84615     252.1293        16     1.385     0.751 -65.69   0
       517    905.3181    247.7581 307.5549223  +6.5938626     1631.493     2540.485     2736.944     77.99732      155.624     311.0932      1.600     4.97     831.0925     54.84615     255.1245        16     1.500     0.697 -81.21   0
       518    561.3654    248.5242 307.6977860  +6.5821166     2515.188     3580.547     3128.985     77.87381     155.6858     311.1242      1.612     3.90     829.1996     54.84615     401.7681        21     1.455     0.804 -71.06   0
       519    725.2260    245.8717 307.6298019  +6.5886620     5251.278     7383.181     7296.577      77.6262     155.5002     311.0932      1.503     3.87       830.44     54.84615     848.3721        25     1.435     0.830 -73.93   0
       520    963.1241    245.7440 307.5309742  +6.5966111     792.9255     1117.599     1044.029     77.99732     155.5621     311.0932      1.370     3.69     830.2764     54.84615     131.5309         6     1.368     0.287 -83.00   0
       521    665.8854    245.7394 307.6544583  +6.5867439     2298.762      3227.75     3146.793     77.99732     155.7476     311.2479      1.501     4.34     829.5266     54.84615     341.4416        17     1.298     0.851 -82.79   0
       522    380.6763    239.9465 307.7731341  +6.5796374     720.3157     994.8221     1040.971     78.12064      155.624     311.1551      1.390     4.95     830.6774     54.84615     105.0278         8     1.256     0.551 -74.03   0
       523    921.2383    237.8085 307.5486387  +6.5984987     1038.557      1284.32     1154.909     77.25329     155.3763     310.8766      1.423     3.55     830.7288     54.84615     174.1262        11     1.104     0.700 -64.24   0
       524    224.5751    231.5584 307.8382609  +6.5778902     2517.726     3906.447     4250.629      77.6262     155.5621     310.9385      1.707     4.19     837.5867     54.84615     341.5242        21     1.426     0.841 -71.55   0
       525    867.2079    230.1549 307.5713395  +6.5998663     1869.812     2748.039     2756.982     77.50209     155.5002     310.8766      1.506     3.72      830.465     54.84615     284.6378        18     1.366     0.789 -69.04   0
       526    757.7971    229.3896 307.6168188  +6.5965494     1597.421     2134.146     2426.893      77.6262     155.3144     311.0623      1.489     4.29     829.8742     54.84615     258.4318        14     1.470     0.582 -75.19   0
       527    458.5443    221.1773 307.7414123  +6.5899828     24376.12     35605.42     37355.04      77.6262      155.624     310.9695      1.542     3.73     828.5859     54.84615     3755.723        47     1.540     0.964 -70.24   2
       528    464.2216    215.7630 307.7392343  +6.5924074     1563.209     2274.709     2631.752      77.6262     155.3763     310.9075      1.566     3.90      828.429     54.84615     248.4285        12     1.095     0.707 -83.41   2
       529    246.0334    224.8048 307.8295727  +6.5813953     622.6486     1041.149     729.4037     77.25329     155.5002     310.9385      1.488     4.34     836.6828     54.84615     106.9529         6     1.068     0.502 -82.80   0
       530    784.6285    220.1532 307.6059790  +6.6012543     13448.39     20407.33     21472.26      77.6262     155.6858     311.0932      1.602     3.78     829.7778     54.84615     2162.953        46     1.595     1.127 -57.94   0
       531    319.4984    222.3977 307.7991345  +6.5848418     658.4015     842.5104      550.474      77.5021     155.3763     310.8456      1.523     4.16     832.7621     54.84615     108.0092         6     1.085     0.454 -77.77   0
       532    723.4630    215.9608 307.6315293  +6.6009531     588.7009      983.134     806.8126     77.99732     155.5621      311.217      1.826     4.72     829.1387     54.84615     99.41333         6     1.270     0.497 -88.07   0
       533    146.6618    214.6638 307.8711920  +6.5822616     2536.856     3657.874       3905.6     77.99732      155.624      311.186      1.551     3.54     839.9422     54.84615     334.6849        22     1.372     0.876 -67.15   0
       534    121.4758    213.3161 307.8816996  +6.5819759     1044.755     1662.056     1905.724     78.12064     155.9329     311.2479      1.930     6.80     840.7153     54.84615     173.5596        16     1.812     0.716 -70.86   0
       535    173.4782    212.8503 307.8601128  +6.5839068     548.7711     812.5542     879.9373     77.99732     155.6858     311.1551      1.604     5.11     839.2084     54.84615      113.002         8     1.675     0.441 -81.67   0
       536    777.1974    212.7485 307.6093124  +6.6040647     623.4374     938.9539     1572.794     77.37779     155.3144     310.7527      1.676     6.01     829.5616     54.84615      88.6554         8     1.091     0.930  -2.51   0
       537    921.0467    210.3030 307.5496314  +6.6098489     1423.703     2067.002     2102.939     77.99732     155.5002     311.3098      1.604     4.69      829.442     54.84615     202.0242        13     1.204     0.711 -67.06   0
       538    582.6356    206.9035 307.6903363  +6.6000089     4972.977     7207.179     7447.853     77.99732     155.5002     311.3098      1.504     3.68     828.0739     54.84615     681.7734        24     1.422     0.815 -72.24   0
       539    303.0067    207.5779 307.8064805  +6.5904100      1151.15     1611.332      1323.21     77.50209     155.4383     311.0004      1.517     5.75     833.9301     54.84615     159.9185        15     1.406     0.778 -62.85   0
       540    545.2808    206.8521 307.7058566  +6.5987866     2249.882     3385.599     3076.618     77.99732      155.624     311.1551      1.531     3.63     827.9684     54.84615     348.1318        18     1.290     0.797 -70.80   0
       541    387.1129    206.0145 307.7715928  +6.5938617     1703.467      2405.32      2849.16      77.6262     155.4383     311.0313      1.522     3.84     829.9136     54.84615     241.1256        17     1.315     0.797 -64.87   0
       542    889.6341    203.2968 307.5629146  +6.6116997     11457.27     16885.11      17586.6     78.12064     155.5002     311.3098      1.577     3.80     829.1557     54.84615     1625.218        37     1.510     0.957 -74.50   0
       543    943.4221    203.7539 307.5405529  +6.6132950     2604.462     3832.076     4152.783      77.6262      155.624     311.0004      1.630     3.63     828.7758     54.84615     349.4598        18     1.321     0.765 -74.58   0
       544    687.6594    201.3135 307.6468910  +6.6058105     2866.935     4198.293     4519.745     77.99732     155.7476     311.2788      1.739     4.07     828.5662     54.84615      390.095        22     1.630     0.852 -86.23   0
       545    317.3787    203.7694 307.8006372  +6.5924621      1033.44     1657.379     2235.074     77.50209     155.4383     311.0313      1.964     4.46     833.1116     54.84615     142.8405        11     1.238     0.635 -72.64   0
       546    564.4899    203.5872 307.6979852  +6.6007741     896.3237     1289.689     850.8627      77.7501     155.3763     311.0004      1.598     4.85     827.9342     54.84615     124.4607         9     1.132     0.588 -77.47   0
       547    208.7232    204.5875 307.8457478  +6.5884960     512.4889     732.7073     857.8903      77.6262     155.2524     310.9695      1.340     3.19      838.321     54.84615     102.2287         4     0.850     0.348 -72.24   2
       548     15.6954    200.3893 307.9260744  +6.5837735     26703.57     39977.08     41849.92      77.6262     155.2524     310.9385      1.622     3.84     843.3695     54.84615     3473.627        49     1.545     1.040 -73.91   0
       549    976.2916    201.0855 307.5269856  +6.6154865     9886.058     14987.78     15929.93      77.7501     156.0563     311.2479      1.596     3.73     827.9496     54.84615     1439.531        35     1.526     0.975 -77.16   0
       550    261.9425    201.0961 307.8237561  +6.5917152     1136.671     1839.056      1930.77     77.87381     155.6239     311.3098      1.653     4.10     836.2305     54.84615     189.8312        11     1.214     0.609 -67.58   0
       551    496.3266    196.1084 307.7265522  +6.6015920       2229.7     3053.288     2958.961     77.99732     155.7476      311.186      1.457     3.48     827.8375     54.84615      352.118        16     1.227     0.767 -74.71   0
       552    351.0089    196.8139 307.7868986  +6.5964560     1326.567     1583.057     1959.842      77.7501     155.3763     311.0623      0.540     0.92     830.9526     54.84615     851.4341         5     0.513     0.290 -71.54   0
       553    828.1800    192.6692 307.5887990  +6.6140481     2020.013     2955.702     2932.922      77.6262     155.5002     311.0932      1.551     3.89     829.0803     54.84615      325.588        19     1.402     0.812 -70.65   0
       554    880.5312    191.7967 307.5670784  +6.6161459     2025.059     2790.189     3072.948     77.37779     155.2524     310.9385      1.469     3.41     828.6395     54.84615     322.5446        18     1.312     0.838 -59.19   0
       555    739.8384    189.3282 307.6256120  +6.6124934     42185.42     60668.68     62740.79     77.87381      155.624      311.217      1.538     3.85     828.7667     54.84615     6128.569        54     1.531     0.986 -73.26   0
       556    508.3345    192.0388 307.7216993  +6.6036722     2703.057     3944.741     3662.557     77.87381     155.5621     311.2479      1.487     3.61     827.7051     54.84615     420.0111        15     1.350     0.677 -69.79   0
       557    413.9645    193.2220 307.7608647  +6.6000388     484.9772     525.1339     136.2054     77.50209     155.3763     310.9075      1.221     3.94     828.9745     54.84615     76.60291         5     0.857     0.517 -58.78   0
       558    342.8639    188.8898 307.7905469  +6.5994560     6561.191     12309.43     13585.64     77.87381     155.8094      311.186      2.004     6.07     831.5112     54.84615     1022.492        43     2.117     0.962 -73.56   0
       559    973.5198    187.9951 307.5285715  +6.6207995     2649.559       4054.6     4519.326      77.6262     155.1904     310.9385      1.620     3.83     827.5202     54.84615     343.3949        21     1.371     0.874 -75.80   0
       560    451.1776    185.7502 307.7456543  +6.6043642     5590.154     8167.179     8201.399      77.6262     155.6858     311.0623      1.563     3.69     828.2493     54.84615     884.1891        27     1.507     0.853 -74.11   0
       561   1012.0370    186.3585 307.5126233  +6.6227517      1527.04     2561.022     2416.746      77.7501      155.624     311.0313      1.713     5.40     826.9352     54.84615     202.8079        17     1.600     0.709 -69.10   0
       562    907.7068    186.2852 307.5559710  +6.6193231     7591.875     11273.19     11467.91     77.87381     156.0563     311.2479      1.597     3.80     828.1802     54.84615     981.8618        33     1.511     0.959 -71.45   0
       563    225.0712    182.5089 307.8396947  +6.5981577     696.4087     1269.927     1265.728     77.87381     155.8094     311.1551      1.829     5.70     838.0956     54.84615     102.1679         9     1.100     0.833 -64.80   0
       564    108.5451    177.2099 307.8882796  +6.5964504      5069.17     7739.817     8139.642     77.37779     155.5621     310.8766      1.596     3.92     841.1417     54.84615     759.7814        29     1.488     0.931 -70.61   0
       565    254.2060    174.8354 307.8278477  +6.6022990     6792.093      9776.77     10244.07     77.25329     155.3763     310.9385      1.520     3.73     836.9815     54.84615     1037.195        29     1.456     0.940 -73.02   0
       566    927.8221    175.9084 307.5479584  +6.6242747     737.6799     1022.656     1572.318     77.99732     155.4383     311.0004      1.575     3.93     827.4921     54.84615     143.6088         8     1.201     0.453 -70.51   0
       567    278.8753    173.7530 307.8176355  +6.6035697     36112.62     52905.94      55582.2     77.87381     155.6858     311.1551      1.574     3.96     835.9924     54.84615      4908.56        54     1.564     1.003 -73.08   0
       568    604.8796    175.2654 307.6821490  +6.6138118     814.3072     1253.459     979.9312     78.24376     155.7476     311.1242      1.566     4.44     827.4092     54.84615     112.6398         8     1.109     0.506 -58.01   0
       569    707.9626    172.7578 307.6394061  +6.6182756      890.329     1215.151     1507.574      77.7501      155.624     311.0313      1.372     4.44     828.3351     54.84615     144.0782         8     1.016     0.553 -72.31   0
       570    402.9535    169.1727 307.7662417  +6.6096010     53489.78     77940.55     80333.98      77.6262     155.6858     311.0623      1.524     3.84     828.9761     54.84615     8055.946        59     1.544     1.012 -71.40   0
       571    158.8416    170.6648 307.8676043  +6.6008345     4126.943     6098.957     6121.162     77.99732     155.5621      311.217      1.588     4.14     839.3509     54.84615     522.5243        26     1.449     0.901 -67.49   0
       572    420.0683    169.8292 307.7591095  +6.6099006     1465.922     2306.523     2536.589      77.7501      155.624     311.0932      1.579     3.78     828.4376     54.84615     271.3141        13     1.232     0.633 -73.33   0
       573    573.1951    168.6952 307.6955312  +6.6154700     608.9272     910.4578     840.8391      77.7501     155.3144     310.9075      1.489     3.63     826.9969     54.84615     112.0508         5     0.971     0.391  85.67   0
       574    306.9559    166.9369 307.8061975  +6.6073213     19586.13     28540.61      29399.4     77.99732     155.5621      311.217      1.517     3.95     834.3661     54.84615     2785.056        39     1.499     0.938 -70.68   0
       575    790.8831    165.8143 307.6051870  +6.6238976     1167.729     1710.056     1386.327      77.6262     155.3763     310.9695      1.641     5.24     828.6407     54.84615     179.2282        16     1.604     0.824 -85.24   0
       576    742.2492    165.1977 307.6254130  +6.6225365      34771.1     50833.55     51485.77     77.37779     155.2524     310.7527      1.549     3.65     828.2791     54.84615     5940.774        51     1.533     0.961 -73.78   0
       577    690.2557    167.2238 307.6469468  +6.6199718     1047.403     1457.314     1699.064      77.6262      155.624     310.9695      1.449     4.39     828.2245     54.84615     165.3989        12     1.315     0.616 -76.10   0
       578    540.0853    167.5409 307.7093252  +6.6148442     607.1064     861.6065     913.4514     77.99732      155.624     311.2479      1.715     4.89     826.7924     54.84615     93.30933         7     0.875     0.774 -72.76   0
       579    314.5276    166.2837 307.8030738  +6.6078437     2110.763      3669.46      4233.76     78.12064     155.9329      311.186      1.896     6.65     833.7632     54.84615     354.6044        24     2.059     0.744 -75.00   0
       580     29.4380    165.9500 307.9215192  +6.5984522     778.5132     1266.377     1040.653      77.7501     155.5621     311.0932      1.379     4.70      843.584     54.84615     128.0288         8     1.125     0.556 -56.46   0
       581     58.9778    162.8145 307.9093528  +6.6007354     9460.036     14109.95     14531.67      77.7501     155.4383     311.0623      1.559     3.98     842.7402     54.84615     1346.436        34     1.503     0.936 -69.90   0
       582     92.8872    160.8605 307.8953315  +6.6026767     1513.715     2123.564     2149.203     78.12064     155.7476     311.2479      1.459     4.73     841.7407     54.84615     209.0655        15     1.434     0.655 -75.86   0
       583   1000.4482    159.9240 307.5183150  +6.6332821     962.1052     1350.508     1609.622     77.87381     155.6858     311.1551      1.591     5.02     826.4744     54.84615     176.2244        10     1.240     0.610 -89.99   0
       584    726.5486    153.4241 307.6323277  +6.6268758     733.0958     964.0322     632.4923      77.6262      155.624     311.0623      1.274     3.66     827.8018     54.84615     145.8482         6     0.959     0.402 -70.33   0
       585    576.0338    149.9623 307.6949760  +6.6232989     803.7379     1199.008     873.8888      77.7501     155.4383     310.9385      1.391     4.13     826.5738     54.84615     124.8573         8     1.198     0.493 -67.86   0
       586   1001.6083    145.7487 307.5183033  +6.6391733     2046.536     3084.609     4113.241     77.50209     155.5002     310.8456      1.811     4.12     826.2008     54.84615     245.1309        18     1.313     0.842 -74.28   0
       587    592.9544    141.7016 307.6882214  +6.6272727     2155.515     3383.383     3542.963     77.99732     155.5002     311.3716      1.644     3.84     826.4727     54.84615     316.5511        19     1.416     0.790 -76.69   0
       588    584.7050    143.5046 307.6915886  +6.6262537      1037.42     1273.774     994.7863     77.99732     156.2413     311.0623      1.433     4.73     826.4886     54.84615     149.9754         9     1.234     0.514 -77.81   0
       589    270.3685    144.1642 307.8221583  +6.6155020     640.7745      912.555     1461.695      77.6262     155.3763     310.9075      1.248     3.49     836.8887     54.84615     89.72485         5     0.778     0.451  74.45   0
       590    336.8806    141.8484 307.7946036  +6.6186783     1069.722     1471.865     1396.044     77.99732      155.624     311.1551      1.457     3.61     832.6487     54.84615     164.9899        10     1.069     0.614 -69.34   0
       591    277.7727    140.0109 307.8192210  +6.6174639     32339.51      47827.9        50001      77.6262     155.4383     311.0313      1.536     3.77      836.728     54.84615     4333.987        54     1.541     1.003 -71.66   0
       592     22.9656    138.6547 307.9251224  +6.6095047     4726.848     7079.951     7365.911     77.87381      155.624     311.1551      1.614     3.76     843.5767     54.84615     677.6631        29     1.498     0.926 -72.04   0
       593    709.3868    136.4391 307.6400229  +6.6333182     8461.138     12282.21     12619.37      77.5021     155.4383     310.9385      1.536     3.74     827.1008     54.84615     1407.366        30     1.453     0.919 -72.90   0
       594    186.7687    137.8880 307.8570989  +6.6153004     994.0693     1336.736     1196.123     78.12064     155.4383     311.0932      1.551     4.69     838.6219     54.84615     150.6657        11     1.166     0.732 -64.39   0
       595    263.4718    134.7872 307.8253369  +6.6191431     898.8444     1364.186     1265.667     77.50209     155.2524     310.9695      1.570     4.83     837.2329     54.84615     137.0137        10     1.353     0.560 -54.39   0
       596    120.1662    133.8464 307.8849033  +6.6147423     5201.831     7751.008     7574.387      77.6262      155.624     311.0932      1.544     3.74     840.0766     54.84615      743.601        30     1.472     0.949 -70.50   0
       597    459.3694    131.0710 307.7440749  +6.6272129     1343.385     1757.518     1612.958     77.87381      155.624     311.1242      1.490     4.45     827.3342     54.84615     197.6382        14     1.300     0.790 -82.46   0
       598    581.9019    131.5841 307.6931503  +6.6310821     901.1302     1219.608     1466.145     77.99732     155.3763     310.9385      1.559     5.59     826.1996     54.84615     120.1996         9     1.063     0.829 -45.12   0
       599    390.8442    129.6570 307.7725914  +6.6255121     4133.335     6920.861     7371.458     77.87381      155.624     311.1551      1.797     4.49     829.7263     54.84615     496.9459        31     1.625     1.021 -81.31   0
       600    648.0062    130.4433 307.6657242  +6.6337527     952.7668       1463.6     1253.933     77.50209     155.3144     310.8456      1.748     4.93     826.6728     54.84615     162.6386         8     1.318     0.521 -72.42   0
       601    355.2146    128.6366 307.7874279  +6.6247448     3523.226      5143.55     4961.572      77.6262     155.4383     310.9385      1.572     3.85     831.7059     54.84615      523.851        22     1.439     0.827 -71.61   0
       602    109.5168    128.7245 307.8894989  +6.6165007     1791.873     2648.001     2365.417     78.12064     155.9329     311.2479      1.626     3.50      840.246     54.84615     253.3186        20     1.320     0.917 -69.80   0
       603    567.6222    128.4317 307.6991881  +6.6319084      644.893     1050.109     748.9954      77.5021     155.4383     310.9695      1.698     5.50     826.1131     54.84615     93.19537         8     1.530     0.557 -56.25   0
       604    745.4700    126.9879 307.6253458  +6.6384196     587.1268     776.9855     843.0745     77.50209     155.3763     311.0004      1.241     2.46     826.6087     54.84615      112.043         6     0.752     0.497  85.93   0
       605    671.3551    126.2368 307.6561635  +6.6362660     946.4073     1190.961     1255.948      77.7501      155.624     311.0623      1.537     4.63      826.826     54.84615     156.4436        11     1.271     0.754 -71.51   0
       606   1002.0719    122.5790 307.5188793  +6.6487551     1627.229     2462.077     2361.732      77.6262     155.5002     311.1242      1.594     3.69     825.7574     54.84615     251.2114        16     1.292     0.780 -78.91   0
       607    207.1426    117.5737 307.8493141  +6.6243683     6055.065     8900.695     8716.882      77.6262     155.6858     311.0004      1.586     3.82     838.3427     54.84615     922.2889        27     1.440     0.892 -72.50   0
       608     89.7721    117.4552 307.8980788  +6.6204929     2262.367     3377.821     2951.806      77.6262     155.6858     311.0004      1.630     4.04     840.5479     54.84615     317.4158        20     1.404     0.852 -71.15   0
       609    668.9326    116.1893 307.6575044  +6.6403339     6607.898      9634.66     10132.08     77.50209     155.4383     311.0004      1.525     3.74     826.4302     54.84615     1029.126        28     1.453     0.879 -71.28   0
       610    816.9108    116.1216 307.5960250  +6.6452791     1120.948     1746.576     1518.439      77.7501     155.8712     311.2788      1.617     3.26     826.0669     54.84615     198.8333        12     1.119     0.650 -76.23   0
       611    621.1342    113.5096 307.6774526  +6.6398503      10167.7     14525.41      15198.6     77.87381     155.7476     311.1551      1.554     3.76     825.7988     54.84615     1668.608        34     1.506     0.917 -74.87   3
       612    624.6741    104.9796 307.6762659  +6.6434899     56352.46      81744.8     84959.54      77.6262     155.5002     311.0932      1.517     3.79     825.5497     54.84615      7824.34        58     1.545     0.975 -73.36   3
       613    255.7649    113.8883 307.8292372  +6.6275142     797.1492     1276.126     1379.123     77.99732     155.5621     311.1551      1.495     4.60     837.6719     54.84615     123.1551        10     1.268     0.527 -66.99   0
       614     19.7678    112.3851 307.9273310  +6.6202433     959.5194      1657.41     1410.022      77.6262     155.3763     311.0623      1.955     6.46     843.3813     54.84615     176.3533        16     1.964     0.818 -66.47   0
       615    559.2471    112.9106 307.7031848  +6.6380378     662.9724     879.6926     1069.858     77.99732     155.5002     311.2788      1.461     3.88     825.8795     54.84615     110.9421         7     1.105     0.534 -69.82   0
       616    348.2539    109.3365 307.7909642  +6.6324810     4016.359     6064.462     6528.028     77.99732     155.5621     311.1242      1.675     4.00     832.8073     54.84615     593.3264        22     1.480     0.831 -65.39   0
       617    529.9818    108.6082 307.7154871  +6.6388397     1770.629     2372.636     2104.826      77.6262     155.3763     311.0004      1.444     4.98     825.9956     54.84615     243.2453        15     1.338     0.671 -72.15   0
       618    994.2933    108.0426 307.5225935  +6.6544992     757.3634     966.5817      1383.16     78.12064     155.5621     311.2788      1.435     3.85     825.4601     54.84615     124.3236        10     1.004     0.845 -84.10   0
       619    303.7750     98.8198 307.8097947  +6.6353386     3809.099     5686.356     6260.802      77.6262     155.4383     311.0932      1.604     3.88     836.3276     54.84615     520.1064        26     1.502     0.876 -62.55   0
       620    498.9967     95.6724 307.7287918  +6.6431484     607.3307     811.4185     878.3018     77.50209     155.1904     311.0004      1.488     4.55     825.9379     54.84615     81.39087         5     1.012     0.582 -71.51   0
       621      2.1700     81.9038 307.9356632  +6.6322385     606764.1      1048786      1111314     76.37609       135.38     247.1949      1.856    10.09     843.4803     54.84615     62631.97       240     2.167     1.310 -84.08  28
       622    703.6159     93.0576 307.6438641  +6.6510376     921.7742     1275.231     972.5816     77.37779     155.5621     310.9075      1.509     4.84     825.4067     54.84615     125.3794         9     1.176     0.563 -77.10   0
       623    675.1080     92.1225 307.6557398  +6.6504759     1427.969     1866.665     1662.191      77.7501     155.8712      311.186      1.495     4.35      825.597     54.84615     211.6791        13     1.324     0.738 -72.02   0
       624    689.0656     88.7707 307.6500522  +6.6523239     3224.789     4481.503      4355.84      77.7501      155.624     311.0932      1.494     3.78     825.4174     54.84615     499.6261        21     1.418     0.794 -78.80   0
       625    430.7925     80.0656 307.7576494  +6.6473190     4384.705     6250.141     6062.031     77.50209     155.3763     311.0004      1.482     3.87     828.0627     54.84615     618.0505        23     1.388     0.799 -72.05   0
       626    903.3428     75.2460 307.5614716  +6.6650245     3966.059     5951.265     5956.624     77.99732      155.624     311.2479      1.613     3.89     824.5327     54.84615     617.0299        24     1.473     0.836 -76.48   0
       627    885.2587     76.2216 307.5689531  +6.6640217     2232.955     3371.724     3131.059      77.6262     155.5621     311.0004      1.559     4.08     824.7238     54.84615     323.8769        19     1.487     0.734 -72.87   0
       628    583.1111     75.7930 307.6945068  +6.6541572     687.1823     1075.918     1580.272     77.50209     155.3144     310.9075      1.740     4.17     825.0267     54.84615     128.4784         8     1.318     0.457 -74.47   0
       629    595.4662     73.8687 307.6894375  +6.6553629     1976.893     2850.521     3076.136     77.99732     155.6858      311.186      1.595     4.54      824.832     54.84615     280.2874        17     1.427     0.732 -74.19   0
       630    615.5506     73.8051 307.6810949  +6.6560576     610.2702     1040.488     798.4608     77.37779     155.4383     310.8146      1.379     4.16     824.6899     54.84615     100.4518         7     1.043     0.474 -80.58   0
       631    394.0830     71.9839 307.7731710  +6.6494316     1993.234     3107.986     3030.197      77.6262     155.3144     311.0623      1.537     4.17     830.5203     54.84615     298.2952        17     1.428     0.727 -70.03   0
       632    241.1311     73.3588 307.8366718  +6.6437586     840.7814     1192.447     2222.645     77.87381      155.624     311.2479      1.636     2.91      837.628     54.84615     152.0463         9     0.912     0.643 -73.83   0
       633    142.0811     68.9215 307.8779717  +6.6422802     3351.136     4985.747     5202.521     78.24376     155.8712     311.3098      1.540     3.65     837.9951     54.84615     505.1086        21     1.388     0.837 -71.61   0
       634    290.5233     67.3337 307.8163524  +6.6478958     1597.372     2349.046     3003.073     78.12064     155.6858     311.1242      1.658     5.06     837.1019     54.84615     220.2448        16     1.307     1.027 -66.36   0
       635     23.8911     66.8310 307.9271443  +6.6391887     12714.91     19568.01     21001.85     78.12064     155.4383     311.1242      1.641     3.93     841.9394     54.84615     1727.069        42     1.589     1.026 -66.89   0
       636    563.8086     66.1649 307.7028475  +6.6574898     720.5054     985.7369     1064.817     77.50209     155.4383     310.9695      1.498     4.04     825.1311     54.84615     140.6537         7     1.099     0.425 -57.38   0
       637    551.0994     66.0414 307.7081321  +6.6571177     920.5393     1235.188     807.5614     77.99732     155.5002     311.3716      1.389     5.28       825.32     54.84615     138.3304        14     1.440     0.688 -77.60   0
       638    944.3787     65.9139 307.5447310  +6.6702387     603.1516     764.4881     828.6968     77.99732     155.3763     311.0313      1.440     4.36     823.9135     54.84615     92.70367         6     0.829     0.669 -62.20   0
       639    758.8646     65.6092 307.6218220  +6.6642067     677.0121     697.4034     1066.025     77.50209     155.4383     311.0313      1.331     4.57     824.8599     54.84615     108.3006         7     1.045     0.569 -79.02   0
       640    770.8270     61.4098 307.6169914  +6.6663379     3261.308      4905.03     5361.235      77.6262     155.4383     311.0313      1.640     3.83     824.8039     54.84615     488.7823        23     1.496     0.801 -72.43   0
       641    415.5810     62.3006 307.7645623  +6.6541465     1159.781     1930.355     1861.112     77.99732     155.5002     310.9385      1.682     5.58      829.053     54.84615     158.9509        12     1.447     0.606 -62.29   0
       642    825.7007     60.9483 307.5942068  +6.6683510     6193.317     9124.745     9935.256     77.99732      155.624     311.3716      1.571     4.04     824.7719     54.84615      856.451        28     1.466     0.889 -73.36   0
       643    892.5963     62.1377 307.5663722  +6.6700802     517.1522     647.1771     897.6221     77.37779     155.3763     310.9075      1.140     3.32     824.3271     54.84615     98.17596         5     0.748     0.437 -68.38   0
       644    757.7402     60.6912 307.6224528  +6.6661999     632.3264     895.7983     1233.715     77.87381      155.624      311.217      1.367     4.56      824.809     54.84615     99.96161         7     1.105     0.535 -62.22   0
       645     64.1929     58.7071 307.9106729  +6.6438918     3477.761      4992.62     4971.733      77.6262     155.3144     310.9695      1.541     3.72     839.9046     54.84615     451.9971        25     1.344     0.967 -74.34   0
       646    533.1666     59.7064 307.7157940  +6.6591360     1166.043     1535.622     1436.328     78.12064     155.5002     311.2479      1.574     4.42     825.4636     54.84615     194.6544        10     1.120     0.585 -66.59   0
       647     48.6414     59.3335 307.9171129  +6.6431127     1091.538     1431.783     1201.997     77.99732     155.5621      311.217      1.504     4.82     840.5588     54.84615     151.4121         9     1.155     0.569 -74.92   0
       648    653.0996     58.6992 307.6659967  +6.6635436     619.3676     796.6585     1270.684     77.99732     155.9946     311.0004      1.523     4.26     824.5091     54.84615     112.6472         7     1.145     0.584 -84.19   0
       649    425.4318     57.9445 307.7606148  +6.6562734     952.0147     1486.615      1824.66     77.87381      155.624     311.0932      1.707     4.42     828.6706     54.84615     152.2756        13     1.394     0.645 -63.20   0
       650      6.6066     54.1562 307.9347499  +6.6438429     2564.128     3842.577     4853.071     77.50209     155.3763     300.3887      1.704     4.05      842.203     54.84615     398.4789        21     1.526     0.852 -82.38  16
       651    588.2422     55.0680 307.6930654  +6.6628848     1482.182     1959.223      1755.07     77.99732     155.5621      311.217      1.494     3.44     824.5857     54.84615     264.1646        13     1.212     0.666 -75.26   0
       652    714.7085     51.7427 307.6406301  +6.6684644     506.6205     578.6348     170.0227     77.87381     155.5621     311.2479      1.488     3.95     824.6024     54.84615     77.22552         6     1.114     0.401 -78.09   0
       653    406.1692     49.0955 307.7689135  +6.6592846     1074.706     1512.152      1123.73     78.12064     155.4383      311.217      1.561     4.44     830.1004     54.84615     192.7324        12     1.285     0.854 -73.68   0
       654     78.7876     50.4705 307.9048853  +6.6477807      909.201     1327.969     1149.328     77.50209     155.3763     311.0004      1.559     3.52     838.9603     54.84615     157.1812        10     1.049     0.697 -56.02   0
       655    765.3283     48.6710 307.6196998  +6.6714149     2143.122     2891.948     3070.091     78.12064     155.7476     311.0623      1.446     3.94     824.6841     54.84615     333.0609        14     1.260     0.679 -71.75   0
       656    103.0482     48.2186 307.8948814  +6.6495221     955.9376     1325.672     1744.381     77.50209     155.6858     310.9695      1.473     4.70      838.041     54.84615     163.1486        12     1.299     0.610 -72.89   0
       657     91.9586     42.9045 307.8996666  +6.6513451     9783.625     14753.64     15238.79     77.99732     155.5621     311.2788      1.583     3.87     838.1829     54.84615     1354.446        34     1.490     0.998 -75.05   0
       658    421.1237     42.4585 307.7629216  +6.6625235     2811.049     3952.194     4144.582     78.12064      155.624     311.1242      1.537     3.69     829.1424     54.84615       432.88        23     1.391     0.931 -71.40   0
       659    242.4298     42.1243 307.8371766  +6.6566977     789.1908     1149.262     918.3454     77.87381     155.6858     311.1551      1.435     4.60     837.0707     54.84615     107.5242         9     0.914     0.765 -66.98   0
       660    258.7367     36.9246 307.8305753  +6.6593891     1579.988     2287.191     2828.179     78.24376      155.624     311.1242      1.571     4.14     836.9691     54.84615     218.9366        15     1.239     0.749 -73.74   0
       661    634.7812     34.6739 307.6744080  +6.6728537      19760.2     28059.01     29169.33     77.50209     155.5621     311.0623      1.522     3.77     823.8356     54.84615     2754.096        38     1.470     0.927 -72.63   0
       662    213.9160   1018.9697 307.8163795  +6.2524336     2032.828     3410.788     3434.664     77.99732     155.4383     295.5429      1.776     4.58     856.9285     54.84615     282.3682        23     1.587     0.955 -74.47  16
       663    690.3582     29.6662 307.6514824  +6.6767697      546.216     721.3945     1438.396     77.99732     155.5621      311.217      1.428     4.28     823.9044     54.84615     96.35175         7     1.158     0.452 -59.04   0
       664    891.2755   1019.7751 307.5351361  +6.2746390     1083.681     2001.787     2078.618      77.6262     155.4383     287.4524      1.923     5.38     852.4052     54.84615     138.0245        18     1.364     1.016 -81.44  16
       665      2.0185     28.9756 307.9375000  +6.6540852     1273.334     1857.417     1900.222     75.10519     133.4464     244.8867      1.459     5.46     841.4719     54.84615     174.1531        13     1.314     0.706 -67.45  24
       666    717.2640   1015.6165 307.6075199  +6.2705805     6390.032     11484.71     12316.48     77.50209     155.5621     311.0004      1.900     4.29       855.05     54.84615     750.4078        43     1.703     1.228 -76.99  16
       667    440.0746     26.4686 307.7555814  +6.6697571     24638.35     35346.26      36787.3     78.12064     155.7476     311.1551      1.555     3.80     828.3428     54.84615     3895.495        47     1.533     0.976 -73.52   0
       668    320.4799     27.1679 307.8052482  +6.6654789     1028.168     1344.043     1411.556     77.87381     155.5621     311.1242      1.474     5.16     835.9806     54.84615     143.9881        11     1.388     0.659 -76.53   0
       669    917.8391     26.2954 307.5570740  +6.6857162     1947.852     2737.212     2782.541     77.99732     155.5002     311.2788      1.622     3.82     822.7255     54.84615     289.8997        16     1.348     0.728 -75.79   0
       670    553.1317     26.5414 307.7086043  +6.6734938     856.1481     1105.832     1403.604     78.12064     155.5621     311.1551      1.357     3.49     824.7933     54.84615     156.4078        10     1.061     0.692 -87.07   0
       671     26.0334     26.6168 307.9276017  +6.6558632     2414.431     3895.173     3635.273      77.6262     155.3763     311.0313      1.655     3.96     840.4058     54.84615     352.3117        20     1.441     0.843 -74.86   0
       672    252.6551     31.2904 307.8332904  +6.6615122     2162.994      3082.48     3647.539     77.87381     155.4383     311.2788      1.504     3.92     836.8798     54.84615     310.6277        20     1.370     0.847 -78.58   0
       673    248.5526     23.5574 307.8352534  +6.6645678     3161.555     4657.658     4787.117     77.99732     155.5621     311.0932      1.614     3.72     836.7635     54.84615      451.052        21     1.379     0.810 -68.79   0
       674    301.6057     21.9259 307.8132653  +6.6670131     940.2346     1608.775     1862.894      77.6262     155.1904     311.0623      1.674     4.23     836.4878     54.84615     155.9954        10     1.137     0.658 -72.81   0
       675    432.1105   1015.9427 307.7258959  +6.2609598     3596.048     5988.871     6717.072     77.87381     155.5621     311.2788      1.793     3.97     857.9402     54.84615     432.7895        32     1.614     1.064 -68.73  16
       676    573.3094   1014.7338 307.6673153  +6.2661594      3762.24     6696.888     7767.312     77.99732     155.7476      311.186      1.859     4.55     858.9289     54.84615     424.8445        33     1.683     1.122 -77.14  16
       677     94.4425     16.4259 307.8995213  +6.6623602     702.9368     1077.769     829.4783      77.6262      155.624     311.0004      1.595     4.25     837.2575     54.84615     108.8538         7     1.160     0.443  62.68   0
       678    750.3772   1015.9896 307.5937597  +6.2715262      563.438     1321.015     1974.469      77.6262     155.4383     311.0004      2.163     4.66     854.4189     54.84615      97.3681         5     1.029     0.600 -19.46   0
       679    709.2565   1015.0967 307.6108617  +6.2705291      1081.64     1774.089     2391.821     77.87381     155.5621     311.3716      1.750     4.55     855.1697     54.84615     143.6583        16     1.101     1.038  84.26   0
       680    749.3784   1010.9261 307.5943426  +6.2735837     1053.943     2266.076     3254.362      77.6262     155.5002     311.0932      2.877     6.98     854.4219     54.84615       138.09        17     1.601     1.094 -82.87   0
       681    956.7889   1005.0028 307.5084257  +6.2829103      4991.06     10168.77     10573.37      77.6262     155.3144     311.0313      2.126     4.91     849.9265     54.84615     597.2214        47     1.760     1.401 -84.89   0
       682    710.9786   1005.4983 307.6104657  +6.2745493     852.9692     1355.818     2346.415     77.87381     155.4383     310.9385      1.869     5.54     855.0604     54.84615      111.499         9     1.129     0.765 -47.30   3
       683    716.6882   1003.2975 307.6081683  +6.2756476     2285.343     4410.841     5139.477     77.99732     156.0563      311.186      2.200     5.26     854.9596     54.84615     270.5234        33     1.690     1.326 -69.82   2
       684    439.6511   1003.8759 307.7231674  +6.2661931     912.4874     1576.628     1903.003     77.99732     155.6858     311.1551      1.636     5.16     857.8367     54.84615      152.803        12     1.135     0.951 -77.96   0
       685    731.6649   1002.6331 307.6019723  +6.2764194      891.038     1429.066     806.0439     77.87381      155.624     311.1242      1.704     6.37     854.7464     54.84615     114.4214        11     1.203     0.976  -0.23   0
