#   1 NUMBER                 Running object number                                     
#   2 X_IMAGE                Object position along x                                    [pixel]
#   3 Y_IMAGE                Object position along y                                    [pixel]
#   4 ALPHA_J2000            Right ascension of barycenter (J2000)                      [deg]
#   5 DELTA_J2000            Declination of barycenter (J2000)                          [deg]
#   6 FLUX_APER              Flux vector within fixed circular aperture(s)              [count]
#   9 FLUXERR_APER           RMS error vector for aperture flux(es)                     [count]
#  12 FLUX_RADIUS            Fraction-of-light radii                                    [pixel]
#  13 FWHM_IMAGE             FWHM assuming a gaussian core                              [pixel]
#  14 BACKGROUND             Background at centroid position                            [count]
#  15 THRESHOLD              Detection threshold above background                       [count]
#  16 FLUX_MAX               Peak flux above background                                 [count]
#  17 ISOAREA_IMAGE          Isophotal area above Analysis threshold                    [pixel**2]
#  18 A_IMAGE                Profile RMS along major axis                               [pixel]
#  19 B_IMAGE                Profile RMS along minor axis                               [pixel]
#  20 THETA_IMAGE            Position angle (CCW/x)                                     [deg]
#  21 FLAGS                  Extraction flags                                          
         1    172.6685     15.1475 307.8651111  +6.6681979     12234.01     17020.44     17286.01     77.48753     154.7289     309.5501      1.496     3.37      822.133     54.57409     1787.073        32     1.329     0.983 -56.85   0
         2    918.3553     12.7756 307.5553645  +6.6940792     4477.358     6171.159     6576.207     77.11765      154.852     309.4885      1.458     3.28     813.9842     54.57409      640.803        24     1.313     0.907 -59.65   0
         3    516.8682     13.1917 307.7221687  +6.6805239     3309.408     4227.121     3832.022     77.11765     154.6056     309.5193      1.367     3.40     816.2346     54.57409     455.0067        16     1.198     0.766 -64.45   0
         4    455.0441     11.6800 307.7479068  +6.6790820     2076.594     2991.203     2823.195     77.61042      154.852     309.6117      1.549     3.86     817.9082     54.57409     260.8254        18     1.304     0.881 -54.36   0
         5    719.3613     11.2334 307.6380993  +6.6880895     2322.816     3105.759     3474.895     77.36443     154.6673     309.3961      1.407     3.36     814.4477     54.57409      380.196        17     1.160     0.823 -67.55   0
         6     74.2304     11.8564 307.9061198  +6.6662547     572.1355      735.355     937.7477     77.48752     154.9135     309.5193      1.293     4.24     821.8282     54.57409     85.73322         6     0.788     0.651   9.19   0
         7    983.2740      8.8175 307.5285225  +6.6978720     2141.718     3302.397     3836.681     77.11765     154.6673     309.5193      1.687     4.11      812.112     54.57409      295.975        22     1.500     0.872 -69.60  16
         8    702.5088      5.5698 307.6452915  +6.6898656     8728.907     11260.12     11721.68     77.73312     154.6056     289.3394      1.393     3.15      814.597     54.57409     1348.049        24     1.229     0.869 -60.66  16
         9    622.7555      4.8462 307.6784534  +6.6875042      4336.43     5817.433     5765.277     77.61042      154.852     281.6954      1.426     3.24      815.436     54.57409     657.7183        20     1.211     0.856 -55.29  16
        10    324.7933      4.4440 307.8022676  +6.6777123     989.1418       1576.8     1604.872     77.11765     154.6056     276.7805      1.582     4.61     823.3621     54.57409     163.1512        12     1.239     0.726 -50.82  16
        11    422.7498      1.7831 307.7616576  +6.6820879     5844.267     7073.132      7393.92     72.26896     129.5143     239.9672      1.211     3.55     820.0518     54.57409     1092.215        17     1.133     0.757 -28.89  24
        12    378.4792      3.2047 307.7800037  +6.6800204     877.6489     1157.669     1297.112     77.24114     146.1771      261.008      1.468     3.93     822.2612     54.57409     124.1753        10     1.101     0.637 -39.13  16
        13     23.5868      1.5958 307.9275068  +6.6687903     6450.274     7633.119      7995.48     70.39846     126.6871     237.0099      1.155     3.13      820.946     54.57409     1251.941        17     1.221     0.633 -13.26  24
        14    289.8666    995.8699 307.7834104  +6.2672686     15540.55     23715.83     25450.16     77.61042     154.9135     309.6117      1.665     3.73     848.0396     54.57409     2055.106        53     1.841     1.120 -44.78   0
        15    744.2764   1023.5204 307.5938308  +6.2710218     584.8488     867.7449     1098.316     69.44433     125.4017     235.4769      1.293     4.12     847.8677     54.57409     100.3521         7     1.037     0.468  10.96  24
        16    711.3597   1021.8127 307.6075538  +6.2706303      6998.46     10898.25     11452.23     77.11765     146.1119     260.6425      1.666     3.78     847.8978     54.57409     819.0801        33     1.406     1.138 -53.57  24
        17    578.5708   1023.5613 307.6626238  +6.2654816     27040.17     31229.34     32896.88     68.61594     124.4098     234.5848      1.020     2.72     848.7241     54.57409     7064.442        36     1.281     0.700   1.11  24
        18    567.3582   1021.0020 307.6673647  +6.2661641      4123.06     6786.317     7610.754     76.99397     152.6202     271.3205      1.777     3.79     849.1972     54.57409     467.4933        32     1.436     1.194 -59.95  24
        19    426.2422   1022.0108 307.7259156  +6.2610364     3996.602     6030.812     6378.801     76.99397     144.0756     257.8855      1.605     3.75     849.0266     54.57409     497.8248        26     1.312     1.132 -64.34  24
        20    208.4303   1023.5923 307.8162855  +6.2530990     1381.061     1541.972     1536.715     68.19797      124.103     234.0153      1.107     2.79     846.0953     54.57409     269.6311         8     0.983     0.491  -0.63  24
        21    414.5693    996.3435 307.7316237  +6.2712424     1056.244     1624.408     1290.628     77.48753     154.9135     309.4885      1.643     5.20     848.0097     54.57409     166.9733        13     1.328     0.897  88.52   0
        22    805.5980    995.6194 307.5693057  +6.2845817     1037.316     1599.324     1561.568     77.24114     154.4206     309.3653      1.617     4.60      845.868     54.57409     156.4355        12     1.186     0.784 -56.38   0
        23    116.5989    996.7396 307.8553123  +6.2611082     528.0836     929.4388     711.8615     76.99397     154.6673     309.3037      1.724     3.79     844.1198     54.57409     85.18713         5     0.976     0.422  -7.82   0
        24    261.1962    993.2358 307.7954015  +6.2673967     911.0134     1272.078     1765.437     76.74599     154.7289     309.4269      1.455     4.58     846.8511     54.57409     128.3076        10     1.154     0.738 -60.23   0
        25    905.4728    990.0938 307.5280246  +6.2901856     8122.542     13823.76     14273.17     77.48752      154.975     309.6424      1.838     3.96     844.5845     54.57409     973.5229        41     1.552     1.285 -66.21   0
        26    536.7805    989.4133 307.6811189  +6.2781843     8771.574     13363.22     14387.94     77.36443     154.6056     309.5193      1.647     3.70     849.0471     54.57409     1123.247        37     1.464     1.110 -54.29   0
        27    879.0569    986.2361 307.5391210  +6.2908997     11356.18     19577.62     20512.87     77.48752      154.852     309.6424      1.838     3.99      845.064     54.57409     1294.642        48     1.576     1.323 -60.08   0
        28    591.8265    986.8123 307.6583528  +6.2810946     1414.991     2423.844      2521.46     77.24113     154.6673     309.5501      1.895     5.30     847.6746     54.57409     178.0774        18     1.442     0.941 -67.70   0
        29   1000.7864    985.6576 307.4886002  +6.2951849      4099.94     7856.583     8242.937     76.99397     154.7289     309.3345      2.022     4.19     842.0884     54.57409     455.1133        41     1.578     1.401 -74.89   0
        30    523.3580    985.2693 307.6868305  +6.2794471     4153.402     6559.087      7040.99     77.48753      154.852     309.6732      1.742     3.75     848.8927     54.57409     550.1483        32     1.476     1.215 -31.62   0
        31    632.7535    984.5676 307.6414363  +6.2833862     1362.638     2316.335     1710.264     77.36443      154.852     309.5193      1.762     4.82     847.1522     54.57409     181.1226        18     1.358     0.956 -51.88   0
        32     57.9082    983.5168 307.8801227  +6.2645994     843.9694     1191.895     923.5475     77.36443     155.1594     309.7348      1.460     3.98     843.2085     54.57409     136.3876         7     0.941     0.718 -58.28   0
        33    476.3439    981.8105 307.7064653  +6.2793053     2197.128     3156.574     3091.841     76.99397     154.7904     309.3037      1.552     3.91     848.6442     54.57409     309.1089        17     1.248     0.884 -50.77   0
        34    384.9428    980.0383 307.7444711  +6.2769834     516.3707     663.3248     180.7842     77.61042     154.9135     309.6117      1.385     3.71     847.5806     54.57409     81.57153         5     1.049     0.378 -34.26   0
        35    910.8068    973.7827 307.5263552  +6.2970967      40353.8     69067.44     72671.88     77.24113     154.6056     309.4577      1.840     3.82     844.0516     54.57409     4669.789        71     1.622     1.384 -62.64   0
        36    316.4263    974.4207 307.7731053  +6.2770116     466.5565     408.0935     224.6026     77.24114     154.6673     309.5501      1.249     4.16     847.3015     54.57409     64.17816         5     1.003     0.493  87.48   0
        37    217.9454    972.4976 307.8140550  +6.2745101     1867.171     3136.589     3377.065     77.48752      154.852     309.8271      1.807     5.25     845.1013     54.57409     224.6083        24     1.628     1.007 -55.59   0
        38    616.9813    969.9324 307.6484752  +6.2889020     807.7609     1245.057     898.1439     77.24114     154.7904     309.5193      1.563     6.04     847.0905     54.57409     124.0358        11     1.423     0.721 -68.55   0
        39    106.4840    970.8870 307.8603824  +6.2714415     763.6969     1111.878     1584.532     77.36443     155.0365     309.6424      1.671     4.72     843.1892     54.57409     102.0826         8     0.907     0.695 -35.74   0
        40    808.7723    967.5440 307.5689272  +6.2962777      2394.65     3685.575     3538.552     77.24114     154.9135     309.4885      1.628     4.01     845.3553     54.57409     303.9589        21     1.401     0.954 -62.92   0
        41    756.9254    965.5109 307.5905212  +6.2953909     6552.257     10423.84     11243.88     77.61042     155.1594      309.704      1.756     3.80     846.1551     54.57409     871.2255        38     1.647     1.107 -69.93   0
        42    226.2391    964.6165 307.8108770  +6.2780412     1424.505     2121.478     2260.985     77.24114     154.7289     309.3961      1.646     3.92     845.1031     54.57409     207.2911        14     1.317     0.753 -62.50   0
        43    543.7966    964.5789 307.6790392  +6.2886707     1113.447     1598.046     1324.553     77.24114      154.544     309.3961      1.591     4.59       848.21     54.57409     128.1533        14     1.117     0.940 -81.30   0
        44    190.9347    963.7477 307.8255630  +6.2772178     872.3885     1673.193     1692.306     77.61042     154.7904     309.5809      2.203     4.85     844.5854     54.57409     119.1756        11     1.169     1.001 -69.64   0
        45     51.1384    962.5933 307.8836384  +6.2730098     2712.936     4299.808     3943.721     76.99397     154.6673     309.3653      1.728     4.09     842.7002     54.57409     324.7213        25     1.456     1.051 -55.54   0
        46    945.2324    960.5012 307.5125059  +6.3037242     6410.852     10912.33     11107.16     77.61042     154.7289     309.7348      1.823     4.06     842.9074     54.57409     727.9149        39     1.528     1.268 -68.41   0
        47    201.5483    956.5986 307.8213974  +6.2805245     628.1587     881.0264      809.247     76.99397     154.4823     309.1804      1.406     4.30     844.5743     54.57409     101.3313         5     0.977     0.540 -49.02   0
        48    627.8929    954.9119 307.6444484  +6.2954667     659.1959      960.947     819.0233     77.61042     155.2822      309.704      1.982     4.89     846.9108     54.57409     102.3226         8     1.371     0.493 -57.17   0
        49    919.1069    951.8929 307.5236407  +6.3064094     1955.794     2974.315     3034.083     77.61042     155.3436     309.5809      1.625     3.40      843.302     54.57409     279.7894        20     1.205     0.997 -75.90   0
        50    639.7226    948.1376 307.6397640  +6.2986577       4704.7     7034.711     7037.443     77.85564     154.9135     309.5809      1.634     3.62     846.7357     54.57409     624.6072        29     1.360     1.074 -55.99   0
        51    251.8938    948.2606 307.8007766  +6.2856519     4637.531     6952.763     7115.778     77.48753      154.852     309.6424      1.606     3.65     845.3665     54.57409     635.5909        30     1.478     0.982 -55.22   0
        52    778.6462    948.3421 307.5820777  +6.3032019     1262.368     1745.601      1993.78     77.61042      154.852     309.7348      1.477     4.29     845.3964     54.57409     155.9745        11     1.039     0.750 -49.18   0
        53    989.5841    947.4127 307.4945285  +6.3106014     730.5175     1248.857     1827.063     77.36443      154.544     309.5501      2.340     4.65     841.5173     54.57409     97.47601         7     1.204     0.509 -38.92   0
        54    461.8387    946.6804 307.7136668  +6.2933234     1151.995     1561.254     1345.678     77.48753     154.9135     309.5809      1.518     5.19     847.0558     54.57409     154.3448        11     1.179     0.659 -53.21   0
        55     20.5050    945.8873 307.8969190  +6.2788788     2253.691     3403.152     3379.817     77.61042     155.2208     309.6732      1.584     3.64     842.1653     54.57409     309.9536        21     1.306     0.987 -49.18   0
        56    871.3033    944.2853 307.5437428  +6.3079603     759.9998     1270.883     924.6113     77.61042     155.2208     309.6732      1.792     4.63     844.3112     54.57409     105.7104        11     1.139     0.898 -83.71   0
        57    963.3190    942.7524 307.5055894  +6.3116526     631.4581     916.3393      610.001     77.61042      154.852     309.6424      1.501     3.87     842.0438     54.57409     108.5286         5     0.839     0.682  37.80   0
        58    943.3936    941.7068 307.5138974  +6.3114220     711.4306      1240.08     1266.129     77.24114      154.544     309.4577      1.645     6.11     842.4733     54.57409     97.35443         9     1.520     0.691 -48.42   0
        59    288.0573    941.7444 307.7859819  +6.2895519     1038.692     1436.653     1837.035     77.73312     154.9135     309.6424      1.518     4.78     845.8378     54.57409     126.7069        13     1.237     0.752 -62.02   0
        60    564.4434    940.5540 307.6712729  +6.2992777     1839.384     2580.034     2681.033     77.61042      154.852     309.5501      1.546     4.16     847.2662     54.57409     238.6327        15     1.134     0.944 -39.26   0
        61    996.1493    939.3261 307.4920727  +6.3141580     740.4888     1659.035     1998.592     77.61042     154.9135     309.6424      2.759     5.18      841.207     54.57409     116.0245         9     1.234     0.615 -82.19   0
        62     53.1942    937.9113 307.8836170  +6.2832677     862.5334     1145.753     1902.426     77.11765      154.544     309.3653      1.535     5.52     842.1119     54.57409     122.5179         9     1.102     0.778  87.55   0
        63    603.7567    936.7598 307.6550779  +6.3021555     1286.066     1994.779     2009.374     77.36443      154.852     309.4885      1.609     4.46     847.0098     54.57409     167.3365        15     1.221     0.928 -77.77   0
        64    283.3665    934.7228 307.7881655  +6.2922936     1603.676     2500.048     2777.093     77.48753      154.852     309.5809      1.646     4.04      845.485     54.57409     213.9343        17     1.342     0.878 -67.49   0
        65    550.7759    933.5710 307.6771817  +6.3017043     545.8868     685.2557     340.4232     77.11765     154.7289     309.4577      1.295     3.76     847.1169     54.57409     80.24274         5     1.008     0.404 -83.48   0
        66    750.4747    930.7548 307.5943631  +6.3095244     1020.237     1556.964     1611.321     77.48753     154.9135     309.6424      1.848     4.41     845.4158     54.57409     116.6036        10     0.950     0.790 -87.14   0
        67    887.8184    927.4148 307.5374499  +6.3154743     6915.114     11113.73     11556.64     77.36443      154.544     309.5193      1.734     3.60     843.4797     54.57409     870.3986        38     1.506     1.166 -70.08   0
        68    125.5109    929.0398 307.8538931  +6.2893541     652.5779     909.2628     1163.691     77.61042     154.7904     309.6424      1.727     4.84     842.4284     54.57409     97.92633         8     1.376     0.483 -84.26   0
        69    423.8641    924.5071 307.7301777  +6.3012084     2220.743     3145.967      3260.46     77.61042     155.0365     309.6732      1.551     3.58     845.9174     54.57409     313.4911        19     1.225     0.963 -66.87   0
        70    325.3636    923.0123 307.7711233  +6.2985328     10074.33     15097.07     15485.41     77.11765     154.6673     309.3345      1.586     3.51     845.8279     54.57409     1371.652        39     1.483     1.075 -54.20   0
        71    592.9996    924.5372 307.6599539  +6.3068425     647.0778     901.2353     789.9477     76.87008     154.6056     309.3653      1.510     4.51     846.8745     54.57409     101.6725         5     1.065     0.544  78.42   0
        72    245.4457    921.9713 307.8043381  +6.2962887     7360.327     11160.13     11600.25     77.11765     154.9135     309.5193      1.619     3.59     844.5906     54.57409     966.1962        34     1.427     1.065 -56.19   0
        73    757.9154    916.0667 307.5917654  +6.3158359     716.5256     1074.598     1548.218     77.73312      155.098     309.6732      2.141     6.49     844.9828     54.57409     98.42322        10     1.410     0.839 -71.18   0
        74    573.6090    916.2652 307.6682822  +6.3096105     1240.366      1834.64     2145.442     77.11765     154.6673     309.4885      1.560     3.62     846.6699     54.57409     180.2534        14     0.997     0.976  81.26   0
        75    136.0495    913.3253 307.8500473  +6.2961943     551.3717     508.9842     353.3595     77.61042     154.9135     309.6424      1.390     3.86     842.2856     54.57409     78.95581         5     1.268     0.336 -48.01   0
        76    903.8121    912.0573 307.5313226  +6.3223462      1005.01      1599.09     1759.194     76.99397     154.7289     309.3345      1.662     5.49     842.6938     54.57409     122.7084        12     1.288     0.660 -74.98   0
        77    860.2870    911.0458 307.5494284  +6.3213161     730.1688     1107.729     925.4633     77.61042     154.7289     309.6117      1.468     3.22     843.7099     54.57409     106.7662         7     0.751     0.647 -77.95   0
        78    402.0024    911.0734 307.7397056  +6.3060236     671.2721     771.2324     533.0733     77.11765     154.4206     309.4885      1.384     5.07     845.5544     54.57409      139.384         7     1.157     0.629 -45.13   0
        79    970.8860    908.3448 307.5035970  +6.3261086     734.0463     1420.349      2120.06     77.61042      154.852     309.7963      2.206     4.84     841.0071     54.57409     114.4008         7     1.098     0.797  87.35   0
        80    739.9523    905.3483 307.5995826  +6.3196624     1598.772     2591.754     2580.628     77.73312     154.7289     309.6117      1.762     4.39     845.0108     54.57409     203.7349        18     1.253     1.023 -69.75   0
        81    563.8356    905.5706 307.6726987  +6.3136994     749.5214     1015.537     361.3637     77.24114     154.6056     309.4269      1.443     4.53     846.4311     54.57409     149.6433         9     1.183     0.778 -70.66   0
        82    525.0203    901.3257 307.6889571  +6.3141563     1145.299     1870.399     2107.991     77.24113     154.7289     309.5501      1.962     5.83     846.0897     54.57409       152.35        14     1.491     0.677 -58.34   0
        83    971.5007    901.0502 307.5035855  +6.3291405     1160.637     1639.813     2196.244     77.61042      154.852     309.7655      1.665     6.19     840.8079     54.57409     152.2013        14     1.339     0.804 -73.67   0
        84    615.7012    901.6832 307.6512946  +6.3170343     674.1613     943.7646     361.9283     77.61042     155.3436      309.704      1.349     4.56     846.3128     54.57409     103.9026         8     1.059     0.559 -68.97   0
        85    604.1742    902.0964 307.6560668  +6.3164793     879.9358     1019.014     547.8292     77.73312     154.6056     309.5193      1.287     2.74     846.4251     54.57409     140.5453         8     0.824     0.629 -42.27   0
        86    658.4197    898.8311 307.6336535  +6.3196361     2683.566     3923.901     4252.942     77.11765     154.6673     309.4885      1.538     3.67     845.4966     54.57409      362.373        21     1.293     0.953 -57.83   0
        87     55.1288    894.9477 307.8842623  +6.3010683     2882.621      4682.06     4802.701     77.48753     154.7904     309.6117      1.716     3.88     840.8385     54.57409     406.0756        28     1.593     1.011 -60.19   0
        88    948.8099    896.1877 307.5131695  +6.3303937      632.819     722.0703     1058.996     77.36443     154.6673     309.5501      1.276     3.60     841.2192     54.57409     108.9666         6     0.753     0.628   3.82   0
        89    819.6007    895.1575 307.5668532  +6.3265214     868.7874     1340.818     1231.286     76.99397      154.544      309.242      1.614     5.90     843.6588     54.57409     121.3235        11     1.049     0.934 -48.08   0
        90    198.5095    894.1327 307.8247619  +6.3062095     2400.113      3546.91     3585.523     77.73312      154.975     309.6117      1.594     3.92     842.9197     54.57409     330.9941        18     1.283     0.853 -56.28   0
        91     72.6761    894.3717 307.8769966  +6.3018944     2198.822      3341.56     3227.357     77.48753      154.852     309.5809      1.639     3.92     841.1227     54.57409     251.5331        17     1.172     0.929 -48.20   0
        92    936.8914    893.6068 307.5182045  +6.3310630      790.059     1146.634     1031.083     77.24113      154.544     309.4269      1.647     5.35     841.4526     54.57409     105.3761         9     0.994     0.812 -54.91   0
        93    232.7625    890.7532 307.8106545  +6.3087514     726.7001     1163.484     1292.493     77.36443     154.7904     309.4885      1.769     4.31     843.4088     54.57409     97.60211         8     0.924     0.643 -84.20   0
        94    790.5052    889.5115 307.5791229  +6.3278837     686.7875     758.3514     707.5849     77.61042     155.2208     309.6732      1.368     5.38     843.8676     54.57409     89.74982         8     1.041     0.785 -53.95   0
        95    653.1129    888.0726 307.6362175  +6.3239005     7468.241     11003.24     11401.29     77.73312      155.098     309.6117      1.562     3.37     845.3073     54.57409     923.2686        29     1.433     0.988 -57.06   0
        96    337.4236    890.0851 307.7672232  +6.3125290     1007.438     1376.481     1763.626     77.61042     154.6056     309.4885      1.490     4.31     844.9217     54.57409     160.2831         9     0.909     0.697 -31.27   0
        97     12.8949    886.4615 307.9020826  +6.3031549     1244.821     1973.155     1918.033     77.48752     154.9135     309.6424      1.745     4.52     839.7058     54.57409     169.5642        14     1.216     0.795 -40.31   0
        98    890.9766    884.2449 307.5375820  +6.3334012     2713.186     4207.485     4353.758     77.11765      154.852     309.4577      1.651     3.67     842.3257     54.57409     328.5652        24     1.261     1.093 -65.30   0
        99     26.1706    885.1164 307.8966163  +6.3041555     1214.242     2050.256     1967.784     77.61042     154.6673     309.5193      1.638     5.38     839.9274     54.57409     167.6554        13     1.352     0.752 -47.35   0
       100    336.0769    881.2103 307.7680807  +6.3161476     17313.03     25303.18      26694.2     77.24113     154.4823     309.4577      1.545     3.51     844.6138     54.57409     2246.648        42     1.462     1.045 -57.92   0
       101     70.7745    882.3240 307.8781922  +6.3068041     1287.922     2011.429     2343.262     77.24114     154.7904     309.5809      1.710     4.44     840.7738     54.57409     184.4403        16     1.336     0.833 -58.64   0
       102    387.2662    880.5204 307.7468505  +6.3181439      639.675     898.5032     1174.305     77.73312      154.975     309.5809      1.525     5.82     844.6584     54.57409     88.27545         7     1.454     0.656 -82.63   0
       103    207.3424    880.3985 307.8215570  +6.3121749     1254.142     1579.567     1627.811     76.99397      154.544     309.3345      1.295     3.39     842.6491     54.57409     177.3512        13     1.100     0.765 -57.17   0
       104    413.8635    872.0386 307.7360924  +6.3225343      1195.23      1653.57     1915.213     77.61042     154.7904     309.6732      1.461     3.63     844.3742     54.57409     164.4014        12     1.083     0.743 -59.06   0
       105     99.4045    871.6882 307.8666642  +6.3121545     1804.691     2567.016     2706.695     77.11765      154.544     309.3345      1.624     4.38     841.1864     54.57409      229.078        17     1.362     0.829 -72.51   0
       106    494.4988    868.5995 307.7027280  +6.3266475     767.4633     1167.206     1411.527     77.11765     154.4823      309.242      1.622     4.96     844.8663     54.57409     126.7852         9     1.089     0.722 -62.55   0
       107    667.6713    868.1954 307.6308388  +6.3325917     835.3327     1434.745     1938.013     77.24114     154.4823     309.4577      1.902     5.34     844.4655     54.57409     113.3157         9     1.054     0.763 -54.19   0
       108    881.1912    865.9300 307.5422575  +6.3406367     1991.992     3052.915     2803.754     77.11765     154.4823     309.4885      1.561     3.95     842.1077     54.57409     246.8665        20     1.270     1.019 -61.76   0
       109    851.9416    865.3990 307.5544203  +6.3398828     2054.204     3170.541     3321.033     76.99397     154.4823     309.3037      1.628     3.87     842.5717     54.57409     283.8965        19     1.288     0.948 -64.71   0
       110    815.3231    864.9263 307.5696409  +6.3388594     3189.839     4878.645     5751.153     77.85564      155.098     309.6424      1.662     3.60     842.9112     54.57409     421.8864        24     1.372     0.964 -62.67   0
       111     83.0500    865.3861 307.8736666  +6.3142078     2451.094     3773.263     4213.854     76.99397     154.7904     309.3345      1.615     3.49     840.6562     54.57409     325.3347        20     1.264     0.935 -64.37   0
       112    551.1786    856.4361 307.6796023  +6.3335609     363555.3     522572.6     542297.4     77.11765     154.6056     309.3653      1.561     3.48     845.1122     54.57409     49347.87       160     1.576     1.222 -59.63   4
       113    330.6671    863.0134 307.7709387  +6.3234788     689.3837     1093.445     1503.427     77.11765     154.6673     309.5193      1.799     5.21     844.0282     54.57409     96.95129         8     1.084     0.706 -40.64   0
       114    639.0911    859.3555 307.6430020  +6.3352882     1340.208     2024.558     2219.831     77.61042     154.7904     309.7348      1.629     4.13     844.8553     54.57409     195.5533        15     1.166     0.940 -82.84   0
       115    395.3893    859.0050 307.7442008  +6.3272974     8135.906     12032.58     12478.92     77.24113     154.6056     309.5193      1.553     3.49      844.034     54.57409      1159.39        29     1.366     1.000 -50.13   0
       116    338.5776    857.4424 307.7678416  +6.3260431     13815.94     19857.16     20935.52     77.24114     154.7289     309.4577      1.586     3.59     843.8763     54.57409     1998.633        41     1.491     1.052 -50.14   0
       117    451.7009    859.5803 307.7208007  +6.3289415      464.139     632.9727     1158.563     77.61042     154.7289     309.3961      1.317     3.49     844.3063     54.57409     80.22925         5     0.763     0.461  16.78   0
       118    657.0319    853.7193 307.6357416  +6.3382131     3727.013     5331.774     5276.799     77.48753      154.852     309.5809      1.518     3.39     844.3496     54.57409     510.8262        25     1.413     0.926 -67.03   0
       119    889.6219    852.5290 307.5392049  +6.3464494     5314.727     8313.615     9265.433     77.24114     154.7289     309.6117      1.742     3.66     841.6363     54.57409     644.1479        31     1.421     1.188 -52.96   0
       120    728.6582    850.5785 307.6061062  +6.3418967     837.6295     1348.142     1206.735     77.24114     154.7289     309.4269      1.727     4.43     843.9973     54.57409     140.0567         8     1.128     0.512 -47.83   0
       121    631.9533    847.6414 307.6463584  +6.3398861     3457.081     5105.079     5392.771     77.48752      154.852     309.4885      1.548     3.65     844.6389     54.57409     456.8771        21     1.319     0.890 -62.44   0
       122   1022.7971    846.6255 307.4841039  +6.3533131      4339.27     6383.376     6466.833     75.99724     134.9912     246.5106      1.624     4.01     838.0814     54.57409     509.9546        23     1.406     0.937 -80.31  24
       123    820.3090    846.8019 307.5681771  +6.3465076     1773.522     2648.005     3007.155     76.87008      154.544     309.3653      1.627     3.60     842.6149     54.57409     226.7216        18     1.178     0.972 -62.46   0
       124    174.3739    847.4869 307.8363533  +6.3246571     721.7244     796.4307     1039.255     77.73312     154.6673     309.5193      1.198     3.99     841.6155     54.57409     117.4846         6     0.988     0.460 -55.46   0
       125    856.1841    847.0329 307.5532730  +6.3476061     3387.487     3400.697     3131.406     77.24114     154.6056     309.4885      0.439     0.83      842.123     54.57409     2588.091         5     0.390     0.251   8.93   0
       126    624.1160    843.4363 307.6497536  +6.3413607     2013.217      4467.25     5579.765     77.61042      154.852     309.5809      2.431     7.94     844.6042     54.57409     366.5767        32     2.472     0.912 -60.38   0
       127    947.7278    845.5936 307.5153095  +6.3512446     780.7342      1361.61     1619.168     77.24114     154.4206     309.5193      1.864     4.78      840.207     54.57409     121.0037         8     1.084     0.598  85.74   0
       128    908.3740    840.3699 307.5318251  +6.3520927     3136.246     4911.633     5269.211     77.11765     154.6673     309.4577      1.672     3.72     841.0584     54.57409     383.1265        24     1.337     1.048 -65.64   0
       129    318.6301    841.2828 307.7766672  +6.3320469      1119.79     1591.617     1304.185     77.48753     154.6673     309.5501      1.579     3.87     843.4524     54.57409     157.2787        13     1.244     0.696 -60.92   0
       130    366.5783    836.4711 307.7569206  +6.3356367     2841.057     3971.807     3899.584     77.24114     154.7289     309.5809      1.522     3.72     843.4406     54.57409      413.834        21     1.355     0.892 -52.12   0
       131    846.7911    831.4026 307.5576961  +6.3537462     451.6697      549.144     1020.619     76.99397      154.544     309.4269      1.051     3.52     841.9157     54.57409      78.6488         5     0.770     0.463 -15.16   0
       132    847.4208    825.3112 307.5576384  +6.3562819     1068.307     1794.977     1829.143     77.48753     154.6056     309.4885      1.927     6.46     841.7918     54.57409     134.4413        14     1.483     0.796 -85.37   0
       133    502.7230    826.1006 307.7007398  +6.3444666      3424.17     4760.359     4935.123     77.24114     155.0365     309.6424      1.474     3.50     843.8386     54.57409     461.9762        18     1.170     0.907 -62.85   0
       134    568.1653    823.5300 307.6736531  +6.3477122     695.6801     1067.862     1088.587     77.48753      154.852      309.704      1.574     4.56     844.0198     54.57409     109.0701         6     0.983     0.601 -66.05   0
       135    556.4103    821.5773 307.6785996  +6.3481260     1472.402     2122.158     2756.772     77.24114     154.6056     309.4577      1.635     5.37     843.9269     54.57409     266.9016        17     1.610     0.774 -63.12   0
       136    549.6124    822.2681 307.6813990  +6.3476140     6556.906     9609.949     10320.51     77.11765     154.7289     309.5193      1.571     3.61      843.917     54.57409     987.5793        32     1.378     1.037 -58.23   0
       137    467.3745    821.1631 307.7155830  +6.3453245     1589.899     2234.084     2105.992     77.24114     154.6673     309.3961      1.521     3.83     843.5955     54.57409     249.9911        15     1.236     0.760 -58.49   0
       138    261.0915    822.3107 307.8011957  +6.3379538     732.3651     1029.444     1107.487     77.61042     155.3436      309.704      1.412     3.87     842.3418     54.57409      150.462         5     0.846     0.507 -45.26   0
       139    885.3838    820.2059 307.5420456  +6.3596524     1438.006     2126.878     1971.799     77.24114     154.6056     309.4577      1.558     4.01     841.0507     54.57409      230.681        13     1.181     0.885 -52.29   0
       140    109.0722    820.3673 307.8643798  +6.3336643     1502.988     2126.811     2141.191     77.48752      154.852     309.6117      1.548     3.47     839.4542     54.57409     208.9786        15     1.123     0.850 -20.31   0
       141    685.4056    818.9969 307.6251238  +6.3534932     738.7892     1030.522     1388.161     76.99397      154.544     309.4577      1.570     4.56     843.3159     54.57409     124.7368         7     0.985     0.600 -43.61   0
       142    520.2626    816.0931 307.6937929  +6.3491835     21387.51     30666.14     31659.12     77.61042      154.852     309.6732      1.519     3.52     843.6264     54.57409     2982.912        40     1.408     1.032 -58.71   0
       143    361.6770    817.5118 307.7595930  +6.3432996     692.1111     980.0206     1032.348     77.61042     155.1594     309.6732      1.514     5.04     842.9871     54.57409     99.75159         6     1.141     0.631 -51.02   0
       144    166.2748    817.1924 307.8407363  +6.3368918     542.8214     823.5528     512.8816     77.24114     154.4206     309.4885      1.740     2.67     840.8842     54.57409     95.90295         5     0.815     0.636  39.79   0
       145    933.9886    814.3555 307.5220585  +6.3636840     3722.921     5714.324     5826.431     77.11765     154.7289     309.3345      1.639     3.69     840.2098     54.57409     463.4799        25     1.375     1.000 -74.66   0
       146    406.5396    812.0575 307.7411486  +6.3470509     668.1407     830.0257     612.8894     77.73312     154.7904     309.6424      1.546     5.55     843.2762     54.57409     90.17676         7     1.108     0.783 -60.07   0
       147     30.6799    806.6248 307.8973913  +6.3367087     1607.341     2355.162     2549.326     77.36443     154.6673     309.5809      1.546     3.87     837.9859     54.57409     245.5784        15     1.264     0.751 -51.89   0
       148    312.9404    804.8785 307.7802539  +6.3468849     3485.492     4977.219      4442.85     77.73312      154.852     309.5809      1.487     3.77     842.4985     54.57409     487.6671        21     1.353     0.914 -57.35   0
       149    778.4340    800.6264 307.5871104  +6.3641762     58755.59     85078.62     87739.56     77.11765     154.6056     309.3961      1.591     3.49     842.6635     54.57409     8238.547        64     1.483     1.117 -62.93   0
       150     12.9663    802.8187 307.9048743  +6.3376857      2154.99     3415.926     3638.938     77.11765     154.6673     309.4269      1.610     4.69     837.7637     54.57409     290.2033        20     1.449     0.928 -42.16   0
       151    716.9722    802.3529 307.6125739  +6.3614162     664.0016     851.1668     991.6204     77.24113     154.9135     309.5501      1.438     3.61     843.0222     54.57409     111.3639         5     0.798     0.551 -86.89   0
       152    235.0684    777.1341 307.8135212  +6.3557323     755570.3      1628109      1769940     77.61042     154.9135     309.6424      2.189     5.23      841.024     54.57409     63845.79       651     2.771     2.122 -84.86   4
       153    903.6685    795.8708 307.5352667  +6.3703069     8787.404     13540.73     14007.95     77.61042      154.975     309.5809      1.661     3.76     840.3401     54.57409     1122.735        41     1.521     1.171 -53.11   0
       154    706.6893    795.2637 307.6170813  +6.3640002     22958.02     33391.98     35719.06     77.48753     155.0365     309.6424      1.576     3.49     842.8362     54.57409      3339.13        48     1.448     1.099 -59.20   3
       155    700.3669    791.7325 307.6198249  +6.3652473     95270.05     136144.1     140728.5     77.48753     154.9135     309.6117      1.555     3.44     842.7512     54.57409      13432.5        73     1.475     1.115 -61.85   3
       156    394.5187    792.8571 307.7467851  +6.3545755     1464.647     1961.277     2220.718     77.73312      154.852     309.6117      1.452     4.10     842.5457     54.57409     221.2879        15     1.356     0.739 -61.78   0
       157    345.2495    792.6500 307.7672498  +6.3530137      22449.9     31999.19     33276.27     77.61042     154.7289     309.5501      1.549     3.57     842.1278     54.57409       3176.3        47     1.463     1.050 -57.95   0
       158    204.6921    794.1964 307.8255595  +6.3476716     901.7571     1743.805     2147.545     77.24114      154.544     309.3961      2.027     6.14     840.8417     54.57409     118.5617        11     1.325     0.799 -69.67   0
       159    634.3453    791.9637 307.6472318  +6.3629511     817.1816     1136.338     1420.855     77.48752      154.852     309.6424      1.503     4.23     842.8447     54.57409     127.0872         9     1.099     0.753 -79.05   0
       160    407.1187    790.5057 307.7416323  +6.3559673     24208.52     34345.93     35318.78     77.36443      155.098      309.704      1.530     3.45     842.5565     54.57409     3311.468        45     1.432     1.042 -60.33   0
       161    944.4445    789.1323 307.5185598  +6.3744446     2094.528     3058.537     2978.845     77.61042     154.7904     309.6424      1.606     3.91     839.3198     54.57409     255.3435        20     1.294     0.944 -61.15   0
       162    900.6667    787.2728 307.5368007  +6.3737566     7081.796     10428.15     11298.53     77.73312      154.975     309.5809      1.626     3.48      840.146     54.57409     958.9814        31     1.348     1.054 -66.01   0
       163    873.6375    788.2560 307.5479917  +6.3724516     683.1034     1038.587     914.5484     77.61042     154.9135     309.6424      1.602     4.33     840.5834     54.57409      93.3656         6     1.029     0.518 -58.37   0
       164    641.1879    786.3776 307.6445778  +6.3654853     7242.772     10426.79     10670.81     77.24114     154.6673     309.5193      1.549     3.58     842.6664     54.57409     1043.291        30     1.355     1.025 -63.85   0
       165    429.8003    784.4819 307.7324167  +6.3592120     1791.453     2332.584     2085.768     76.87009     154.3588     309.2729      1.499     4.66      842.276     54.57409      233.551        15     1.350     0.794 -52.29   0
       166    381.5432    785.8167 307.7524095  +6.3570481     540.3826     696.4996     1142.031     77.11765     154.7904     309.3653      2.048     6.07     842.0739     54.57409     79.14722         6     1.140     0.909 -53.81   0
       167    155.1131    783.8085 307.8464952  +6.3502991     846.9858     1230.619     900.7904     77.24113      154.544     309.4269      1.435     5.14      839.527     54.57409     131.6296         9     1.360     0.549 -59.95   0
       168   1023.5123    779.1329 307.4860608  +6.3812000     704.3576     894.7043     875.8476     69.58143     125.4777     235.4769      1.437     5.22     837.0344     54.57409     115.3817         9     1.292     0.596 -76.65  24
       169    869.9543    778.2112 307.5498571  +6.3764759      767.186      1021.11     1030.633     77.11765     154.6673     309.3345      1.493     4.95     840.5273     54.57409     111.9919         8     1.071     0.789  50.12   0
       170    594.1720    778.3481 307.6643699  +6.3672321     1072.581     1601.224     2150.937     77.24114      154.975     309.5193      1.671     5.56      842.468     54.57409     131.9276        12     1.251     0.696 -61.04   0
       171    676.3168    776.3525 307.6303268  +6.3707951      2724.26     4068.677     3732.621     77.61042      154.852     309.6117      1.571     3.55     842.3339     54.57409     390.8625        21     1.349     0.880 -51.90   0
       172    145.4804    777.1025 307.8507207  +6.3527447     1115.224     1611.585     891.1237     77.48752     155.1594     309.6732      1.471     4.07     839.0022     54.57409     232.3588        11     1.204     0.644 -64.47   0
       173    120.5055    777.1254 307.8610899  +6.3518983     1173.706     1483.187      1535.98     77.36443     155.0365     309.6117      1.510     5.67     838.4724     54.57409     171.2875        12     1.248     0.727 -51.98   0
       174    410.0731    773.1653 307.7409883  +6.3632245     58239.14     83587.95     86757.17     77.48752     154.7904     309.5809      1.524     3.48     841.6116     54.57409     8000.216        68     1.477     1.123 -58.94   0
       175    953.1349    774.3259 307.5154460  +6.3808460      746.406     1193.369     1325.297     77.73312      154.852     309.6117      1.633     5.06      838.686     54.57409     116.6622         7     1.139     0.637 -36.19   0
       176    527.8514    772.1964 307.6921151  +6.3675585     7794.234     11020.23     11111.81     76.99397     154.6056     309.1804      1.496     3.32     841.8992     54.57409      1173.66        31     1.367     0.980 -59.57   0
       177    444.5975    770.7865 307.7267325  +6.3653602     4871.208     6948.113     7709.285     77.24114      154.544     309.4577      1.570     3.63     841.5983     54.57409     735.1987        24     1.338     0.923 -62.90   0
       178    773.0388    768.7838 307.5904168  +6.3771421     12259.78     17715.86     18225.74     77.24113     154.6673     309.3961      1.543     3.38     841.7696     54.57409     1628.821        36     1.389     1.059 -60.12   0
       179    667.4367    768.5834 307.6342746  +6.3737063     500.3744     705.7408       498.55     77.24114     154.7289     309.3653      1.139     4.23     842.1776     54.57409     78.50604         5     1.197     0.425 -54.48   0
       180      2.3589    765.0393 307.9105530  +6.3529253     1140.964     1828.029     2110.381     76.87008     137.1624     248.8961      1.694     4.01     837.4344     54.57409      151.855        13     1.183     0.752 -77.88  24
       181    441.2261    764.1077 307.7283568  +6.3680047     2471.109     3386.876      3413.81     77.73312     154.6056     309.4577      1.443     3.36     841.2162     54.57409     361.8506        17     1.172     0.876 -57.00   0
       182    794.8727    762.8746 307.5815481  +6.3803086     1490.324     2285.129     2506.443     77.85564      155.098     309.6732      1.742     3.29     841.3008     54.57409     208.1067        14     1.023     0.902 -86.02   0
       183    422.0340    799.3555 307.7351418  +6.3528124     1004.292     1282.234     833.1242     77.24113     154.7904     309.5193      1.440     3.49     843.0925     54.57409     176.2711        10     1.023     0.658 -58.93   0
       184    138.7880    761.1851 307.8540358  +6.3590913     3110.048     4408.464     4497.461     77.48752      154.544     309.5501      1.512     3.56     838.2986     54.57409     431.9742        19     1.326     0.839 -56.42   0
       185    130.7404    760.8248 307.8573894  +6.3589704     12319.14      17963.2     19156.08     77.24114      154.852     309.4577      1.569     3.52     838.1839     54.57409     1801.703        39     1.430     1.055 -51.29   0
       186    963.4317    761.9410 307.5115841  +6.3863011      627.691     1057.439     1402.388     77.36443     154.9135     309.5809      1.944     5.65     838.2517     54.57409     85.28998         8     1.055     0.853 -70.35   0
       187    266.5124    760.2134 307.8010344  +6.3637699     660.4484     987.0353     1721.829     77.24114     154.6673     309.5193      1.736     5.07     840.9326     54.57409     85.35162         7     1.012     0.718 -37.06   0
       188    967.9877    757.2172 307.5098500  +6.3884027     1550.735     2504.117     2480.982     77.36443      154.544     309.5193      1.666     4.57     838.1024     54.57409     210.2153        17     1.235     1.020 -76.71   0
       189    918.5079    757.2885 307.5303946  +6.3867283     6809.806      10107.4     10456.18     77.61042     155.2822      309.704      1.622     3.48     838.8599     54.57409     910.2032        31     1.373     1.072 -61.41   0
       190    123.0072    758.1296 307.8606912  +6.3598238     3143.439      4813.77     5180.971     77.11765     154.4823     309.5193      1.564     3.41     837.9854     54.57409     461.7213        23     1.347     0.933 -36.62   1
       191    674.2891    754.8113 307.6318907  +6.3796203     1653.095     2497.257     2788.651     77.36443      154.544     309.4577      1.516     3.85     841.8356     54.57409     259.8926        16     1.326     0.797 -63.99   0
       192    560.9492    754.3069 307.6789719  +6.3760483     2615.914     3545.953     3569.555     77.48753     154.6673     309.7963      1.463     3.25     841.3778     54.57409     388.0858        21     1.278     0.925 -71.77   0
       193    408.8880    753.9468 307.7421262  +6.3711187     1200.474     1689.222     1572.946     77.61042     154.7289     309.7348      1.600     5.61     840.5813     54.57409     162.6852        11     1.242     0.715 -79.07   0
       194    692.1831    752.5126 307.6245373  +6.3811657     792.1081     989.1043     1015.655     77.36443     154.6056     309.4885      1.446     5.31     841.7967     54.57409     122.7191         9     1.184     0.672 -52.79   0
       195    122.9658    751.7455 307.8609236  +6.3624578     2085.308     3145.344     3661.514     77.48753      154.852     309.6117      1.594     3.51     837.8176     54.57409     314.3939        18     1.345     0.764 -61.27   1
       196    912.8081    749.2423 307.5330305  +6.3898605     3141.863     4701.965     4734.701     77.11765     154.6673     309.3653      1.565     3.35     838.7877     54.57409      424.584        22     1.275     0.965 -61.24   0
       197    973.1691    748.4680 307.5079907  +6.3921869     1949.964     3098.953      2916.58     77.48753      154.852     309.5809      1.679     4.11     837.9347     54.57409     252.9247        21     1.305     1.067 -52.41   0
       198    942.2332    748.7493 307.5208279  +6.3910424      3153.93     4882.351     4960.221     77.48753     154.9135     309.5501      1.642     3.64     838.1721     54.57409     429.9808        26     1.322     1.053 -56.08   0
       199    665.2343    748.7284 307.6358547  +6.3818296     1601.373     2322.347     2049.685     77.48753     154.7904     309.6117      1.598     3.75     841.6996     54.57409     214.5604        16     1.158     0.913 -28.89   0
       200    812.2720    746.6161 307.5748671  +6.3875998     1044.499     1569.337     1026.625     77.11765     154.7904     309.5193      1.481     5.04     840.6388     54.57409     140.0182        13     1.328     0.670 -54.78   0
       201    888.0449    744.3219 307.5434783  +6.3910683     996.0933     1130.905      1475.23     77.48752      154.852     309.6117      1.336     5.61     839.5033     54.57409     117.2625        11     0.982     0.902 -47.30   0
       202    237.6225    743.5886 307.8135899  +6.3696658     1998.557     2871.587     3408.458     77.24114     154.6673     309.5193      1.598     3.50     840.4757     54.57409     305.2595        15     1.170     0.793 -56.75   0
       203    930.8687    738.6853 307.5258836  +6.3948193     1056.336     1434.867     1316.488     77.73312      155.098     309.6424      1.500     3.65     837.8849     54.57409     136.6495         9     0.918     0.675 -69.54   0
       204    258.0920    738.9166 307.8052475  +6.3722798     872.9037     1216.726     1174.029     77.36443     155.1594     309.7348      1.364     4.42     840.3984     54.57409     129.2105        10     0.983     0.733 -62.36   0
       205    153.3475    738.6490 307.8487496  +6.3688824     792.8759     1145.026     1166.414     77.73312     154.7289     309.5809      1.554     3.89     837.5651     54.57409     148.0063         8     0.947     0.740 -60.10   0
       206    957.1048    736.5010 307.5150616  +6.3965933     2448.234     3587.965     4278.185     77.61042     155.3436     309.4577      1.629     3.60     837.8062     54.57409     316.3914        22     1.309     0.982 -62.24   0
       207    904.4476    737.5664 307.5368928  +6.3944027      1149.92      1450.81     1441.555     77.36443      154.852     309.5501      1.565     3.67      838.786     54.57409      180.553        14     1.119     0.840 -54.56   0
       208    676.7504    735.3020 307.6315226  +6.3877563     959.4817     1436.388     2065.367     77.61042     154.7904     309.7655      2.144     3.72     841.3537     54.57409     203.6271        12     1.263     0.778 -87.49   0
       209    397.6455    731.0873 307.7475627  +6.3801798     705.9964     800.9797     790.2488     77.61042     154.7289     309.6117      1.544     5.42     839.4799     54.57409     112.1722         8     1.310     0.633 -63.47   0
       210    998.7712    729.9598 307.4979774  +6.4006784     1561.575     2608.865     2313.179     77.24113     154.6056     309.4885      1.652     3.95     837.5258     54.57409     244.7839        17     1.241     1.012 -66.21   0
       211    467.8488    731.1382 307.7184093  +6.3825046        714.4     787.8434     839.5388     77.61042     154.7904     309.6732      1.332     4.47     839.6854     54.57409     120.3403         7     1.121     0.507 -39.26   0
       212    625.3971    729.5655 307.6530397  +6.3884123     895.6331     1160.843     1323.494       76.746     154.6673     309.3653      1.529     2.72     841.2123     54.57409     159.0139         7     0.854     0.568 -61.18   0
       213    800.3238    728.3963 307.5804386  +6.3947237     1297.078     1789.407     1795.195     77.11765     154.3588     309.4885      1.451     3.36     840.0784     54.57409     189.0364        12     0.998     0.814 -48.13   0
       214    886.3720    725.5704 307.5448002  +6.3987538     1646.527     2479.904     2930.615     77.11765     154.6056     309.3961      1.650     3.86     839.1062     54.57409     235.1089        20     1.294     1.024  72.64   0
       215    861.0475    721.1853 307.5554633  +6.3997216     1003.202     1423.883     1480.671     76.99397     154.7904     309.3653      1.571     3.49     839.6023     54.57409     152.8938        10     0.931     0.732 -85.83   0
       216    646.5235    721.0881 307.6445510  +6.3926164      517.043     733.6868     135.0095     77.61042     155.1594      309.704      1.348     3.85     840.9578     54.57409     115.6934         5     0.912     0.519 -42.86   0
       217    843.5455    717.1277 307.5628672  +6.4008144     1578.273     2333.756     2433.989     77.48753     154.7289     309.5501      1.549     3.72     839.5073     54.57409     223.5828        14     1.250     0.723 -51.49   0
       218     42.4282    716.2436 307.8955615  +6.3744129     2789.628     4061.808     4425.874     77.24114     154.9135     309.5193      1.573     3.69     836.7211     54.57409     437.2973        20     1.295     0.891 -54.97   0
       219    106.5375    714.5653 307.8689981  +6.3772556     840.0525     1701.967     1960.186     77.48753     154.9135     309.5809      2.243     7.18     836.7211     54.57409     105.2733        15     1.792     0.806  89.62   0
       220    454.8743    715.4244 307.7243248  +6.3885582     630.6286     722.5439      842.956     77.24114     154.6673     309.5501      1.473     4.27      839.097     54.57409     88.52258         6     1.076     0.483 -61.07   0
       221    560.2859    711.2336 307.6806926  +6.3938079     698.7787      888.095     741.7148     77.61042     154.7289     309.6117      1.507     4.68     839.8286     54.57409     100.6805         8     1.034     0.602 -71.40   0
       222    698.0867    708.5408 307.6235592  +6.3995152     402.0911     520.6703     419.1785     77.61042     154.9135     309.7348      1.159     3.88     840.6123     54.57409     79.94458         5     1.299     0.332 -48.80   0
       223    655.0989    704.6961 307.6415395  +6.3996694     7003.213      9746.22     9695.721     77.61042     155.3436     309.4577      1.496     3.47     840.5052     54.57409     981.1991        29     1.362     0.947 -60.97   0
       224    601.9913    703.7521 307.6636249  +6.3982880     1605.265     2235.152     2034.933     77.11765     154.7289     309.2729      1.491     3.67     840.3504     54.57409     251.7604        14     1.242     0.721 -67.58   0
       225    512.5844    704.3919 307.7007308  +6.3950400      860.329     1220.015     1379.979     77.24114     154.6056     309.4577      1.769     4.77     839.0521     54.57409     127.9137        10     1.274     0.648 -57.44   0
       226    523.5833    704.0574 307.6961746  +6.3955453     835.1614     1055.156     892.8564     77.11765     154.7904     309.3653      1.345     3.87     839.1442     54.57409     136.2781         7     1.046     0.629 -49.43   0
       227    304.3266    701.0438 307.7873233  +6.3894615     828.9387      1154.89     1402.333     77.48752     154.9135     309.6424      1.647     4.24     838.0016     54.57409      165.215         8     1.214     0.537 -62.82   0
       228    118.0520    700.6210 307.8646869  +6.3833979     4016.123     5782.709     6091.694     77.11765      154.852     309.4269      1.537     3.42      836.303     54.57409     545.3869        21     1.272     0.888 -61.00   0
       229    992.1884    699.7400 307.5017207  +6.4129354     2635.703     3728.141     3679.656     76.99397     154.7289     309.3345      1.528     3.32     836.4698     54.57409     335.0851        21     1.197     1.022 -60.39   0
       230    628.9729    700.3472 307.6525346  +6.4005936      2228.71     3180.579     3746.383     77.36443      154.975     309.5501      1.527     3.47     840.3639     54.57409     323.7216        16     1.208     0.778 -59.01   0
       231    772.0419    696.7880 307.5932415  +6.4068309      21749.3     30709.69     31958.44     76.99397     154.6673     309.3345      1.492     3.35     839.5528     54.57409     2926.491        43     1.370     1.046 -60.97   0
       232    454.2997    698.5654 307.7251297  +6.3954988     521.7808     801.8333      399.561     77.61042     154.7289     309.7655      1.744     5.56     838.5591     54.57409     72.70984         6     1.291     0.674 -72.38   0
       233    902.0364    696.3713 307.5392717  +6.4113292     3918.268      5697.94     6081.249     77.24113     154.6056     309.4269      1.566     3.32     837.9017     54.57409     521.0061        24     1.261     0.985 -62.21   0
       234    499.7238    696.5959 307.7063330  +6.3978290     927.1115     1179.445       1172.1     77.24114     154.3588     309.4577      1.423     3.76     838.6955     54.57409     158.2814        11     1.281     0.680 -60.31   0
       235    471.2697    697.0471 307.7181337  +6.3966924     1494.752     2066.991     1720.351     77.61042     154.7904     309.6117      1.448     3.62     838.5206     54.57409      221.162        13     1.179     0.703 -67.20   0
       236    316.9522    696.8137 307.7822228  +6.3916302     720.4186     1113.676     886.0937     76.99397     154.7289     309.3653      1.605     4.56     837.9366     54.57409     140.5341         7     1.097     0.538 -60.60   0
       237    273.7435    696.3357 307.8001814  +6.3903817     781.1053     1064.675     857.0142     77.73312     154.7904     309.6117      1.466     5.31     837.3914     54.57409     107.2532        10     1.167     0.681 -69.95   0
       238    543.1620    695.5560 307.6883296  +6.3997085     541.5377     668.7348     746.9683     77.36443      154.852     309.4577      1.356     4.76     839.0178     54.57409     81.93945         6     1.221     0.526 -48.41   0
       239    961.7950    692.5914 307.5145814  +6.4148765     461.2257     802.7633     621.0849     76.99397     154.6056     309.4577      1.751     5.00     836.7722     54.57409     64.31891         5     1.084     0.654 -65.53   0
       240    245.4640    690.4067 307.8121239  +6.3918827     6774.816     9569.269      9737.19     76.99397     154.6056     309.3961      1.536     3.43     836.7565     54.57409     1077.552        30     1.383     0.986 -61.10   0
       241     80.6431    692.3990 307.8804976  +6.3855379     479.9962     566.7155     532.2283     76.99397      154.544      309.242      1.456     3.90     836.0794     54.57409     69.57501         5     1.056     0.413 -15.68   0
       242    652.5549    689.5267 307.6431045  +6.4058470     7997.005     10950.25     11330.96     77.48753     154.9135     309.6424      1.513     3.43     840.0811     54.57409     1183.552        31     1.358     0.970 -52.03   0
       243    634.9342    690.6746 307.6503834  +6.4047855     984.1283     1547.921      1686.79     77.73312      154.852     309.5809      1.568     4.21     840.1093     54.57409     126.6396        13     1.100     0.843 -68.33   0
       244    347.9085    689.2872 307.7696213  +6.3957727     757.7236     1151.565     1270.598     77.48753     155.2822     309.7348      1.876     4.74     838.0906     54.57409     113.3609         8     1.040     0.611 -64.36   0
       245    912.4213    682.2396 307.5354316  +6.4175085     1480.699     2122.803     2025.391     77.24114     154.6673     309.3961      1.525     3.61     837.4685     54.57409     198.8809        13     1.113     0.729 -45.86   0
       246    724.3491    677.8887 307.6136802  +6.4130443     3984.069     5710.716      5983.47     77.61042     154.6673     309.7348      1.536     3.75     839.7154     54.57409      510.247        25     1.362     0.986 -77.27   0
       247    679.6008    678.3691 307.6322471  +6.4113548     1069.194     1464.096     1714.658     76.99397     154.6673     309.4269      1.334     3.94      839.738     54.57409     179.3547        10     1.210     0.659 -59.63   0
       248    990.5970    674.5908 307.5032219  +6.4232649     9193.363     13688.32     14293.38     76.99397      154.544     309.4577      1.619     3.68     835.5976     54.57409     1196.002        35     1.452     1.056 -65.42   0
       249    928.9888    675.0609 307.5287914  +6.4210230     2467.628     3918.701      4137.34     76.99397     154.7289     309.3345      1.645     3.63     837.2054     54.57409      331.085        22     1.366     0.972 -45.59   0
       250    731.8524    675.5053 307.6106441  +6.4142783     539.6187     652.1006     571.6011     77.48753     154.7904     309.8578      1.372     3.81     839.6537     54.57409     123.0271         5     0.968     0.666 -74.04   0
       251      9.7676    674.5949 307.9105283  +6.3905101     1977.812     3134.862     3716.611     76.99397     154.7289     309.3961      1.732     3.96     835.6107     54.57409     275.7079        15     1.270     0.752 -51.34   0
       252    426.6677    672.8390 307.7374686  +6.4051959     784.4776     1076.538     852.1688     77.48753     154.7904      309.704      1.274     4.72     837.6899     54.57409     141.2834         8     1.272     0.496 -58.84   0
       253    543.1329    672.9811 307.6890994  +6.4090270      630.936     970.5359     760.4492     77.24114     154.7904     309.5193      1.394     4.41     838.1974     54.57409       103.12         5     1.057     0.524 -52.46   0
       254    529.1646    670.5082 307.6949831  +6.4095816     2360.789     3215.545     3184.737     77.73312     154.7289     309.6424      1.456     3.51     838.0496     54.57409     341.1179        17     1.203     0.856 -64.18   0
       255     67.8520    669.4895 307.8865815  +6.3945662     27866.68     39857.23     41555.07     77.61042     154.6673     309.7348      1.552     3.50     835.5412     54.57409     3911.353        46     1.422     1.078 -55.83   0
       256    267.0082    670.7544 307.8038391  +6.4007166     473.9225     652.1872     592.1313     77.11765     154.7289     309.3037      1.293     3.90     835.6099     54.57409     75.63232         5     0.855     0.509 -48.81   0
       257    919.1116    666.6985 307.5331729  +6.4241468     1047.465     1399.041     1949.301     77.61042     155.2822     309.6117      1.520     5.56     837.1114     54.57409     143.6683        11     1.196     0.728  83.12   0
       258    497.9277    667.4023 307.7080591  +6.4098208     1569.676     2267.844     2281.521     77.11765     154.4823     309.4577      1.528     3.33     837.7533     54.57409     232.0651        14     0.997     0.933  41.00   0
       259    538.2031    664.3549 307.6914362  +6.4124235     1165.036     1644.031     1851.151     76.99397      154.544     309.2729      1.438     4.42     837.9968     54.57409     217.6413        10     1.078     0.618 -60.21   0
       260    713.9428    661.6014 307.6185474  +6.4194214     3973.122     5412.519     5921.873     76.99397      154.544     309.3653      1.483     3.60     839.1902     54.57409      524.283        21     1.305     0.855 -60.83   0
       261    735.9441    659.9102 307.6094673  +6.4208527     4594.077     6383.687     6528.704     77.48753     154.7904     309.7348      1.482     3.19     839.1347     54.57409     636.6376        23     1.269     0.941 -60.46   0
       262    567.3569    657.8303 307.6795482  +6.4160901      3589.65     4952.292     4800.238     77.24114     154.7904     309.4577      1.455     3.49     838.3009     54.57409     550.9658        19     1.278     0.804 -55.56   0
       263    403.5067    658.3664 307.7475730  +6.4103964     1606.563     2042.171     1650.901     77.73312     154.7289     309.6732      1.389     3.61     837.2761     54.57409     234.5585        14     1.131     0.793 -62.25   0
       264   1008.8314    655.9064 307.4962735  +6.4315843     5190.908     7634.287     8058.383     77.73312     154.6673     309.6424      1.560     3.51     834.6759     54.57409     672.3073        28     1.366     1.037 -61.13   0
       265    227.8769    657.4790 307.8205356  +6.4048869     2047.863     2780.897     2765.284     77.85564      155.098      309.704      1.526     4.06     834.9544     54.57409     263.2793        14     1.147     0.802 -50.51   0
       266    974.2527    654.8457 307.5106693  +6.4308732     8482.342      12563.3     13193.53     77.61042      154.852     309.6732      1.588     3.41     835.5752     54.57409     1097.867        34     1.386     1.068 -64.80   0
       267    311.6149    656.7914 307.7857855  +6.4079735     1581.836     2084.785     1768.305     77.36443     154.6056     309.4885      1.436     3.72      835.912     54.57409     221.9259        15     1.189     0.797 -42.29   0
       268    528.1198    655.5295 307.6959198  +6.4157302     574.3345     622.6671     721.7362     77.85564     155.1594     309.6424      1.366     4.11     837.7947     54.57409      104.309         6     0.995     0.686 -47.01   0
       269   1022.9584    654.1096 307.4904666  +6.4327954      779.313     1204.397     1103.742     75.11425     133.1429     244.2969      1.625     6.21     834.2644     54.57409      100.031        10     1.306     0.830 -65.24  24
       270    693.9216    653.6270 307.6271292  +6.4220463     1020.761      1221.23     1294.869     77.48752     154.7904     309.5809      1.385     4.40     838.8835     54.57409     142.9573        11     1.174     0.715 -58.57   0
       271     85.7810    651.6616 307.8797376  +6.4025270     1089.682     1415.543     1643.565     77.24114     154.7904     309.4885      1.335     2.83     835.4476     54.57409     173.6345         9     0.879     0.683 -64.18   0
       272    419.6396    649.2709 307.7411791  +6.4146904     3241.353      4482.69     4867.405     77.48753      154.852     309.6732      1.491     3.19     837.1934     54.57409     514.1454        20     1.330     0.849 -64.47   0
       273    132.6428    648.3985 307.8603881  +6.4054450     26202.02     37393.91     38617.31     76.99397      154.544     309.2729      1.534     3.53     835.0839     54.57409     4044.971        41     1.432     1.012 -55.78   0
       274    800.9662    648.9382 307.5828318  +6.4275478     1234.147     1940.732     1719.799     77.48753     154.9135     309.5501      1.601     3.77     837.7393     54.57409     209.2133        15     1.225     0.855 -50.02   0
       275    594.4242    643.3650 307.6687930  +6.4229649     437.3911     520.4335      788.141     77.11765     154.6673     309.3961      1.356     3.48     838.2268     54.57409     73.57715         5     1.052     0.333 -68.51   0
       276    352.3522    643.2585 307.7693238  +6.4149228     822.7142     1085.039     1252.401     77.61042      154.852      309.704      1.495     4.26     836.0915     54.57409     120.6005         6     0.876     0.719  85.66   0
       277    969.1411    637.8837 307.5133591  +6.4377058     7139.388      11495.1     12169.69     77.73312     154.9135     309.6732      1.729     3.57     835.3209     54.57409     827.8515        42     1.532     1.260  83.38   0
       278     13.6752    637.0790 307.9101715  +6.4061280     1363.618     1847.045      1882.22     77.85564      155.098      309.704      1.490     4.45     835.5444     54.57409     177.6651        13     1.200     0.764 -44.79   0
       279   1023.4299    633.2275 307.4909684  +6.4414319     54428.74     72808.79     74915.92     69.85484     126.3104     236.5672      1.323     4.15     833.8158     54.57409     10820.54        43     1.544     0.766 -84.06  24
       280    562.6691    633.1630 307.6823228  +6.4261169     54349.86      74046.1     76563.98     77.48753      154.852      309.704      1.454     3.27     837.6183     54.57409     8486.558        53     1.372     1.030 -58.71   0
       281    431.5492    635.3737 307.7367003  +6.4208255     547.4271     671.5118     936.1881     77.24114     154.9135     309.5193      1.747     3.94     836.9802     54.57409     93.37378         6     1.048     0.473 -80.55   0
       282    927.0377    634.6766 307.5309519  +6.4376301      702.822     1031.889     1243.939     77.48752     154.9135     309.6117      1.543     2.92     836.2953     54.57409     129.3474         6     0.840     0.555  88.25   0
       283    205.8970    634.2231 307.8304461  +6.4137512     701.8824     1085.424     1682.476     77.73312     154.6056     309.4269      1.800     5.31      834.494     54.57409     100.2201         7     1.196     0.666  84.28   0
       284    522.1223    633.2798 307.6991574  +6.4247152     812.2692     1005.413     807.8599     77.85564      155.098     309.7655      1.403     3.62     837.3975     54.57409     156.5352         8     1.157     0.736 -59.82   0
       285    493.1251    629.9004 307.7113129  +6.4251420     714.2177     1060.805     964.6207     77.11765      154.975     309.5193      1.511     5.35     837.2725     54.57409     104.5189         9     1.344     0.601 -52.83   0
       286    170.1735    629.8734 307.8454273  +6.4143501     3079.907     4644.125     4924.236     77.24113     154.7904     309.5501      1.599     3.60     834.4982     54.57409     391.2502        20     1.279     0.924 -55.12   0
       287     62.7954    624.2899 307.8902056  +6.4130554     1341.769     1859.852     2207.446     77.11765      154.544     309.3653      1.500     3.94     835.3774     54.57409     213.5024        14     1.201     0.840 -64.16   0
       288    459.9123    616.9797 307.7255397  +6.4293666     70354.23     97384.88     100535.2     77.48753     154.6056     309.5193      1.469     3.36      836.907     54.57409     10236.34        65     1.413     1.072 -59.77   0
       289      3.3873    618.5489 307.9150689  +6.4134321     1758.937     2573.871     2976.782     76.99397     148.1201     263.3707      1.648     3.33     835.5782     54.57409     263.7178        17     1.193     0.925 -56.77  24
       290    646.0355    614.0261 307.6483434  +6.4367982     837.6395     1150.497     1381.231     77.11765     154.6673     309.3961      1.459     5.06     837.2723     54.57409     112.3713        11     1.292     0.670 -45.90   0
       291    134.2722    612.1605 307.8609328  +6.4204591     1760.185     2192.698     1667.056     77.48753      154.852     309.6732      1.422     3.40     834.6226     54.57409     265.0341        16     1.216     0.811 -57.66   0
       292    929.7639    609.5698 307.5306592  +6.4480856     778.8232     1134.583      989.395     77.24114     154.6056     309.4577      1.590     5.26     835.6681     54.57409     110.3367         6     1.127     0.692 -49.20   0
       293    605.5734    609.0226 307.6653150  +6.4375142     1020.914     1548.562     1779.924     77.11765     154.6673     309.5809      1.640     4.69     837.0429     54.57409     149.6177        14     1.346     0.694 -50.77   0
       294    413.5101    609.5480 307.7450595  +6.4308839     1007.926       1312.1     1360.042     77.61042     154.6673     309.7348      1.501     4.04     836.2617     54.57409     166.6509        12     1.187     0.680 -55.52   0
       295   1000.6360    609.2060 307.5012374  +6.4505915     5836.158     5729.816      5744.75       76.746     154.6056     309.3961      0.712     1.10      833.857     54.57409      2531.24         6     0.515     0.463  54.73   0
       296    305.2957    606.3028 307.7901083  +6.4286047     2428.505     3550.682     3907.792     77.61042     155.4049     309.4577      1.632     3.65     833.9438     54.57409     370.4476        20     1.311     0.874 -62.12   0
       297      6.8379    607.1453 307.9140208  +6.4182554     630.5684     764.1932     1489.802     77.61042     154.9135     300.9958      1.228     4.06     835.5065     54.57409     97.04572         7     0.931     0.607  73.24  16
       298    457.4440    604.9203 307.7269699  +6.4342625     1044.635     1520.083     1797.303     77.61042      154.852     309.6117      1.582     3.54      836.543     54.57409     164.1061        12     1.080     0.774 -75.68   0
       299     13.2525    605.6093 307.9114089  +6.4191048      551.268     768.1749     978.7308     76.99397     154.7289     309.3345      1.459     3.50     835.4504     54.57409     91.49854         5     0.773     0.459 -15.49   0
       300    732.0297    600.4134 307.6130862  +6.4452842     5958.353     8161.429     7994.417     77.24113     154.6673     309.5193      1.471     3.32      837.114     54.57409     811.8174        26     1.269     0.962 -56.50   0
       301   1002.9348    596.4251 307.5007098  +6.4559443     1054.102     1538.542     1687.015     77.24113      154.852     309.4885      1.449     3.79     833.2254     54.57409     181.7181        12     1.232     0.620 -79.46   0
       302    785.5443    595.6284 307.5910215  +6.4490421     15585.24     21231.19     21793.26     77.24114     154.9135     309.5193      1.490     3.40     836.8544     54.57409     2277.116        34     1.346     0.972 -60.87   0
       303    528.0362    594.8876 307.6979903  +6.4407618     1398.164     2249.163     2741.163     77.61042     154.7289     309.6117      1.779     6.09     836.3815     54.57409     200.1454        18     1.683     0.835 -75.96   0
       304     30.5251    594.7952 307.9046011  +6.4241485     750.1684     926.0925     1075.235     77.24114     154.3588     309.5501      1.338     5.50     835.0336     54.57409     110.0533        10     1.273     0.671 -72.24   0
       305   1023.6968    594.9662 307.4921357  +6.4572363     632.5576      965.114     1206.621     67.21259     122.4796     232.5855      1.435     3.48      832.581     54.57409     162.2541         6     1.030     0.624 -80.01  24
       306    609.3828    593.8248 307.6642428  +6.4439153     3350.809     4342.933     4512.642     77.36443     154.7289     309.5501      1.408     3.29     836.4242     54.57409     470.1289        20     1.195     0.878 -62.23   0
       307    926.3998    589.6974 307.5327208  +6.4561777     1284.073      1986.93     2899.822     77.11765     154.4823      309.242      2.135     5.15     835.1906     54.57409     184.2403        16     1.556     0.846 -40.84   0
       308    221.6943    587.7179 307.8254520  +6.4334782      1267.39     1964.015     2253.377     77.36443     155.1594     309.7348      1.582     4.41     833.3467     54.57409     186.6384        13     1.313     0.714 -46.68   0
       309    367.6760    587.5278 307.7648342  +6.4384419     1162.332     1625.204     1486.831     77.85564      155.098     309.6117      1.478     3.67     834.0868     54.57409      172.834        13     1.125     0.816 -62.42   0
       310    185.2204    587.6825 307.8406001  +6.4322712     844.3353     1269.118      2091.61     77.36443      154.544     309.5501      1.770     3.36     833.5291     54.57409      121.253         6     0.728     0.634  63.45   0
       311    352.1943    587.2310 307.7712736  +6.4380467     507.7567     585.0009     730.4539     76.99397     154.7289     309.3961      1.480     3.35     833.6835     54.57409      98.2384         5     0.934     0.347 -47.64   0
       312    861.6628    578.8780 307.5599692  +6.4584909     3066.134     4075.983     4113.997     77.85564     154.9135     309.6117      1.425     3.28     835.8146     54.57409     441.7189        16     1.149     0.827 -60.48   0
       313    156.7298    578.6345 307.8527365  +6.4350517      850.074     1189.464     1421.327     77.48753      154.852      309.704      1.494     5.09     833.4749     54.57409     111.3435         9     0.971     0.754  83.10   0
       314    820.3464    576.2735 307.5772157  +6.4581911     2846.202     3990.772     4302.625     77.48753      154.852     309.5809      1.534     3.60     836.1871     54.57409     412.2235        20     1.314     0.874 -57.18   0
       315    733.9986    572.8702 307.6131913  +6.4567204     676.6604     1001.878     1181.573     77.11765     154.4206     309.4577      1.346     4.88     836.1976     54.57409      113.351         8     1.157     0.584 -70.14   0
       316    248.2946    571.4437 307.8149533  +6.4410872     8841.599     12307.02     12548.13     77.61042     154.7904     309.7348      1.521     3.42      832.845     54.57409     1354.044        30     1.346     0.957 -54.47   0
       317    791.1310    572.2153 307.5894853  +6.4588937     2845.484     4136.843     5610.771     77.11765     154.7289     309.5193      1.646     3.50     836.2585     54.57409     430.8607        22     1.280     0.972 -58.24   0
       318    800.8926    567.5914 307.5855859  +6.4611277     176345.8       242708     250854.6     77.24114      154.544     309.4269      1.496     3.47     836.1829     54.57409     24886.31        98     1.459     1.123 -61.52   0
       319    730.4351    568.2116 307.6148274  +6.4585249       547.19     866.8266     1181.618     77.11765     154.6673     309.4269      1.721     3.97      835.996     54.57409     95.22137         5     1.173     0.385 -73.62   0
       320    182.4787    565.9974 307.8424692  +6.4411312     63105.13     90298.55     94648.37     76.99397     154.3588     309.3961      1.511     3.46     832.9804     54.57409      9535.45        76     1.508     1.134 -53.76   0
       321    106.4108    562.2239 307.8741862  +6.4401395     6874.993      9915.07      10224.8     77.24114     154.6673     309.5193      1.556     3.36     833.4868     54.57409     1070.103        33     1.391     1.036 -62.48   0
       322    971.6758    559.4657 307.5149275  +6.4701635     1525.398     2249.936     2135.653     77.73312      154.852     309.5501      1.614     3.90     832.7258     54.57409     237.0649        15     1.192     0.856 -72.61   0
       323    993.1567    558.1987 307.5060482  +6.4714004     721.7144     1101.875     1414.816     76.99397      154.544      309.242      1.848     4.18     831.9012     54.57409     115.7504         7     0.964     0.579 -74.92   0
       324    221.0903    557.7251 307.8267129  +6.4458395       929.87     1216.996      1847.83     77.61042      155.098     309.6732      1.695     5.26     832.5008     54.57409     126.6669        12     1.166     0.795 -52.34   0
       325    837.5138    554.8283 307.5708036  +6.4676157     4856.925      6861.92     7145.047     77.73312      154.544     309.4577      1.505     3.23     835.7833     54.57409     765.0144        26     1.298     0.971 -48.17   0
       326    355.8860    553.0543 307.7708899  +6.4522790     18983.85     26613.82     27691.87     77.61042     154.7904     309.7963      1.470     3.48     832.7573     54.57409      2811.65        39     1.365     1.005 -57.38   0
       327    446.4106    553.0618 307.7332944  +6.4553021     925.2187     1134.402     1202.075     76.99397     154.6673     309.3961      1.398     4.48     833.6481     54.57409     150.1444         9     1.074     0.609 -59.44   0
       328    157.8248    551.9197 307.8531820  +6.4461165     2024.333     2992.634     3166.903     77.36443     154.6673     309.5809      1.549     3.82     832.7993     54.57409     296.3109        15     1.253     0.845 -57.79   0
       329    791.4211    548.1895 307.5901693  +6.4688220     6610.968     9272.347     9657.545     77.24114     154.6056     309.4577      1.510     3.39     835.6782     54.57409     1019.424        24     1.334     0.882 -55.62   0
       330    233.0526    549.7375 307.8220140  +6.4495375     1024.488     1646.606     1985.668     77.61042     154.7904     309.5809      1.707     4.38     832.2435     54.57409     151.9354        11     1.155     0.699 -40.64   0
       331     95.0506    549.2777 307.8793404  +6.4451029     1103.312     1463.154     1383.188     77.61042     154.9135     309.6117      1.487     4.30     833.1328     54.57409     171.1884        12     1.312     0.709 -56.71   0
       332    522.2332    547.8887 307.7019783  +6.4599703     7375.888     10157.35      10491.1     77.73312     154.7904     309.6117      1.453     3.32     834.1385     54.57409     1021.003        28     1.279     0.988 -63.03   0
       333    163.4904    549.2352 307.8509196  +6.4474146     727.9885     1036.097       1612.5     77.73312     154.7904     309.6117      1.585     4.97     832.6909     54.57409     95.43329         8     0.859     0.812 -22.23   0
       334    380.6869    544.3965 307.7608811  +6.4566824     1516.102     2179.464      2083.89     77.11765     154.4823     309.3653      1.589     3.87     832.7474     54.57409     240.6871        13     1.208     0.727 -40.92   0
       335    566.8635    541.0524 307.6836722  +6.4642824     2587.958     4116.528     3940.919     77.61042     154.7904     309.5809      1.635     4.35     834.2643     54.57409     400.2415        26     1.520     1.003 -42.70   0
       336    169.2221    541.0974 307.8488135  +6.4509661     7409.716     10447.62     10782.94     77.48752     154.6056     309.4269      1.497     3.46     832.4575     54.57409     1096.967        27     1.305     0.965 -57.20   0
       337     40.8586    539.8958 307.9021620  +6.4471581     5411.825     7900.323     8391.224     77.48752      154.852     309.7348      1.533     3.55     833.3836     54.57409     758.8379        28     1.384     0.978 -48.82   0
       338    850.2169    540.9747 307.5659913  +6.4737577     615.7974     740.1347     765.8786     77.36443     154.6673     309.5501      1.262     4.73     835.5291     54.57409     121.2014         6     1.064     0.596 -62.61   0
       339    808.0134    540.5352 307.5835344  +6.4725343     1457.932     1900.597      1581.47     77.11765     154.6673     309.5193      1.429     4.20     835.5575     54.57409     197.6507        12     1.139     0.778 -67.98   0
       340    264.4719    537.5613 307.8093756  +6.4556159     98007.02     135025.2     139619.7     77.48753      154.852     309.6732      1.538     3.48     831.9194     54.57409     14717.01        75     1.465     1.102 -56.91   0
       341    554.1166    534.9576 307.6891707  +6.4663730     979.9168     1052.521     1455.027     77.61042      154.852     309.5501      1.215     3.94     834.0582     54.57409     149.4019        11     1.087     0.684 -61.41   0
       342    248.3841    532.6656 307.8162217  +6.4570984     1655.417     2367.919     2734.895     77.11765     154.7289     309.5193      1.640     3.61     831.8316     54.57409     225.2025        13     1.124     0.762 -58.44   0
       343    963.9589    531.1898 307.5190778  +6.4815802     1726.236     2449.867     1899.932     76.99397     154.6673     309.3653      1.506     3.90     832.2688     54.57409     234.3692        15     1.188     0.831 -79.54   0
       344    787.6322    529.9564 307.5923535  +6.4762230      17869.3     24334.15     24729.08     77.24113      154.852     309.4885      1.453     3.23     835.1767     54.57409     2786.856        36     1.321     0.974 -59.14   0
       345    491.2481    528.3422 307.7155033  +6.4670048     44431.24     67353.52      70328.3     77.61042      154.852     309.7348      1.676     3.56     833.1963     54.57409     6607.332        66     1.520     1.262 -44.05   0
       346    641.5417    527.2789 307.6531188  +6.4724598     829.2198     1429.319     1619.193     77.73312      154.852     309.5809      2.362     6.51     834.0151     54.57409     150.4498        12     1.559     0.873  -3.94   0
       347    252.1141    525.4053 307.8149171  +6.4602204     723.2162     1098.831     1143.943     77.11765      154.544     309.3037      1.576     4.91     831.6353     54.57409     129.5408         8     1.175     0.581 -44.37   0
       348    203.6987    524.8109 307.8350441  +6.4588444     1931.629     2640.544     2535.727     77.36443     154.4823     309.3961      1.510     3.89     831.8835     54.57409     312.5935        17     1.343     0.806 -55.34   0
       349     89.9100    524.7017 307.8823040  +6.4550757     609.5249     798.0226     747.2816     77.61042     155.2822     309.5809      1.232     5.22     832.7603     54.57409     92.07556         8     1.225     0.628 -65.84   0
       350     39.2227    525.1119 307.9033402  +6.4532061     1373.952     1828.829     2038.247     77.61042     154.6673     309.4885      1.482     4.07     833.2715     54.57409     200.7931        13     1.271     0.663 -60.55   0
       351    651.1693    523.4229 307.6492495  +6.4743728     3338.736      4620.69     4772.509     76.99397     154.6056     309.4577      1.450     3.33     833.9264     54.57409     521.5482        19     1.231     0.840 -58.82   0
       352    661.4883    523.3295 307.6449669  +6.4747554     1666.694     2299.473     2539.828     77.73312      155.098     309.6117      1.556     4.67     833.9631     54.57409     231.9132        14     1.238     0.771 -40.80   0
       353    713.4019    522.2610 307.6234415  +6.4769270     1474.296     2288.046     2134.865     76.99397     154.6673     309.3345      1.640     3.65     834.3586     54.57409     225.1642        15     1.120     0.934 -87.74   0
       354     70.4069    520.9269 307.8905308  +6.4559798     818.6086     1157.416     1208.894     77.24113     154.4206     309.5193      1.308     4.52     832.9138     54.57409     117.4986         8     1.183     0.491  89.38   0
       355    388.8286    519.0943 307.7583506  +6.4673999     1932.841     2636.621     2361.861     77.73312     154.6056     309.5193      1.464     3.78       832.01     54.57409      258.858        16     1.291     0.768 -58.53   0
       356    320.4473    517.3090 307.7868102  +6.4658498     4267.104       5816.1     6328.715     77.61042     154.7904     309.7348      1.516     3.47     831.3315     54.57409     655.9581        22     1.308     0.868 -59.07   0
       357    135.5633    515.9362 307.8636399  +6.4602248     28411.26     40205.11     41513.55     77.48752      154.852     309.6424      1.511     3.46     832.1867     54.57409     4221.625        47     1.442     1.030 -56.46   0
       358    863.6915    515.8407 307.5612360  +6.4845821     1685.439      2150.32     1850.789     77.61042     154.7904     309.6732      1.331     2.90      834.582     54.57409     300.1271        14     1.043     0.780 -77.76   0
       359    500.4320    516.5498 307.7120851  +6.4721797     2476.288     3139.546     3034.739     77.48753      154.852     309.5501      1.341     3.06       833.09     54.57409     431.8356        14     1.105     0.746 -56.01   0
       360    100.7532    514.1931 307.8781552  +6.4597774     2879.261      3967.99     4049.764     77.11765     154.6673     309.2729      1.501     3.34     832.4913     54.57409     439.6194        20     1.263     0.887 -56.66   0
       361    337.5935    512.5714 307.7798486  +6.4683792     1218.529     1751.417     2373.967     77.11765     154.6673     309.4269      1.651     4.43     831.2495     54.57409     176.9769        16     1.372     0.859 -52.25   0
       362    961.0994    510.4616 307.5209584  +6.4900424     5403.104      7420.27      7757.82     77.36443     154.7904     309.7348      1.514     3.41     831.9328     54.57409     727.7296        25     1.343     0.942 -61.87   0
       363    534.4684    503.0266 307.6984030  +6.4788989     1465.462     2173.356     2344.975     77.24113     154.7289     309.5193      1.559     3.97     832.9268     54.57409     259.0112        15     1.417     0.653 -53.53   0
       364      1.2731    499.9197 307.9199505  +6.4623321     9521.802     11268.26     11913.45      66.9284     122.4018     232.0522      1.007     2.41      833.534     54.57409     3018.347        17     1.153     0.517  88.84  24
       365    432.5844    497.0393 307.7409193  +6.4779673     47184.68     65493.92     67510.53     77.24113     154.6673     309.3653      1.473     3.34     831.9815     54.57409     7427.417        53     1.397     1.042 -59.64   0
       366    640.6221    496.6999 307.6545263  +6.4850529      13651.1     18192.85     18789.84     77.61042     154.6056     309.3961      1.475     3.37     833.0998     54.57409     2137.449        31     1.334     0.912 -59.65   0
       367    280.4706    497.3428 307.8040850  +6.4727543     981.2731       1467.6     1284.462     77.73312      154.852     309.5809      1.486     4.33      830.694     54.57409     136.3704        11     1.203     0.661 -59.90   0
       368    197.7082    494.6063 307.8385495  +6.4711126     19819.32     29442.86     30781.01     77.24114      154.544     309.4269      1.609     3.47     831.3301     54.57409     2703.811        46     1.418     1.201 -58.03   0
       369    163.4767    495.6685 307.8527304  +6.4695271     1735.022     2245.531     1782.032     77.73312      154.975     309.5809      1.483     3.47     831.4835     54.57409     274.2979        14     1.212     0.706 -53.77   0
       370    974.6049    495.3304 307.5158548  +6.4967379     1374.906     1865.735     1775.551     77.11765     154.4823     309.4577      1.544     3.89     831.5004     54.57409     182.2223        12     1.067     0.805 -85.06   0
       371    903.3633    494.4436 307.5454745  +6.4947353     909.0752     1344.783     1580.738     77.36443     154.7904     309.4577      1.694     5.44     832.6321     54.57409     121.4761        11     1.160     0.765 -58.13   0
       372    814.7715    494.3606 307.5822735  +6.4918215        926.9     1193.477     1037.883     77.24114     154.6056     309.4885      1.476     4.63     834.1798     54.57409     145.7054        10     1.051     0.799 -57.11   0
       373    562.4228    493.4611 307.6871139  +6.4837810     3078.313     3877.078     3666.793     77.24114     154.7904     309.5193      1.373     3.34     832.6985     54.57409     485.6515        18     1.237     0.794 -57.28   0
       374    936.3931    490.6126 307.5318838  +6.4974153     5178.376     7292.571     7893.843     77.24114     154.6673     309.5193      1.505     3.58     831.7014     54.57409     764.7139        29     1.440     0.949 -60.07   0
       375    609.4069    489.0859 307.6677465  +6.4871550     7114.291     9680.148     10130.65     77.24113      154.544     309.3653      1.442     3.39     832.8027     54.57409     1054.821        27     1.293     0.935 -57.33   0
       376     96.9345    489.7820 307.8805643  +6.4697265     1297.716     1501.525     1280.644     77.24113      154.852     309.5193      1.394     3.38     832.1827     54.57409     196.5005        13     1.106     0.760 -47.15   0
       377    958.9077    482.8430 307.5227921  +6.5013714      3674.79     5360.561     5503.855     77.61042      154.852     309.7348      1.542     3.54     831.3809     54.57409     513.0145        24     1.320     1.004 -65.90   0
       378    397.5630    481.7544 307.7559784  +6.4831065      850.142     1141.959     1142.782     77.36443      154.852     309.5193      1.371     4.96     830.9577     54.57409     135.2253        12     1.249     0.720 -62.49   0
       379    647.8198    481.7419 307.6520385  +6.4914680     535.7346     511.0791     159.5845     77.24114     154.7289     309.4269      1.217     3.48     832.6531     54.57409      83.0387         5     0.998     0.351 -45.17   0
       380    521.5777    480.3261 307.7045192  +6.4878398     8306.147     11413.09     11781.99     77.24114     154.6673     309.5501      1.491     3.37     832.2465     54.57409      1319.91        28     1.324     0.911 -60.53   0
       381    367.5352    480.4250 307.7684945  +6.4826513      3040.13     4281.246     4504.435     77.24114      154.852     309.5501      1.537     3.79     830.3354     54.57409     473.1167        23     1.367     0.918 -57.85   0
       382    737.0264    480.7458 307.6150206  +6.4948528     544.5654     760.3024     367.9386     77.24114      154.975     309.4577      1.529     4.64     833.3919     54.57409     76.01202         5     1.209     0.505 -68.38   0
       383     90.8866    480.2966 307.8833959  +6.4734393     596.8846     905.0356     688.4916     77.61042     155.2208     309.6424      1.293     3.97      832.121     54.57409     115.3271         6     1.159     0.389 -34.45   0
       384    878.0901    476.1372 307.5565842  +6.5014520     3510.319     4846.539     5292.437     77.61042      154.975     309.6732      1.458     3.48      832.675     54.57409      461.702        21     1.286     0.884 -62.25   0
       385    531.1261    476.7943 307.7006720  +6.4896166     731.2828     771.8715     902.1141     77.24113     154.4206     309.5193      1.353     4.68     832.0235     54.57409     107.4656         7     1.070     0.581 -69.14   0
       386    226.2560    475.8995 307.8273233  +6.4797912     585.6404     1052.651     1046.741     77.36443      154.852     309.8578      1.934     4.00     830.7614     54.57409     106.0878         6     1.025     0.573 -67.03   0
       387    924.8917    469.7779 307.5373577  +6.5056341      1418.55     1892.176     1683.488     77.61042     154.6673     309.4577      1.472     4.04     831.1542     54.57409     200.5887        12     1.091     0.732 -79.05   0
       388    885.5869    470.3212 307.5536650  +6.5041024     2320.156     3229.725     3206.518     77.24114     154.6056     309.4269      1.413     3.32     832.2237     54.57409     379.4135        17     1.211     0.770 -64.55   0
       389    104.2688    470.0271 307.8781844  +6.4781274     731.7224      1318.65     1606.198     77.24114     154.7289     309.5193      1.878     4.97     831.7432     54.57409     126.4031         9     1.310     0.534 -61.84   0
       390    709.4041    466.4806 307.6269715  +6.4998214     3289.355     4745.519     4943.935     77.11765     154.4206     309.3345      1.561     3.41     832.2927     54.57409     538.2897        23     1.326     0.947 -59.83   0
       391    263.8094    468.0508 307.8119909  +6.4842887      624.277      745.853     581.3311     77.11765     154.7289     309.3037      1.264     3.87     829.9526     54.57409     103.7237         6     0.930     0.461 -56.08   0
       392    380.3027    464.7470 307.7637191  +6.4895504     4125.125     5816.059      5993.64     77.48753      154.852     309.8578      1.506     3.69     829.8839     54.57409     604.1741        23     1.386     0.810 -60.69   0
       393    420.6009    464.8763 307.7469775  +6.4908443     1218.265      1778.78     2362.669     76.87008     154.2971     309.4269      1.568     4.23      830.418     54.57409     198.7013        12     1.189     0.703 -68.04   0
       394    608.0433    461.2282 307.6692476  +6.4986098     10989.98     15420.64     16201.64     77.24113     154.9135     309.5193      1.481     3.73     831.5928     54.57409      1575.78        32     1.404     0.940 -59.94   0
       395    770.7870    457.8379 307.6017656  +6.5054344     17805.85     24499.14     25226.32     77.24113     154.6673     309.3345      1.476     3.43     832.4727     54.57409     2583.873        34     1.361     0.942 -60.58   2
       396    774.8823    452.8843 307.6002305  +6.5076159     1458.741     2140.451     3124.808     77.36443      155.098     309.6732      1.662     3.49     832.2516     54.57409     218.9257        14     1.193     0.744 -83.75   3
       397    290.4418    458.2650 307.8012591  +6.4892199     2993.413      4156.86     3891.889     77.61042     154.7904      309.704      1.510     3.54     829.2886     54.57409     449.7491        18     1.273     0.828 -56.39   0
       398    414.4081    457.5791 307.7497949  +6.4936497      665.676     1040.891     1359.422     77.24114     154.6673     309.3961      1.335     4.52     829.9299     54.57409     93.21106         8     1.277     0.454 -54.20   0
       399    799.8502    455.1536 307.5897840  +6.5075105     1354.541     2034.309     1782.054     77.61042     154.7289     309.6732      1.516     4.11      832.624     54.57409     203.8461        13     1.235     0.772 -68.36   0
       400    373.5296    454.7941 307.7668668  +6.4934326     1727.765     2385.902     2655.907     77.11765     154.4823     309.4885      1.461     3.26      829.382     54.57409     282.1057        14     1.112     0.791 -57.00   0
       401    956.0279    452.7356 307.5249949  +6.5137049     1979.624     2951.813     2949.451     77.24114      154.852     309.5501      1.585     4.10      830.293     54.57409     253.5322        21     1.319     1.011 -52.91   0
       402     71.1475    465.4749 307.8920937  +6.4788957     2089.488     3052.748     2845.281     77.61042     154.9135     309.6117      1.604     3.90       832.09     54.57409     285.0798        18     1.268     0.949 -45.72   0
       403    704.6313    451.8233 307.6294452  +6.5057132     567.5323     613.0479     197.5321     76.99397     154.6056     309.3961      1.509     5.23     831.5378     54.57409     94.83789         6     1.242     0.621 -53.05   0
       404     31.4857    451.1078 307.9090505  +6.4834959     442.4163      515.533     350.1978     77.36443     155.2822      309.704      1.227     4.31     832.1931     54.57409     81.83905         6     1.064     0.498 -87.36   0
       405    746.4016    448.8911 307.6121940  +6.5083156     2477.409     3578.314      3078.35     76.87008      154.544     309.3961      1.489     3.68     831.7183     54.57409      379.304        19     1.354     0.832 -60.86   0
       406    362.1265    450.7379 307.7717394  +6.4947257     823.7469     1129.378     1170.086     77.73312      154.852     309.6117      1.342     4.41     829.1146     54.57409     121.0845         8     1.110     0.499 -54.73   0
       407    108.1411    449.7980 307.8772584  +6.4866080     4935.153     6984.004     7495.713     76.99397      154.544     309.3345      1.482     3.34     831.2725     54.57409     669.0343        23     1.277     0.931 -54.90   0
       408    116.4427    450.3908 307.8737906  +6.4866416     442.2958     633.3704     1081.592     77.11765     154.6673     309.3653      1.787     4.39     831.0955     54.57409     78.50488         5     0.993     0.552 -47.33   0
       409   1010.0330    447.5568 307.5027362  +6.5176377     4129.771     6969.729     7295.533     77.24113      154.852     309.4577      1.812     4.04     829.4014     54.57409     440.1616        31     1.349     1.309 -14.47   0
       410    266.1220    446.9066 307.8117422  +6.4930948     1705.223     2472.815     3112.841     77.36443     155.0365     309.6732      1.576     3.60     829.1346     54.57409      256.249        15     1.176     0.794 -56.99   0
       411    344.1537    444.5681 307.7794117  +6.4966715     3627.521     5180.104      4850.51     77.36443      154.852     309.5193      1.538     3.64     828.8295     54.57409      548.102        22     1.372     0.846 -58.24   0
       412    700.1301    442.1061 307.6316405  +6.5095747     1828.012     2404.567     2480.869     77.48752     154.9135     309.6117      1.427     3.64     830.9939     54.57409     304.2551        13     1.156     0.750 -67.00   0
       413    974.0211    441.2447 307.5179054  +6.5190468     710.2059     1288.157     1071.719     77.11765     154.7289     309.4269      1.867     5.00     829.5605     54.57409     97.31488         9     1.087     0.650 -56.22   0
       414    232.1424    440.0675 307.8260853  +6.4947803     858.4243     1091.999     759.1155     77.73312     154.7904     309.5809      1.334     2.80     829.1913     54.57409     152.6691         8     0.827     0.618 -50.84   0
       415    541.6078    434.9505 307.6977235  +6.5072406     1193.812     1760.293      2014.18     77.11765     154.6673     309.3037      1.564     3.64     829.5074     54.57409      181.428        11     1.098     0.679 -61.90   0
       416    442.7043    435.8776 307.7387718  +6.5035543     657.4863     675.9195       738.03     77.36443     155.0365     309.6732      1.095     4.42     828.8522     54.57409     112.8475         7     0.927     0.600 -59.09   0
       417    690.2496    434.5461 307.6359979  +6.5123663     522.1171     743.0181     727.8852     77.73312      154.852     309.6424      1.710     4.30     830.5856     54.57409     86.31335         5     1.153     0.458 -56.61   0
       418    463.9340    433.5052 307.7300338  +6.5052430       1483.8     2076.103     2127.803     77.61042      154.975     309.6424      1.544     3.63     828.8286     54.57409       219.08        12     1.062     0.748 -56.12   0
       419    826.4604    432.4008 307.5794930  +6.5177895      1626.06     1960.074     1719.382     76.87009     154.6673     309.3037      1.202     3.04     831.3698     54.57409     307.5326        11     1.024     0.700 -57.15   0
       420    812.0161    431.3492 307.5855279  +6.5177427     2176.612      2990.46      3305.29     77.11765     154.9135     309.3345      1.473     3.93     831.3766     54.57409      295.327        16     1.278     0.777 -62.38   0
       421    611.5861    431.2096 307.6687833  +6.5111204     680.6344     1065.614       1246.6     77.36443     154.6056     309.5501      1.353     3.27     830.1494     54.57409     141.2686         7     0.961     0.472 -80.36   0
       422    709.2634    429.5621 307.6282675  +6.5150576     16655.75     22096.26     22458.17     77.61042     154.7904     309.6424      1.447     3.57     830.4306     54.57409     2497.435        31     1.310     0.937 -59.52   0
       423    630.3627    425.5650 307.6611737  +6.5140770     2952.738     3996.372     4518.899     77.36443     154.6673     309.3961      1.447     3.38     829.9548     54.57409     424.3525        18     1.236     0.820 -66.84   0
       424    703.2191    425.1093 307.6309273  +6.5166944     769.3965     1186.624     1665.548     77.48752     154.6056     309.4885      2.037     5.58     830.1472     54.57409     101.0552        10     1.049     0.835  50.71   0
       425    605.5330    422.4702 307.6715908  +6.5145263     6070.313     8322.217     8692.059     77.61042     154.9135     309.6117      1.536     3.69     829.6603     54.57409     895.3162        24     1.315     0.924 -57.76   3
       426    601.7667    420.0152 307.6732375  +6.5154141     16035.91     22666.24     23058.27     77.24113     154.6056     309.4885      1.484     3.44      829.503     54.57409     2524.626        37     1.353     0.999 -59.75   3
       427    934.5803    419.4167 307.5350178  +6.5267468     4295.738     5827.103     5925.454     77.36443     154.6673     309.5193      1.477     3.24       829.54     54.57409     647.6844        24     1.228     0.963 -66.78   0
       428    373.6398    415.4437 307.7681446  +6.5096808     32489.16     44819.46     46099.83     77.36443      154.852     309.4885      1.514     3.60     827.6858     54.57409     4918.901        48     1.409     1.037 -58.80   0
       429    890.2754    415.0358 307.5535675  +6.5270819     1463.328     2143.707     2861.646     77.48753     154.9135     309.6424      1.640     3.96     830.1601     54.57409     203.4343        15     1.264     0.788 -58.49   0
       430    119.6916    414.8008 307.8736412  +6.5014424     2542.183      3587.84     3735.571     76.87008     154.4206     309.3961      1.539     3.44     830.1974     54.57409     396.0699        19     1.236     0.894 -59.23   0
       431    886.1362    411.5377 307.5554038  +6.5283883     643.0566     1065.269     1324.329     77.61042      154.852     309.6424      1.876     5.57     830.1356     54.57409      74.8338         7     1.357     0.643 -87.81   0
       432    903.3095    409.9067 307.5483250  +6.5296329     5599.753      7627.22     7399.116     77.61042     155.3436     309.6424      1.447     3.45     829.8335     54.57409     819.8508        23     1.266     0.886 -58.62   0
       433     53.3058    410.4133 307.9013613  +6.5010270     1623.781     2387.365     2423.992     77.36443     154.6056     309.4577      1.642     4.14     831.0699     54.57409     207.9062        16     1.348     0.776 -61.64   0
       434    585.5244    410.8381 307.6802919  +6.5186606     732.6589       1073.2     931.8447     77.48753     154.9135     309.6117      1.695     3.47     828.7721     54.57409     105.0869         6     0.897     0.678 -19.04   0
       435    959.4086    407.7767 307.5250940  +6.5323777     673.3835     1026.781      1620.24     77.24114     154.6056     309.4577      1.652     5.35     828.6479     54.57409     101.2502         9     0.956     0.845 -28.02   0
       436    231.1803    405.9843 307.8276329  +6.5088180     15187.66     21403.54     22240.08     77.36443     154.6056     309.5193      1.472     3.36      828.015     54.57409     2116.997        38     1.393     0.987 -56.98   0
       437    726.3315    400.0570 307.6221669  +6.5278069     832.2839     1006.399     968.8045     77.73312     154.7904     309.5501      1.229     4.16     829.3977     54.57409     119.9246         9     0.907     0.698 -27.96   0
       438    694.1238    399.2669 307.6355716  +6.5270596     754.2965     932.3694     1203.422     77.73312     154.9135     309.5809      1.517     5.10     829.1426     54.57409      118.595         8     1.176     0.722 -55.77   0
       439     66.9990    399.8485 307.8960305  +6.5058477      829.726     1149.063     1508.666     76.99397     154.4823     309.1804      1.344     4.30     830.7761     54.57409     148.5982         8     1.071     0.495 -51.49   0
       440   1003.7168    398.5403 307.5069980  +6.5376634     669.3112      1060.93     934.2982     77.73312     154.9135     309.6424      1.480     3.65     827.2868     54.57409     126.4713         6     0.999     0.432 -55.69   0
       441    954.8094    398.2989 307.5273214  +6.5361375      1171.51     1801.482       1988.7     77.36443     154.4823     309.4269      1.673     3.47     828.4973     54.57409     182.3228        12     0.995     0.855 -61.92   0
       442    344.1330    395.5292 307.7810701  +6.5169149     1480.716     2162.208      1938.16     77.61042     154.9135     309.6117      1.571     3.88     827.0026     54.57409     187.0368        16     1.197     0.897 -68.13   0
       443    177.0412    396.1846 307.8504493  +6.5110498     723.1196     1217.381     1253.972     77.11765     154.6673     309.3961      1.596     4.34     828.6353     54.57409     128.0897         8     0.906     0.593 -44.49   0
       444    131.3248    394.6407 307.8694893  +6.5101548     5718.685     8092.496     7998.116     77.48753      154.852     309.6424      1.557     3.64     829.5344     54.57409      849.426        27     1.400     0.953 -49.91   0
       445    236.2754    393.6521 307.8259320  +6.5140796      1438.57     1969.304     1986.226     77.61042     154.9135     309.6117      1.482     3.85     827.7036     54.57409     204.0241        15     1.178     0.802 -69.56   0
       446    624.6714    393.6380 307.6646088  +6.5270674     477.1015      552.226     819.0327     77.48753      154.852     309.6732      1.471     3.40     828.3217     54.57409     110.4893         5     0.991     0.346 -70.01   0
       447    429.2104    393.0432 307.7458163  +6.5207861     833.6783     1246.681     1533.108     77.11765     154.6673     309.3345      1.548     5.53     826.6269     54.57409     143.5467         9     0.963     0.897 -50.02   0
       448    817.3867    390.8932 307.5846519  +6.5346229     893.7863     938.3813     669.4902     77.36443     154.6056     309.4269      1.357     5.63     829.8273     54.57409     136.0276        10     1.209     0.740 -61.43   0
       449    153.5052    390.4730 307.8604173  +6.5126188     2669.498     4117.646     4238.571     77.48753      154.975     309.6117      1.724     4.37     828.9997     54.57409     366.7717        21     1.582     0.799 -65.03   0
       450    549.2254    389.3665 307.6960900  +6.5263130      1022.65     1409.615     1257.941     76.99397     154.6673     309.4269      1.454     4.98     826.9818     54.57409     163.0413         9     1.132     0.619 -49.48   0
       451    963.6962    388.0185 307.5239737  +6.5406770     498.3072      745.785     1181.144     77.48752     154.7289     309.3961      1.480     3.05     828.0192     54.57409     114.1599         5     0.807     0.474 -42.06   2
       452    965.6178    384.1839 307.5233037  +6.5423239     1045.645      1338.48     1618.607     77.36443      154.544     309.5501      1.394     3.78     827.8685     54.57409      154.094         9     0.985     0.671 -56.24   2
       453    377.0452    385.2234 307.7677466  +6.5222702     2260.165     3144.899     2840.353     77.11765      154.852     309.4885      1.476     3.86     826.4307     54.57409     322.1196        17     1.279     0.800 -63.18   0
       454    265.0611    385.6041 307.8142469  +6.5183658     978.1467     1283.665     870.5811     76.99397     154.6673     309.3345      1.381     5.00     827.1345     54.57409     168.9213        10     1.247     0.642 -60.03   0
       455     27.1302    379.7758 307.9132667  +6.5127960     3264.229     5055.832     5432.231     77.24113     154.7289     309.5501      1.676     3.87     831.1959     54.57409      433.152        23     1.548     0.875 -52.15   0
       456    584.3198    380.7227 307.6818031  +6.5310527     480.5291     495.8976     441.6137     77.85564      155.098     309.7655      1.182     3.91     827.0534     54.57409     96.20569         5     0.917     0.477 -44.20   0
       457    602.0215    380.1588 307.6744692  +6.5318762     622.3688     647.6784     728.3266     77.24114     154.6673     309.4269      1.258     3.84     827.2636     54.57409      97.9209         5     0.836     0.507  60.46   0
       458    430.7932    378.7902 307.7456380  +6.5267229     8231.895     11552.66     12134.02     77.11765     154.6673     309.4885      1.502     3.61     826.0526     54.57409     1200.713        27     1.334     0.918 -56.08   0
       459    763.4857    377.7353 307.6074820  +6.5382598     2221.627     3147.099     3590.337     77.73312     155.0365     309.6424      1.485     3.48     829.1539     54.57409     364.9175        15     1.244     0.715 -58.24   0
       460    191.2632    378.3557 307.8451431  +6.5188863     671.3376     964.8186     689.9255     77.61042     154.7904     309.6424      1.480     4.89     828.2037     54.57409      111.493         9     1.360     0.498 -61.70   0
       461    771.4453    376.1108 307.6042301  +6.5391955     14433.78      19711.6     20760.75     77.61042     154.7289     309.6732      1.446     3.34      829.146     54.57409     2259.579        35     1.356     0.955 -61.78   0
       462    334.8335    374.3716 307.7856446  +6.5253380     1298.795     1712.593     1718.122     77.11765     154.6056     309.3961      1.510     4.01     826.1714     54.57409     186.9311        15     1.232     0.818 -52.23   0
       463   1015.2213    371.3307 307.5031287  +6.5492786      3841.69     5416.425     5376.161     77.24114     154.7904     309.5193      1.526     3.46     826.3142     54.57409      562.673        25     1.286     1.027 -64.07   0
       464    946.3067    367.4540 307.5318848  +6.5485885     703.2495      795.548     1034.404     77.48753     154.7904     309.8271      1.089     4.20     827.9423     54.57409      126.079         6     0.904     0.609 -64.06   0
       465    179.7465    367.1716 307.8503034  +6.5231173     959.6722     1563.936     1246.684     77.36443      154.975     309.5193      1.710     4.63     828.3265     54.57409     166.6807        11     1.191     0.703 -55.30   0
       466    451.1740    362.9497 307.7377050  +6.5339433     2459.858     3567.109      3630.69     77.24114     154.9135     309.5193      1.505     3.53     825.4723     54.57409     380.8794        17     1.282     0.792 -58.33   0
       467    907.6874    362.6440 307.5480878  +6.5492899     835.2081     1022.009     1072.352     77.61042     154.7289     309.6424      1.376     4.03     828.5121     54.57409     154.1426         7     0.990     0.687 -50.54   0
       468    836.8001    359.0411 307.5776544  +6.5484185     35582.18     51593.56     53224.53     76.87008     154.4823     309.3037      1.523     3.54     828.8284     54.57409     5436.367        50     1.505     1.021 -66.96   0
       469    478.9562    362.3211 307.7261862  +6.5351311     3488.547     4594.563     4702.119     77.61042      154.852     309.6117      1.422     3.53     825.5469     54.57409     460.4972        18     1.219     0.818 -53.73   0
       470    421.9859    356.9835 307.7500294  +6.5354307     457.1516     647.1875     414.3251     77.36443      154.544     309.5501      1.371     3.75     825.1043     54.57409     73.46173         5     1.048     0.386 -56.65   0
       471    328.9711    354.9209 307.7887342  +6.5331714      1064.94      1316.78     1179.831     77.48753      154.852     309.5809      1.351     4.24     825.4788     54.57409     143.2228        10     1.048     0.711 -50.59   0
       472    608.5886    351.4442 307.6727050  +6.5439494     2982.857     4160.038     4539.375     77.11765     154.7289     309.3345      1.523     3.74     825.7336     54.57409     466.0413        18     1.286     0.804 -65.62   0
       473     16.7779    351.6140 307.9185171  +6.5240739     1270.563     1716.478     1391.219     77.36443     154.6673     309.5193      1.548     3.72     831.3926     54.57409     198.2593        13     1.188     0.744 -55.32   0
       474    693.2267    345.0379 307.6377624  +6.5494168     90372.03     122044.3       125991     77.24113     154.6673     309.4577      1.415     3.27     827.2614     54.57409     13717.36        69     1.398     1.040 -58.77   0
       475    851.5745    346.3914 307.5719407  +6.5541324       1458.4     1758.811     1889.434     77.24114     154.6673     309.4577      1.383     3.35     828.3109     54.57409     244.8475        14     1.165     0.774 -64.10   0
       476     72.4959    344.6617 307.8956093  +6.5288136     1530.414     2339.742     2740.731     77.36443     154.9135     309.6732      1.648     3.66     829.6182     54.57409     209.6257        15     1.225     0.853 -60.65   0
       477    934.6937    342.0033 307.5375601  +6.5587092     978.2175     1244.016     1809.389     77.36443      154.544     309.3653      1.464     4.59     827.3742     54.57409     126.2167        10     1.072     0.716 -73.32   0
       478    555.8822    341.5633 307.6949300  +6.5462694     3037.702     4267.959     5179.235     77.61042      154.852     309.5809      1.560     3.87     824.5452     54.57409     503.3818        20     1.610     0.768 -55.08   0
       479    382.8162    342.0044 307.7668031  +6.5403047     606.0909      828.951     675.5218     77.24114      154.544     309.4577      1.430     5.34     824.7466     54.57409     93.57147         7     1.306     0.615 -61.55   0
       480     92.9415    340.6039 307.8872540  +6.5311745     6973.744     10051.84     10815.52     76.99397     154.7289     309.3653      1.525     3.54     829.0297     54.57409     972.5085        29     1.334     0.986 -58.05   0
       481    736.7760    342.0050 307.6197742  +6.5521203     468.8297      751.847     335.7177     77.11765     154.6056     309.4577      1.807     5.29     827.9966     54.57409     80.78967         6     1.147     0.688 -28.48   0
       482    538.9673    337.8844 307.7020798  +6.5472234     8036.512      11334.9     11510.66     77.61042     154.6673     309.5501      1.490     3.43     824.2438     54.57409     1216.315        31     1.327     0.979 -58.10   0
       483    763.3596    338.9501 307.6088339  +6.5542671     517.2104     681.9712     640.0577     77.73312      154.852     309.5501      1.292     4.51     827.8683     54.57409     84.13983         6     0.879     0.658 -58.02   0
       484    268.0149    335.5599 307.8147052  +6.5391236     2899.212     4229.685     4201.659     77.24113     154.6673     309.3961      1.550     3.82      825.793     54.57409     385.3215        20     1.258     0.937 -54.17   0
       485    401.8604    333.1422 307.7591907  +6.5445999     29189.79     40725.01     42030.43     77.73312     154.7904     309.6424      1.482     3.53     824.3851     54.57409     4169.738        47     1.412     1.036 -55.37   0
       486    580.8120    332.4810 307.6848795  +6.5508509     676.6542     873.2054     623.0406     77.24114      154.544     309.4577      1.302     3.69     824.3776     54.57409     137.5347         6     1.005     0.446 -59.70   0
       487    509.4748    331.7968 307.7145349  +6.5487516     1538.975     2146.304     1761.973     77.11765     154.3588     309.5193      1.520     3.65     824.1422     54.57409     244.9739        14     1.130     0.812 -64.27   0
       488    668.3097    331.2646 307.6485746  +6.5542720     630.2352     701.3646     448.2661     77.48753     155.0365     309.6732      1.323     4.66     825.9854     54.57409     89.95172         7     1.128     0.546 -63.53   0
       489    381.6894    331.1230 307.7676372  +6.5447590     1217.959     1730.612     2478.228     77.61042      155.098     309.6732      1.574     4.80     824.4236     54.57409     171.9621        11     1.206     0.712 -60.94   0
       490    481.0331    328.5275 307.7264590  +6.5491512      1344.92     1824.359      1578.06     77.48752      154.852     309.5501      1.415     3.61     824.1779     54.57409     218.7786        11     1.119     0.627 -53.80   0
       491    796.7407    325.5356 307.5954169  +6.5609168     948.7621     1442.953     1833.429     77.73312     154.7904     309.6424      1.662     3.74     827.2443     54.57409     145.3357         9     0.903     0.789 -21.93   0
       492    632.6901    325.1756 307.6635750  +6.5555977     741.9152     988.4465      1274.85     77.73312     154.6673     309.4577      1.407     4.66     824.8837     54.57409      111.701         8     1.102     0.560 -66.87   0
       493    378.8280    325.2019 307.7690249  +6.5471076     864.1909     1309.909     1902.566     77.11765     154.6056     309.4269      1.642     4.86     824.2598     54.57409     157.4823        11     1.225     0.619 -73.90   0
       494    490.9837    323.5102 307.7224942  +6.5515548       9810.2     13050.14     13369.92     77.36443     154.6056     309.4577      1.460     3.78     823.8978     54.57409     1314.528        27     1.310     0.908 -55.78   0
       495    760.1809    322.2452 307.6107141  +6.5610574     3398.321     5011.835     5295.268     77.24114     154.7289     309.3961      1.523     3.72     827.1237     54.57409     494.6003        23     1.292     0.969 -49.86   0
       496    915.7079    321.9793 307.5461167  +6.5663442     942.5252     1237.173     942.3646     77.48752     154.6673     309.4577      1.281     4.55     826.6553     54.57409      143.836         9     1.122     0.594 -63.43   0
       497    707.9356    321.8640 307.6324295  +6.5594738     795.2538     967.9612     790.5731     77.61042      154.852     309.6424      1.336     3.20     826.4567     54.57409     162.5997         7     0.888     0.528 -49.28   0
       498    317.3075    320.4416 307.7947393  +6.5470146      1186.33     1825.567     1905.947     77.61042     154.7904      309.704      1.652     4.53     824.7281     54.57409     168.6978        10     1.120     0.652 -61.21   0
       499    153.0237    313.8728 307.8631996  +6.5442239     1207.949     1858.044     2512.463     77.24114     154.6673     309.5501      1.630     4.99     827.8508     54.57409     174.3414        12     1.190     0.703 -65.90   0
       500    253.5742    314.0266 307.8214286  +6.5475293     670.7927     922.9742     477.0588     77.11765     154.6673     309.4885      1.416     4.08     825.5698     54.57409     96.44067         7     0.872     0.689  19.25   0
       501    600.0822    312.4459 307.6775473  +6.5597649     559.8564     634.0077     788.4567     77.61042      154.852     309.6117      1.251     3.66     823.5709     54.57409     98.06195         6     1.121     0.343 -49.43   0
       502    380.7965    307.7382 307.7687946  +6.5543828     8351.797     11663.06     11748.22     76.99397     154.6673     309.3345      1.504     3.42     823.7435     54.57409     1179.191        32     1.329     1.022 -60.45   0
       503    236.6430    308.2493 307.8286560  +6.5493472     2442.176     3266.246     3359.635     77.61042     154.7904     309.6117      1.474     3.33     825.7048     54.57409     376.9214        18     1.158     0.923 -66.44   0
       504    734.3193    307.4812 307.6219518  +6.5662907      1089.01     1521.594     1624.639     77.61042      155.098     309.7348      1.406     4.23     826.4619     54.57409     180.3623         9     1.113     0.587 -64.78   0
       505    748.7325    303.5463 307.6160964  +6.5683954     61940.34     82331.24     84951.46     77.61042     154.7904     309.5193      1.478     3.48      826.376     54.57409     9372.112        63     1.408     1.036 -60.47   0
       506    420.3482    303.1516 307.7525196  +6.5575987     2672.283     3894.109     4331.425     77.73312     154.7289     309.6117      1.575     3.23     823.3929     54.57409     429.1998        19     1.227     0.865 -61.03   0
       507    983.5945    300.6108 307.5186306  +6.5774229     1650.289     2303.569     2411.969     77.24114     154.6056     309.5193      1.596     3.77     825.3206     54.57409     249.6991        14     1.208     0.744 -61.46   0
       508    924.4787    299.7840 307.5432158  +6.5757988     2423.895     3497.499     3568.327     77.24114     154.6056     309.4577      1.485     3.43     825.5535     54.57409     389.9059        19     1.355     0.842 -65.91   0
       509    566.5309    300.4911 307.6918857  +6.5635803     1546.684     1976.123     1533.176     77.61042      154.975     309.6117      1.372     3.49     822.6365     54.57409      234.604        12     1.150     0.676 -59.06   0
       510    457.3887    299.4049 307.7372593  +6.5603834     1209.828     1799.341     1900.208     77.24114     154.6056     309.5193      1.584     4.23     823.0328     54.57409     180.1581        13     1.280     0.752 -49.49   0
       511    406.8203    298.6444 307.7582905  +6.5590071     2280.269     3094.754     3148.644     77.11765     154.7289     309.4577      1.434     3.80     823.3411     54.57409      336.114        15     1.177     0.782 -51.83   0
       512    287.0331    298.2292 307.8080624  +6.5551709     597.1235     689.0286     572.0587     77.11765     154.6056     309.3653      1.228     3.92      824.733     54.57409     101.7023         5     0.854     0.514 -47.02   0
       513    657.0034    296.9515 307.6544222  +6.5680602     427.1215     654.2112     555.9924     76.99397     154.6056     309.2112      1.415     3.65     823.8803     54.57409     72.68085         5     0.630     0.609  89.63   0
       514    828.1805    292.9822 307.5834470  +6.5754025     1466.401     2035.819     2135.716     77.36443     154.6673     309.5501      1.384     3.34     825.5609     54.57409      233.776        13     1.175     0.674 -63.08   0
       515    457.5566    293.7738 307.7373789  +6.5627137     913.3634     1544.893     1421.496     77.24114     154.9135     309.5501      1.724     3.60     822.8337     54.57409     125.8488         9     0.966     0.659 -56.72   0
       516    437.4732    290.2946 307.7458383  +6.5634787     1335.603     1664.879     2371.061     77.48753      154.975     309.6117      1.544     3.71     822.8533     54.57409     198.2003        11     1.158     0.644 -59.18   0
       517    183.3287    290.0672 307.8514141  +6.5550668     2567.059     3674.056     4109.059     77.61042      154.975     309.5809      1.509     3.80     826.5355     54.57409     342.7512        17     1.304     0.826 -51.69   0
       518    747.1467    288.1483 307.6172713  +6.5746992     6984.205     9447.797     9548.576     77.73312     154.7289     309.6424      1.439     3.41      825.702     54.57409     1007.955        26     1.345     0.898 -63.05   0
       519    219.0674    288.1042 307.8366351  +6.5570746     693.1939     1101.321     1086.595     77.61042      154.975     309.6117      1.577     4.42     825.5555     54.57409     103.7991         6     1.241     0.448 -52.93   0
       520    337.9540    287.8472 307.7872601  +6.5611609      755.432     955.4135     769.5317     77.61042     154.7289     309.6424      1.425     5.43     823.5849     54.57409     106.1703        10     1.230     0.677 -42.16   0
       521     79.2459    287.3072 307.8947406  +6.5527163     1243.538     2031.529     2585.736     77.61042     154.7904     309.7348      1.903     4.64     828.6665     54.57409     186.6475        14     1.390     0.759 -46.92   0
       522    763.5718    286.2047 307.6105132  +6.5760488     2959.812      4167.15     4472.499     77.11765     154.6673     309.4577      1.488     3.46     825.5379     54.57409     444.9209        20     1.232     0.909 -53.29   0
       523    465.9113    285.2250 307.7341957  +6.5665220     628.6908     721.9075     681.4745     77.73312     154.6673     309.4577      1.342     3.80     822.4788     54.57409     115.9668         5     0.853     0.485 -51.96   0
       524    353.2573    280.8123 307.7811400  +6.5645770      1714.79     3261.175      3176.02     76.99397     154.7289     309.3345      1.978     5.75     823.1197     54.57409     230.3704        23     1.675     0.957  -8.64   0
       525     66.7286    281.4292 307.9001383  +6.5547228     1512.059     2119.923     2440.834     77.48753      154.852     309.5809      1.533     3.68     828.5719     54.57409     227.8203        13     1.135     0.758 -47.02   0
       526   1001.7486    276.9868 307.5118789  +6.5877789      6296.53     8731.628     9277.188     76.99397     154.7904     309.3653      1.478     3.38     824.5571     54.57409     920.0577        29     1.325     0.963 -60.32   0
       527    642.0697    278.0362 307.6612603  +6.5753708     476.8932     867.1382     1409.172     77.48753     154.9135     309.6732      2.402     3.74     822.8483     54.57409     94.51282         5     0.679     0.592  -1.32   0
       528    479.7667    276.9297 307.7287190  +6.5704094      2378.53      3143.02     3509.256     77.48752      154.852     309.6424      1.418     3.36     822.1873     54.57409     386.7596        17     1.333     0.829 -43.94   0
       529    250.6804    273.5819 307.8239928  +6.5641284     556.6341     504.9939     1082.884     77.24114      154.544     309.5193      1.163     3.41     824.8029     54.57409     108.9964         5     1.018     0.331 -70.03   0
       530    242.3591    272.5443 307.8274843  +6.5642780     6668.524     9257.327     9907.563     77.48753     154.9135     309.6424      1.508     3.39     824.9162     54.57409     1008.293        27     1.344     0.934 -51.99   0
       531    910.0709    271.2947 307.5501543  +6.5870807     679.4198      857.547      931.556     77.48753     154.9135     309.6117      1.482     4.08     824.3903     54.57409      123.195         7     1.103     0.442 -55.32   0
       532    807.4452    270.8282 307.5928027  +6.5838579      554.546     792.6151      1010.55     77.11765     154.9135     309.5193      1.275     3.47      824.889     54.57409     81.28278         5     0.802     0.432 -68.74   0
       533    933.8502    266.8922 307.5404231  +6.5896891     564.6819     794.7657     462.9187     77.48752     154.7289     309.7963      1.455     4.49     824.1747     54.57409     83.20227         6     0.941     0.608 -67.23   0
       534    762.2828    265.9566 307.6117272  +6.5843648     779.2019     1107.733     1351.591     77.61042      154.852     309.5809      1.421     3.32     824.7453     54.57409     130.8031         8     0.934     0.614 -29.15   0
       535    219.2288    265.1525 307.8373414  +6.5665547     751.8246     1084.506     994.8149     77.24113     154.9135     309.5193      1.607     4.47     825.1663     54.57409      112.803         9     1.181     0.562 -62.97   0
       536    114.5035    266.0057 307.8808140  +6.5626923     544.7391     783.0278     1099.469     77.36443      154.544     309.3961      1.850     4.02     827.7805     54.57409     112.4946         5     0.997     0.532 -14.18   0
       537    376.6258    263.0608 307.7720300  +6.5726868     1801.472     2784.098     2909.173     77.24113      154.852     309.5193      1.646     3.79     822.5074     54.57409     298.2462        19     1.247     1.000 -75.66   0
       538    963.6954    261.9819 307.5281889  +6.5927086     1229.891     1611.966     2127.875     77.48752     154.6673     309.4269      1.388     3.57     823.9835     54.57409     212.1135        13     1.152     0.766 -74.08   0
       539    298.7949    259.1554 307.8044922  +6.5716948     1409.344     1769.369     1464.495     76.99397      154.544     309.2729      1.397     3.58     823.7488     54.57409     209.0391        12     1.075     0.764 -55.81   0
       540    146.1347    259.0833 307.8679084  +6.5666105     1946.805      2675.29     2734.131     77.73312      155.098     309.6732      1.404     3.25     826.7125     54.57409     301.6608        16     1.158     0.829 -46.98   0
       541    556.0092    254.8379 307.6977895  +6.5820756     2573.452     3258.003     3616.271     76.87008     154.6673     309.3345      1.350     3.27     821.4866     54.57409     377.0692        14     1.119     0.748 -65.45   0
       542    899.4542    253.8762 307.5551476  +6.5939184     1955.685      3034.41     3331.549     77.73312      154.852     309.6117      1.720     3.92     823.7821     54.57409     293.5281        21     1.270     1.131  22.77   0
       543    719.5805    252.2755 307.6299252  +6.5885897     5876.157     7834.273      8350.13     77.24114     154.6056     309.5501      1.452     3.21     823.7077     54.57409      1003.51        24     1.314     0.886 -61.96   0
       544    660.4343    252.1064 307.6545014  +6.5866877     2537.916     3399.607     3478.005     77.73312     154.7289      309.704      1.430     3.21     822.4818     54.57409     434.5334        17     1.157     0.838 -53.34   0
       545    375.3698    246.5117 307.7731085  +6.5794765     794.0334     962.3962     1079.393     77.73312     154.6673     309.5501      1.174     4.86     822.0961     54.57409     140.8265         9     1.371     0.488 -56.29   0
       546    915.7253    244.2294 307.5487110  +6.5984421      1277.93     1668.606     1855.576     77.48753      154.852     309.6117      1.340     2.83     823.3419     54.57409     199.2328        11     0.944     0.729 -53.64   0
       547    219.0245    237.6206 307.8383540  +6.5779133     2538.078     3476.667     3735.206     77.24113     154.6673     309.5809      1.541     4.06     824.7093     54.57409     337.8992        18     1.266     0.841 -58.07   0
       548    752.1516    235.8632 307.6169445  +6.5964505     1964.233     2870.903     2645.523     77.48752     154.7904     309.6732      1.444     4.01      823.456     54.57409     272.9583        15     1.282     0.739 -75.75   0
       549    861.7617    236.5066 307.5713877  +6.5998348     1963.705     2166.574     2356.904     77.73312     154.7904     309.6732      1.340     3.70      823.293     54.57409     315.7453        14     1.133     0.773 -54.12   0
       550    957.7980    251.8487 307.5309778  +6.5966958     738.5581     997.3374     1106.288     76.99397     154.4823     309.2112      1.545     4.40     823.6011     54.57409     106.9157         6     0.930     0.593 -65.34   0
       551    572.9045    231.2894 307.6915616  +6.5923609     560.2122     726.4192     1036.703     77.61042     155.2208     309.6424      1.491     5.45     821.1326     54.57409     80.12854         7     1.011     0.829 -74.70   0
       552    241.2343    230.6085 307.8293642  +6.5815519     608.6635     839.4897     636.6189     77.11765     154.6673     309.4269      1.262     3.81     824.2322     54.57409     117.9091         5     1.048     0.397 -81.19   0
       553    452.9872    227.4792 307.7415055  +6.5899285     26087.57     35738.23     36652.07     77.24113      154.544     309.4269      1.477     3.45     821.1443     54.57409     3509.608        44     1.392     1.020 -56.27   2
       554    458.9951    221.7948 307.7392008  +6.5924759     1585.327     2103.153     2694.714     76.99397      154.544     309.4885      1.403     3.39     820.9914     54.57409     253.2086        12     1.031     0.785 -53.99   2
       555    779.0128    226.5778 307.6060968  +6.6011786     15076.39     20921.76     21966.53     77.36443     154.6673     309.5193      1.526     3.64     823.3704     54.57409      2073.94        48     1.523     1.151 -34.83   0
       556    313.8596    228.7093 307.7992593  +6.5847675     694.2393     809.5718     296.7187     77.48753      154.852     309.6732      1.455     5.46     822.7711     54.57409     84.84326         9     1.135     0.740 -55.42   0
       557    717.6947    222.5202 307.6317063  +6.6008105     890.3683     1010.827     541.7971     77.36443      155.098     309.6732      1.392     5.03     822.4703     54.57409      115.425         9     1.019     0.701 -48.00   0
       558    141.3236    220.7154 307.8712006  +6.5822877     2517.473     3466.574     3730.239     77.73312     155.1594     309.6732      1.457     3.47     825.9537     54.57409     377.8815        17     1.157     0.821 -59.42   0
       559    115.8499    219.8802 307.8818105  +6.5817783     1363.457     1712.639     1454.696     77.61042     154.9135     309.6117      1.446     3.90     826.7717     54.57409     206.6108        13     1.205     0.704 -60.20   0
       560    771.9916    219.0602 307.6092655  +6.6040482     638.6077     1290.515     1408.785     76.99397     154.6673     309.3653      2.003     3.91     822.9359     54.57409     122.4504         5     0.819     0.534 -25.13   0
       561    168.2014    219.0787 307.8600908  +6.5838644     674.1929     875.4153      687.689     76.87008     154.2971     309.3961      1.494     3.90     825.1504     54.57409     106.6254         6     0.956     0.456 -49.99   0
       562    915.5003    216.7929 307.5497225  +6.6097611     1579.762     2065.826     2079.535     77.36443     154.4823     309.3961      1.401     3.16     822.1967     54.57409     255.1502        12     1.027     0.742 -60.12   0
       563    613.6675    214.9392 307.6751766  +6.6004710     569.6976     667.8464     592.1078     77.73312     154.7904     309.6117      1.255     2.90     820.7387     54.57409     103.2771         5     0.858     0.463 -83.12   0
       564    577.0928    213.1724 307.6904300  +6.5999798     5331.241     7245.778     7118.207     77.73312     154.6056     309.4885      1.421     3.28     820.6023     54.57409      820.152        22     1.243     0.871 -59.29   0
       565    297.5155    214.0041 307.8065439  +6.5902909      1287.66     1554.318     1419.066     77.11765     154.4823     309.3037      1.418     3.92     823.0309     54.57409     203.9875        14     1.124     0.891 -82.23   0
       566    539.6985    213.1874 307.7059641  +6.5987251     2453.505     3368.667     3102.858     77.36443     154.6056     309.3961      1.464     3.49     820.6116     54.57409     370.6663        17     1.199     0.839 -59.45   0
       567    381.6118    212.2524 307.7716681  +6.5938280     1639.254     2426.838     2327.448     76.99397     154.7904     309.3345      1.593     3.79     821.2397     54.57409     260.7584        15     1.247     0.788 -67.04   0
       568    937.9595    210.2768 307.5406101  +6.6131981      3003.54     4161.797     4190.522     77.48753      154.852     309.6732      1.474     3.26      821.748     54.57409     449.6398        19     1.218     0.864 -61.51   0
       569    884.0730    209.7271 307.5630152  +6.6116326     12629.08     17144.01     17710.61     77.85564      154.975     309.6424      1.456     3.32     822.0173     54.57409     1694.118        32     1.327     0.955 -58.28   0
       570    311.6000    210.2744 307.8008186  +6.5923020     1082.792     1512.112     1475.909     76.87009     154.2353     309.3961      1.450     4.13      822.618     54.57409     159.9737        10     1.004     0.760 -52.31   0
       571    559.2736    209.6151 307.6979521  +6.6008534     951.7853     1188.021     1527.414     77.11765     154.6056     309.5193      1.394     4.63     820.5025     54.57409     121.2322        10     1.129     0.636 -52.56   0
       572    203.2664    209.7978 307.8458375  +6.5888708        739.4     1058.323     1108.501     76.99397     154.4823     309.3961      1.626     3.78     824.5932     54.57409     127.7681         7     1.040     0.467 -60.42   0
       573    970.7410    207.5750 307.5270816  +6.6154034     10950.69     14657.58     14941.74     77.24114      154.852     309.4577      1.465     3.34     821.6268     54.57409     1621.722        28     1.292     0.939 -61.59   0
       574    682.2195    207.4505 307.6469492  +6.6058490     3360.854     4646.519     5210.558     77.11765     154.9135     309.4577      1.503     3.73     821.4542     54.57409     486.7266        21     1.286     0.910 -68.58   0
       575    256.4733    207.6592 307.8238070  +6.5915360     1299.866     1733.329     1387.007     77.73312      154.852     309.6117      1.530     4.03     823.7968     54.57409     221.3481        12     1.215     0.719 -54.67   0
       576     10.2304    206.4439 307.9261378  +6.5837807        28836     40747.71      42449.9     77.24114      154.852     309.4885      1.527     3.43     828.0944     54.57409     3979.806        49     1.422     1.076 -55.67   0
       577    490.7885    202.4939 307.7266418  +6.6015060     2387.221     3032.817     2894.769     77.36443      154.544     309.3961      1.389     3.27     820.2302     54.57409     327.0804        14     1.091     0.818 -49.86   0
       578    822.6566    199.0881 307.5888865  +6.6139804     2337.279     2927.734     2540.251     77.61042     154.7289     309.7348      1.340     3.12     822.0007     54.57409     348.2291        15     1.102     0.821 -77.62   0
       579    875.0034    198.1321 307.5671713  +6.6161175     2208.302     2763.432     2995.127     76.99397     154.4823     309.3961      1.365     3.65     821.5079     54.57409     324.5109        17     1.145     0.859 -55.46   0
       580    502.7249    198.3478 307.7218225  +6.6036163       3014.6     4128.304     4330.384     77.61042     154.9135     309.6117      1.489     3.42     820.0914     54.57409     456.9861        18     1.183     0.867 -61.80   0
       581    734.2758    195.6959 307.6257172  +6.6124368     45644.04     61329.85     63038.93     77.24114      154.975     309.6732      1.438     3.41     821.6031     54.57409       6981.6        49     1.360     0.994 -60.77   0
       582    337.3402    195.1251 307.7906356  +6.5994173      6548.53     12279.15     12887.47     77.85564      154.852     309.5809      1.993     6.44     821.7469     54.57409     872.4661        41     1.970     1.016 -71.67   0
       583    968.0425    194.4053 307.5286431  +6.6207505     3052.967     4397.671     4283.693     76.99397      154.544     309.3345      1.505     3.51      820.853     54.57409     403.6218        23     1.348     0.914 -64.44   0
       584   1006.4084    193.1057 307.5127474  +6.6225622     1702.462     2368.599     2044.004     77.24114     154.4823     309.3961      1.509     3.48     820.7722     54.57409     256.0736        15     1.121     0.844 -83.93   0
       585    902.1920    192.7681 307.5560554  +6.6192365     8407.066     11358.57      11579.8     77.11765     154.6673     309.4269      1.443     3.34     821.0486     54.57409      1161.56        24     1.261     0.896 -61.65   0
       586    445.5798    191.8760 307.7457797  +6.6043785     5787.816     7978.285     8215.978     77.24114     154.6056     309.5501      1.483     3.38     820.2314     54.57409     853.2731        23     1.279     0.910 -59.12   0
       587    219.7059    188.8551 307.8397141  +6.5980669     948.7495     1125.085     1234.444     77.48753      154.852     309.8271      1.344     4.54     824.2548     54.57409     132.6487        11     1.092     0.759 -61.90   0
       588    103.0488    183.1994 307.8883655  +6.5964909     5328.349     7439.707     7542.846     76.87008     154.4823     309.1804      1.458     3.51     825.9778     54.57409     710.1147        24     1.291     0.910 -63.76   0
       589    922.6105    182.2950 307.5479230  +6.6242392     1028.667     1546.797     2207.949     77.24114     154.4823     309.3961      1.671     4.10     820.2834     54.57409     167.4634        11     1.291     0.777 -65.05   0
       590    273.3222    179.9435 307.8177412  +6.6035415     38075.96     53547.91     55477.84     77.61042      154.852     309.5809      1.494     3.47     823.3854     54.57409     5456.332        52     1.418     1.059 -59.31   0
       591    248.6146    180.9952 307.8279698  +6.6022799     7473.927     10479.93     10978.96     77.24113      154.544     309.4577      1.512     3.43     823.7778     54.57409     1054.275        29     1.383     0.953 -53.74   0
       592    599.5485    181.5865 307.6821616  +6.6137685     709.8112     892.0609     634.5727     76.99397     154.7904     309.3653      1.280     3.10     819.4797     54.57409     138.8652         6     0.885     0.436 -71.82   0
       593    702.6546    179.2293 307.6394062  +6.6181806     1020.399     1212.202     1276.125     77.36443     154.9135     309.5193      1.264     4.40     820.6932     54.57409     163.8527         8     0.953     0.639 -69.70   0
       594    397.3963    175.4035 307.7663504  +6.6095676     56924.14     78784.84      80804.6     76.99397     154.4206     309.4269      1.500     3.41     820.4305     54.57409      8631.71        58     1.410     1.057 -56.78   0
       595    153.3418    176.7012 307.8676924  +6.6008600     4656.791     6552.135     6829.515     77.36443      154.852     309.7655      1.548     3.48     824.7808     54.57409     621.5687        26     1.339     0.974 -57.70   0
       596    414.8763    175.9364 307.7590708  +6.6099321      1665.02     2309.872     1904.897     77.85564      154.852     309.5809      1.473     3.60     820.2241     54.57409     227.1561        17     1.255     0.833 -59.04   0
       597    301.3769    173.1428 307.8063156  +6.6072882     20557.92     28711.44      30137.2     77.24114      154.852     309.4269      1.491     3.36      822.695     54.57409     3087.126        41     1.403     1.004 -56.26   0
       598    736.7216    171.5911 307.6255092  +6.6224693     38322.73      51111.8     52659.46     77.24114     154.3588     309.4577      1.450     3.29     820.6561     54.57409     5771.976        51     1.373     1.015 -61.63   0
       599    684.8458    173.1888 307.6470074  +6.6200805     1084.173     1435.459     1280.013     77.11765     154.6673     309.3345      1.432     4.80     820.3637     54.57409     168.5242         9     1.098     0.596 -60.96   0
       600    308.7349    173.1393 307.8032591  +6.6075359     2353.065     3737.855     4623.508     77.61042     154.7904     309.6424      1.844     4.23     822.4273     54.57409     310.3087        21     1.431     0.921 -54.60   2
       601    310.6052    168.3394 307.8026437  +6.6095800     541.6825     857.5488     1617.663     77.11765     154.7289     309.3961      1.341     3.47     822.3218     54.57409      101.489         5     0.770     0.450  63.46   2
       602    785.0491    172.0520 307.6054162  +6.6238892     1451.373     1868.051     2187.203     77.73312     154.7289     309.5809      1.420     3.85     820.7517     54.57409     199.8934        13     1.144     0.780 -55.66   0
       603     23.9794    172.0407 307.9215881  +6.5984440     659.2121     1150.142     1602.454     77.24114     154.6673     309.4269      1.908     5.45      828.073     54.57409      100.851         8     1.331     0.629 -60.40   0
       604     53.4641    168.9418 307.9094445  +6.6007129     10202.74     14341.42     14692.85     77.73312     154.7904     309.6424      1.512     3.53     827.1062     54.57409      1505.92        33     1.370     1.004 -57.72   0
       605    560.4107    169.8031 307.6988167  +6.6173265      553.995     1103.708     1213.229     77.24114      154.544     309.5193      1.730     3.40     819.1007     54.57409     77.45081         5     0.778     0.429 -68.21   0
       606     87.3317    166.9386 307.8954431  +6.6026763     1733.505     2371.488     2198.775     77.61042     154.7904     309.6117      1.497     3.69     825.8959     54.57409      273.284        15     1.193     0.782 -57.01   0
       607    995.2440    165.9887 307.5182925  +6.6333858      1213.64     1496.322     2083.791     77.11765     154.7289     309.3345      1.523     5.05       819.27     54.57409     178.8674         9     1.181     0.610 -80.81   0
       608    721.1426    159.4926 307.6323872  +6.6269446     735.2474     767.7332     934.0969     77.48753     154.7904     309.7348      1.229     4.60     820.0645     54.57409     134.8787         7     0.968     0.621 -56.83   0
       609    570.4111    156.4844 307.6951094  +6.6231585     1025.306     1532.832     1300.198     77.24114     154.6056     309.4577      1.533     3.63     818.6859     54.57409     222.6662         9     1.188     0.510 -70.85   0
       610    996.1711    152.0110 307.5183747  +6.6391870     2425.739     3608.762     4663.311     77.11765     154.6673     309.4577      1.711     3.64     818.6528     54.57409     356.8306        19     1.229     0.909 -72.03   0
       611    579.1957    150.1351 307.6916731  +6.6260729     1169.234     1735.089     1911.918     76.87008      154.544     309.3961      1.514     4.57     818.5742     54.57409     161.3027        13     1.322     0.709 -78.22   0
       612    272.1975    146.2200 307.8193443  +6.6174252     34577.26     48442.97     50656.33     77.24113     154.4823     309.3653      1.487     3.30     823.3267     54.57409     5140.485        56     1.543     1.094 -45.79   0
       613    587.4617    147.9535 307.6883122  +6.6272494     2196.142     2831.036     2815.793     77.48752     154.7289     309.6424      1.407     3.30     818.5319     54.57409     330.5225        15     1.205     0.785 -58.23   0
       614    331.5969    148.0644 307.7946057  +6.6186523     1105.024      1489.85     1235.855     76.99397     154.6673     309.3961      1.490     4.09     821.8521     54.57409     158.1071        13     1.209     0.747 -76.92   0
       615     17.4202    144.7608 307.9252339  +6.6094850     4988.982     7223.238     8289.311     77.24114     154.6673     309.3653      1.584     3.57     828.4681     54.57409     702.1429        26     1.360     0.946 -57.86   0
       616    181.1856    144.2669 307.8572191  +6.6151824     928.3728     1146.099     779.9808     77.11765     154.7289     309.5501      1.302     2.72      823.884     54.57409     164.1311         9     0.900     0.630 -61.78   0
       617    703.9330    142.7169 307.6400996  +6.6332963     9310.632     12313.26     12438.67     77.85564      155.098     309.6732      1.416     3.34     819.4931     54.57409     1367.929        26     1.262     0.901 -61.19   0
       618    258.0941    141.1912 307.8253727  +6.6190289     888.2411     1237.985      1125.84     77.24113     154.4823     309.3961      1.316     3.91     823.5023     54.57409     146.4971         9     1.016     0.597 -53.15   0
       619    114.7132    139.9073 307.8849804  +6.6147533     5579.224     7943.512     7638.794     77.61042     155.2822      309.704      1.506     3.46     824.3783     54.57409     833.6222        28     1.388     0.974 -57.56   0
       620    576.3085    137.7176 307.6932896  +6.6311027     805.4772     1259.401     1384.582     77.36443      155.098     309.6732      1.467     5.01     818.3782     54.57409     127.4995        10     1.356     0.558 -68.85   0
       621    642.3605    136.6710 307.6658831  +6.6337389     925.7091     1248.866     1303.529     77.48753      154.852     309.6732      1.386     3.90     818.8427     54.57409     162.8282        11     1.176     0.713 -64.96   0
       622    453.9281    137.1231 307.7441524  +6.6272603     1495.115     2196.314     2252.234     77.85564      155.098     309.6117      1.530     3.99     818.9982     54.57409     222.9012        15     1.191     0.960 -25.25   0
       623    385.3535    135.8912 307.7726828  +6.6254760      4482.43      6947.99     7254.105     77.61042     154.7904     309.7348      1.680     3.86     820.7441     54.57409     608.6459        28     1.411     1.048 -73.55   0
       624    562.0242    134.8377 307.6993207  +6.6318147     745.0587     1297.339     1257.493     77.24114     154.6673     309.3961      1.650     4.17     818.3391     54.57409     125.3026         7     1.131     0.549 -69.61   0
       625    349.8650    134.7684 307.7874639  +6.6247523     3882.332     5436.936     5739.302     77.36443     154.9135     309.5501      1.517     3.49     821.7711     54.57409     507.3939        21     1.248     0.900 -59.70   0
       626    104.1556    134.8649 307.8895364  +6.6164807     1900.215     2906.312     2718.036     77.61042     154.7904     309.6117      1.551     3.98     824.3637     54.57409     291.2369        17     1.297     0.829 -49.19   0
       627    836.8651    134.5496 307.5851452  +6.6410965     603.7314     716.0284     357.3493     77.48753     154.7904     309.6117      1.299     4.50     819.1454     54.57409      88.3465         6     0.985     0.586 -71.32   0
       628    740.3264    133.1647 307.6252999  +6.6384527     553.5014     785.2014     411.9169     77.48753      154.852     309.5501      1.442     3.91     819.1492     54.57409     72.27509         6     1.056     0.415 -77.02   0
       629    665.9380    132.1747 307.6562385  +6.6363814     863.4011      1202.77     686.3939     77.24113     154.7904     309.5501      1.542     4.55     819.0942     54.57409     139.7472         9     1.158     0.764 -66.71   0
       630     42.7351    130.4339 307.9152014  +6.6162489     599.8652     800.5515     873.7752     77.48753      154.852     309.6117      1.407     4.93     827.1565     54.57409     107.7423         6     0.954     0.723 -74.29   0
       631    996.8964    128.7370 307.5188516  +6.6488192     1670.241      2329.25      2077.91     77.48753      154.975     309.6732      1.520     3.63     817.7863     54.57409     226.6075        15     1.192     0.801 -57.60   0
       632    944.8040    128.6911 307.5404961  +6.6471064     12608.02     13915.35     14342.54     77.24114      154.544     309.3653      0.930     4.06      818.157     54.57409     6027.092        12     1.100     0.428 -23.11   0
       633    722.4075    129.2412 307.6328761  +6.6394752     560.4503     886.1828     877.7753     76.99397     154.6673     309.3345      1.599     4.17     819.0169     54.57409     108.3245         5     0.902     0.550 -36.83   0
       634    201.6357    123.7032 307.8494167  +6.6243566     6341.478     8708.328     8657.507     77.61042     154.7289     309.7655      1.518     3.58     823.5881     54.57409     890.4972        25     1.325     0.908 -57.25   0
       635     84.3217    123.6283 307.8981550  +6.6204538     2489.048     3597.264     3665.643     77.48753     154.7904     309.6117      1.598     3.62     824.8153     54.57409      337.952        18     1.251     0.864 -66.37   0
       636    840.6633    123.7297 307.5839296  +6.6456896     589.8415     662.8484     700.5889     77.61042      154.852     309.6424      1.362     3.98     818.7292     54.57409     95.38574         6     1.091     0.414 -77.00   0
       637    663.4881    122.4773 307.6575818  +6.6403030     7345.774     9792.264     10234.11     77.61042     155.1594     309.6732      1.430     3.14     818.8179     54.57409     1174.453        26     1.287     0.877 -52.97   0
       638    811.4863    122.3458 307.5960981  +6.6452894     1208.993     1787.484     1190.343     77.61042     154.7904     309.7655      1.464     4.48     818.9653     54.57409     178.0116        12     1.240     0.783 -33.35   0
       639    615.6475    119.7753 307.6775483  +6.6398225     10848.94     14801.05     15526.61     77.24114      154.852     309.4885      1.474     3.35     818.1597     54.57409      1599.75        31     1.302     0.952 -59.40   3
       640    619.1633    111.3029 307.6763721  +6.6434374     61515.79     83179.98     86228.06     77.61042     154.7289     309.7655      1.449     3.49     818.0453     54.57409     9219.104        67     1.423     1.059 -58.30   2
       641    250.2736    120.3411 307.8293240  +6.6273740     998.9088     1160.647     840.7744     77.73312      154.852     309.6117      1.315     3.80     823.5351     54.57409     149.4514        11     1.061     0.702 -52.49   0
       642     14.3901    118.6734 307.9273736  +6.6201521     1111.644     1746.758     1707.444     77.11765     154.4823     309.4885      1.591     5.90     828.7618     54.57409     178.2737        15     1.500     0.825 -64.72   0
       643    554.1831    118.5191 307.7031265  +6.6382895     666.1094     1156.978     1270.555     77.24114      154.544     309.4885      1.727     2.86     818.0686     54.57409     148.5318         5     0.946     0.371 -82.74   0
       644     89.0121    118.7563 307.8963709  +6.6226224     386.3103     424.0844     910.7005     77.11765     154.7289     309.3345      1.440     5.10     824.3862     54.57409     75.82672         5     1.206     0.609 -79.48   0
       645    342.7264    115.5084 307.7910779  +6.6324642     4248.536     6175.186     6867.335     77.61042      154.975     309.6424      1.657     3.88     822.5062     54.57409     592.6463        29     1.614     0.904 -58.77   0
       646    524.5532    114.7595 307.7155627  +6.6388520     1956.682     2636.666     2615.542     77.48753      154.852     309.4269      1.447     3.60     818.0063     54.57409     303.5143        13     1.131     0.748 -65.25   0
       647    989.0758    114.4683 307.5225781  +6.6544497     773.4963     1072.563     866.7404     77.73312      154.975     309.6117      1.545     4.25     817.3019     54.57409       110.46         6     0.932     0.780  72.84   0
       648    685.2505    112.2017 307.6488850  +6.6452707     463.8915     586.9882       888.36     76.99397     154.4823     309.2112      1.315     4.58     818.6353     54.57409     79.57306         6     0.992     0.601 -26.26   0
       649    298.2107    105.1753 307.8099197  +6.6352398     3990.654     5699.776     5983.749     77.24113     154.6673     309.4885      1.489     3.45     823.1949     54.57409     595.9828        23     1.368     0.920 -53.82   0
       650    493.8093    102.5752 307.7287450  +6.6428549     506.4546     876.9594     941.3555     77.24114     154.6673     309.4885      1.479     3.52     817.8075     54.57409     76.98969         5     0.789     0.453  17.88   0
       651    698.2061     99.6505 307.6439234  +6.6508840     1186.115     1491.371     1039.668     77.11765     154.6673     309.2729      1.316     3.86     818.2006     54.57409     191.2737        10     1.068     0.637 -65.97   0
       652    669.7167     98.2999 307.6558052  +6.6504916     1577.273     2067.117     1870.635     77.61042     155.3436      309.704      1.374     3.74     818.3303     54.57409     229.0824        14     1.222     0.743 -52.97   0
       653      2.7474     87.5165 307.9332626  +6.6326227     6134.098     15925.47     25397.52     77.61042     141.8087     254.6874      4.050     9.72     828.8052     54.57409     1126.211       139     4.232     1.962 -88.11  24
       654    425.2865     86.2142 307.7577636  +6.6473187     4730.557     6401.072     5937.296     77.24114     154.6673     309.5193      1.456     3.33     819.5026     54.57409     683.3451        21     1.228     0.891 -62.87   0
       655    879.7996     82.5922 307.5690470  +6.6639747     2399.293     3136.044     3213.851     76.99397      154.544     309.4269      1.390     3.15     816.8831     54.57409     370.7233        15     1.122     0.787 -59.55   0
       656    897.7830     81.6516 307.5616066  +6.6649613     4425.856     6128.901     6438.424     77.11765     154.9135     309.3653      1.490     3.41     816.8417     54.57409        662.2        24     1.314     0.892 -61.89   0
       657    578.1437     82.1554 307.6943930  +6.6541009      895.432     1188.941     1365.356     77.61042      154.852     309.6117      1.456     4.15      817.386     54.57409     124.7418        11     1.041     0.853 -24.68   0
       658    589.8901     80.2210 307.6895777  +6.6552916     2022.645     2848.021     2540.692     77.48752     154.6673     309.5193      1.441     3.85     817.3273     54.57409     282.4485        17     1.270     0.830 -51.97   0
       659    235.7935     79.5646 307.8367136  +6.6437218     1079.705     1489.343     1585.004     76.87009     154.6056     309.3961      1.552     4.55     823.2722     54.57409     152.3005        12     1.185     0.703 -47.12   0
       660    388.6052     78.1995 307.7732729  +6.6494005     2110.594     2806.527     2766.024     76.99397      154.544     309.3961      1.397     3.49      821.281     54.57409      330.943        14     1.204     0.715 -53.56   0
       661    136.5538     74.9874 307.8780970  +6.6422849     3609.889     5220.434     5096.561     76.99397     154.6673     309.3961      1.527     3.44     822.5347     54.57409      522.308        21     1.288     0.910 -60.81   0
       662    683.5835     95.1977 307.6501480  +6.6522347     3540.246     4587.783     4741.873     77.24114     154.4206     309.4269      1.377     3.42     818.1658     54.57409     587.2607        16     1.177     0.779 -61.93   0
       663     18.4011     72.8503 307.9272548  +6.6392025     13544.08     19605.15     21254.51     76.99397     154.4823     309.1804      1.561     3.52     826.6637     54.57409     1949.943        36     1.374     1.045 -54.93   0
       664    284.9026     73.5143 307.8165148  +6.6478642     1439.656     1961.883     2341.169     77.61042     155.2208     309.6732      1.520     3.29     823.2889     54.57409     226.7943        13     1.036     0.794 -65.57   0
       665    558.5118     72.6793 307.7028678  +6.6573574      689.082     850.2881     355.5741     77.36443      155.098     309.7348      1.269     2.82     817.2408     54.57409     120.4623         5     0.711     0.463 -69.57   0
       666    545.6589     72.2322 307.7082229  +6.6571128     913.5754     1166.354     997.1476     77.48753     154.9135     309.5809      1.411     2.79      817.252     54.57409     160.7144         8     0.891     0.607 -71.92   0
       667    753.5646     71.8681 307.6218548  +6.6641983     855.5244     1095.446     1873.372     77.48753     154.9135      309.704      1.479     4.18     816.7587     54.57409     128.9317        10     1.024     0.732 -54.56   0
       668    148.3456     70.6631 307.8733440  +6.6444654     646.7817     516.8954     210.4461     77.73312     154.7904     309.5809      1.269     3.42     822.4266     54.57409     106.4796         5     1.027     0.329  69.35   0
       669    887.0287     68.7421 307.5665071  +6.6699328     713.1216     1007.986     993.9038     77.24114     154.9135     309.5193      1.510     3.80     816.3033     54.57409     114.8113         6     0.919     0.452 -34.14   0
       670    820.1616     67.4128 307.5943341  +6.6682558     6982.508     9224.959     9310.589     77.24114     154.6673     309.3345      1.430     3.32     816.5464     54.57409     1086.711        25     1.253     0.915 -58.00   0
       671    765.2414     67.6667 307.6171442  +6.6663217     3669.218     4936.892     5047.471     77.61042     154.7904     309.6732      1.438     3.18     816.6126     54.57409     541.1556        21     1.258     0.884 -67.57   0
       672    410.2726     68.5184 307.7645966  +6.6541216     1269.258     1639.627     1199.056     77.85564     155.1594     309.6424      1.423     3.60     820.2776     54.57409     207.2626        10     1.082     0.604 -66.79   0
       673     90.2352     67.6725 307.8975867  +6.6437509     675.1141     1025.821     1216.409     77.48753      154.852     309.6117      1.440     3.54     823.0477     54.57409     136.3974         5     0.831     0.493 -47.59   0
       674    939.9966     71.1148 307.5444200  +6.6707153     586.2981     781.8721     641.2411     77.11765     154.4823     309.3345      1.342     2.87     816.1833     54.57409     103.7206         5     0.613     0.603  88.29   0
       675    527.9233     65.8546 307.7158058  +6.6591532     1448.719     1930.596     2413.052     77.73312      154.852     309.6117      1.422     3.22     817.1542     54.57409     226.3129        14     1.134     0.732 -75.08   0
       676     58.8152     64.7930 307.9107371  +6.6438852     3605.585     5183.369     5277.574     77.24113     154.6056     309.4577      1.533     3.67      824.288     54.57409     517.9373        23     1.328     0.951 -55.59   0
       677     43.2671     65.5972 307.9171693  +6.6430313     1061.785     1612.502       1576.6     76.99397      154.544     309.4269      1.629     3.72     825.0214     54.57409     173.4532        10     1.097     0.636 -53.63   0
       678    647.4857     65.4007 307.6661456  +6.6633315      624.071      797.856     849.0771     76.87009     154.3588     309.3037      1.339     2.82     817.1252     54.57409     129.4056         5     0.917     0.474 -44.49   0
       679    420.0627     64.4234 307.7606669  +6.6561395     1197.252     1572.627     1484.196     77.24113      154.852     309.5193      1.422     3.56     819.8318     54.57409     180.4131        12     1.177     0.727 -68.23   0
       680    582.7838     61.2699 307.6931666  +6.6628776     1452.855     1937.699     734.5257     77.11765     154.7289     309.5193      1.421     3.49      816.933     54.57409     221.0225        14     1.072     0.885 -68.69   0
       681      1.6328     60.0798 307.9346523  +6.6439110     2561.848     3105.103     3485.896     71.07214     127.6614     237.9731      1.217     3.33     826.2108     54.57409     415.6162        14     1.175     0.662 -82.10  24
       682    759.9067     55.2876 307.6197757  +6.6712544     2187.114     2983.517     2762.181     77.61042     155.2822     309.6732      1.423     3.40       815.98     54.57409     311.7563        16     1.283     0.710 -61.58   0
       683     73.7681     56.3399 307.9048103  +6.6478764     878.3313     1218.516     1229.729     77.36443     154.9135     309.5809      1.558     4.65     823.3467     54.57409     137.3771         9     1.158     0.529 -47.81   0
       684    709.8186     56.6403 307.6405413  +6.6690266     521.6334     572.9576     130.3135     77.24114     154.6673     309.3653      1.061     3.42     816.4382     54.57409     93.48169         5     0.766     0.442  17.44   0
       685    400.4748     55.0952 307.7691189  +6.6593352     1148.325     1589.455     1840.737     77.36443     155.0365     309.6117      1.471     3.79     820.8804     54.57409     199.8751        10     1.029     0.841 -57.05   0
       686     97.8189     53.9124 307.8949004  +6.6496855     926.7703     1234.566     1162.211     77.36443     154.6056     309.4885      1.356     4.36     822.5186     54.57409     133.6196        10     1.130     0.601 -48.70   0
       687     86.4966     49.0562 307.8997681  +6.6513103     10617.93     15009.81     15200.67     77.48752     154.7904     309.8271      1.509     3.50     822.7614     54.57409      1527.86        33     1.360     1.001 -60.83   0
       688    415.6384     48.8647 307.7630284  +6.6624144     2855.429     3820.742     3045.494     77.61042     154.7904     309.6732      1.408     3.25     820.1355     54.57409     452.4098        18     1.183     0.821 -60.65   0
       689    236.9377     48.6785 307.8372791  +6.6565101     674.2004     893.4232     1070.145     77.85564     154.9135     309.6117      1.343     3.35     822.8228     54.57409     109.4844         5     0.947     0.344 -44.75   0
       690    629.3141     41.0254 307.6745138  +6.6727878     21133.83     28607.45     29260.49     77.73312     154.6056     309.4577      1.436     3.25     816.3864     54.57409     3219.256        38     1.322     0.985 -56.28   0
       691    253.1280     43.2471 307.8307356  +6.6592945     1661.181     2563.223     3451.704     77.61042     154.9135     309.6117      1.707     4.21     822.9086     54.57409     233.8901        17     1.317     0.887 -45.26   0
       692    659.4187     41.9529 307.6619746  +6.6734092      536.548     722.9908     1032.532     77.11765      154.852     309.4269      1.465     4.64     816.4548     54.57409     79.51746         7     0.959     0.636 -35.04   0
       693    529.0936     37.1084 307.7162855  +6.6710591     6006.048     8023.064     8078.592     77.61042     155.3436     309.6117      1.407     3.33     816.6517     54.57409     816.3494        23     1.276     0.869 -61.23   0
       694    247.4156     37.1766 307.8333135  +6.6616091     2080.309     2921.146     3705.174     77.36443     154.6673     309.5193      1.568     4.04     822.7734     54.57409     305.2957        17     1.273     0.841 -67.87   0
       695    765.0145     35.9489 307.6183017  +6.6794079     583.5547     927.7748     1365.768     76.99397      154.852     309.3653      1.609     3.78     815.0686     54.57409     89.12659         5     1.038     0.395 -58.02   0
       696    685.3635     35.8550 307.6513994  +6.6767917     716.2365     784.6868     1411.573     77.48753      154.852     309.6424      1.591     4.50     816.0588     54.57409     128.4459         9     1.106     0.612 -79.33   0
       697    255.2009     33.1109 307.8302160  +6.6635482     10267.82     14378.99     15280.63     76.87008     154.3588     309.3345      1.471     3.33     822.8353     54.57409     1489.389        31     1.342     0.990 -59.43   0
       698    616.7456     34.6084 307.6799513  +6.6750174     1021.779     1175.628     1533.472     76.99397     154.7904     309.3345      1.238     3.02       816.22     54.57409     177.2803         9     0.950     0.638 -45.96   3
       699    615.5018     30.7505 307.6805976  +6.6765685     3605.437     5187.357     5440.376     77.61042     154.7904     309.7655      1.525     3.45     816.1192     54.57409     527.6485        25     1.321     1.005 -59.38   2
       700    434.6366     32.6626 307.7556801  +6.6697379      26324.5      35850.1     36543.24     77.61042     154.9135     309.6117      1.490     3.40      819.194     54.57409     3892.305        41     1.342     1.022 -60.54   0
       701    912.5234     32.6135 307.5571236  +6.6856957     2254.025     3295.208     2956.482     77.24114      154.544     309.4269      1.561     3.30     814.8124     54.57409     349.9008        21     1.331     0.978 -68.81   0
       702    315.2349     33.5319 307.8052594  +6.6653847      1106.39     1547.552     1637.064     77.48753     154.9135      309.704      1.496     3.86     823.2959     54.57409     167.7236        10     1.080     0.653 -70.04   0
       703     20.5732     32.7751 307.9277058  +6.6558184     2668.618     3944.197     3503.099     77.11765     154.6673     309.4885      1.568     3.60     823.3605     54.57409      371.083        21     1.299     0.913 -48.33   0
       704    547.6143     32.6560 307.7087401  +6.6735157     692.5777     880.5572     789.6456     76.99397     154.7289     309.3345      1.569     4.43      816.563     54.57409     103.4035         7     1.201     0.465 -49.07   0
       705    519.7393     32.5798 307.7203242  +6.6726161     794.6288     1097.222     1448.776     77.24114      154.852     309.5501      1.478     4.48     816.5824     54.57409     122.4557        11     1.191     0.776 -47.85   0
       706    243.0948     29.6993 307.8353606  +6.6645510      3450.47     4706.399     5469.213     77.61042     155.3436     309.4577      1.478     3.46     822.6337     54.57409     475.9376        19     1.261     0.860 -58.44   0
       707    296.2804     27.5952 307.8133344  +6.6672008     1091.123     1568.034     1871.652     77.24114     154.4206     309.3653      1.553     4.32     823.2997     54.57409     164.1086        11     1.053     0.889 -27.00   0
       708    933.1097     22.7170 307.5489012  +6.6904660     1164.987     1732.807     1757.324     77.36443      155.098      309.704      1.497     4.28     814.2838     54.57409     177.8768        13     1.248     0.824 -58.34   0
       709    684.5493     22.3142 307.6521919  +6.6823545     2188.675     3046.323     2897.948     77.61042     154.7289     309.6732      1.478     3.71      815.561     54.57409     358.1011        15     1.191     0.777 -61.20   0
       710    250.0824     17.4276 307.8328710  +6.6698509     952.9715     1309.094     1719.047     77.48752     154.6673     309.5501      1.560     5.17     822.5932     54.57409      132.782         9     1.167     0.647 -55.91   0
       711    195.6149     17.7760 307.8554889  +6.6678820       858.83     1090.301     876.7915     77.36443     154.6673     309.5501      1.398     4.15     822.1552     54.57409     168.3466         8     1.114     0.747 -45.66   0
       712    703.7175   1020.9545 307.6107553  +6.2707300     1132.008     1786.474     2313.565     77.61042     153.1812     272.1973      1.871     3.81     847.8486     54.57409     155.0527        12     1.024     0.830 -36.69  16
       713    743.7597   1017.3275 307.5942526  +6.2735611     1227.169     2159.887     2448.413     77.48753      154.852     306.6112      2.004     5.65     847.6889     54.57409     160.1786        18     1.522     0.921 -63.53  16
       714    950.8867   1011.4423 307.5084563  +6.2828820     5825.228     10482.75      10973.9     77.61042     154.7289     309.6424      1.934     4.07     844.0027     54.57409     656.4926        42     1.597     1.337 -57.39   0
       715    705.4612   1012.5140 307.6103140  +6.2742725     1069.751     2177.957     2628.436     77.61042      154.975     309.6424      2.074     6.13     847.6738     54.57409     135.1989        16     1.470     0.936 -28.23   3
       716    710.7035   1009.3849 307.6082424  +6.2757390     2690.026      4503.32     5015.745     77.36443     154.6056     309.3961      1.849     4.45     847.5974     54.57409     348.8699        30     1.612     1.195 -79.89   2
       717    235.5471   1011.3704 307.8054395  +6.2590521     1555.077     2430.883     2561.651     77.36443      154.975     309.5501      1.639     3.83     846.2364     54.57409     196.3739        15     1.177     0.838 -57.12   0
       718    433.5834   1010.3524 307.7232594  +6.2660945      1072.69     1813.905     1954.632     77.11765     154.7904     309.3961      1.972     4.71     848.8243     54.57409     162.6114        12     1.140     0.832  70.13   0
       719    726.5457   1008.5645 307.6016927  +6.2766054     1076.928     1843.119     1697.422     77.48753      154.852     309.6424      1.845     4.73     847.6313     54.57409     141.7322        14     1.108     0.957 -69.99   0
       720    357.1208   1007.1403 307.7551109  +6.2648652     2022.386     2772.553     2748.804     77.73312      154.852     309.5501      1.514     3.59     848.2291     54.57409     268.5889        20     1.241     0.994 -62.95   0
       721    744.1525    996.5811 307.5947841  +6.2821389     7865.508     12487.97     12670.13     77.11765      154.852     309.4269      1.715     3.56     847.1779     54.57409     946.3629        37     1.461     1.193 -66.25   0
       722    539.6592    997.1796 307.6796633  +6.2750743     4317.591     6701.072     6915.979     77.24114     154.7289     309.4577      1.685     3.49     849.3315     54.57409     592.2767        27     1.357     1.036 -72.23   0
       723    509.6405    998.4300 307.6920839  +6.2735562      1201.82     1623.279      1687.95     77.11765     154.6056     309.4885      1.571     5.43     849.3823     54.57409     167.2957        12     1.272     0.774 -50.00   0
