#   1 NUMBER                 Running object number                                     
#   2 X_IMAGE                Object position along x                                    [pixel]
#   3 Y_IMAGE                Object position along y                                    [pixel]
#   4 ALPHA_J2000            Right ascension of barycenter (J2000)                      [deg]
#   5 DELTA_J2000            Declination of barycenter (J2000)                          [deg]
#   6 FLUX_APER              Flux vector within fixed circular aperture(s)              [count]
#   9 FLUXERR_APER           RMS error vector for aperture flux(es)                     [count]
#  12 FLUX_RADIUS            Fraction-of-light radii                                    [pixel]
#  13 FWHM_IMAGE             FWHM assuming a gaussian core                              [pixel]
#  14 BACKGROUND             Background at centroid position                            [count]
#  15 THRESHOLD              Detection threshold above background                       [count]
#  16 FLUX_MAX               Peak flux above background                                 [count]
#  17 ISOAREA_IMAGE          Isophotal area above Analysis threshold                    [pixel**2]
#  18 A_IMAGE                Profile RMS along major axis                               [pixel]
#  19 B_IMAGE                Profile RMS along minor axis                               [pixel]
#  20 THETA_IMAGE            Position angle (CCW/x)                                     [deg]
#  21 FLAGS                  Extraction flags                                          
         1     10.0115     27.9671 307.9362755  +6.6320832     742902.3      1772272      1925632     87.13088     174.6802     349.6388      2.267     6.02     1088.526     61.66019     62087.19       381     2.221     1.706 -82.81  28
         2    439.5524     26.0337 307.7577970  +6.6472959     3615.914     6528.604     6888.893     87.40971     174.9585     349.7432      1.909     4.91     1054.369     61.66019     373.1709        31     1.664     1.190 -87.06   0
         3    911.8604     21.4000 307.5616185  +6.6649853     4198.313     5963.184      6658.21     86.85117     174.6802       349.43      1.528     3.42     1042.033     61.66019     585.0363        22     1.375     0.866 -85.40   0
         4    402.9744     18.2866 307.7732629  +6.6492698     1664.448     2741.179     2952.001     87.82627     174.7498     349.6388      1.723     5.93     1058.004     61.66019     182.4807        27     1.701     1.115  84.66   0
         5    150.8732     15.0771 307.8781620  +6.6421395     2867.586     4755.369     5031.019     87.96469     175.2365     349.8475      1.875     4.39     1077.033     61.66019     313.5747        26     1.530     1.019 -73.39   0
         6     32.7845     12.7587 307.9273248  +6.6391284     11106.16     18797.25     19368.06     87.13088     174.7498     349.5692      1.803     4.14     1085.823     61.66019     1282.736        42     1.626     1.167 -84.81   0
         7    299.1933     13.3680 307.8165680  +6.6478225     1136.546     1888.482     1286.867     86.99114     174.8194     349.5692      1.813     5.62     1073.386     61.66019     122.4642        15     1.155     1.038 -74.28   0
         8    559.2700     12.3717 307.7084927  +6.6569433     751.0547     1156.364     999.8284     87.40971     174.9585     349.7432      1.751     6.04     1049.951     61.66019      96.3573         8     1.141     0.898  68.87   0
         9    604.3347     19.9838 307.6895036  +6.6553069     1595.019     2815.931     2537.674     87.13088     174.8194     349.7084      1.866     5.13     1049.149     61.66019     203.9243        22     1.457     1.058 -86.74   0
        10    834.3657      7.1707 307.5943111  +6.6682776     5918.301     8944.747     9222.961     87.13088     174.6802     342.5732      1.633     3.54     1041.995     61.66019     831.3981        25     1.414     0.932  89.73  16
        11    779.5643      7.5742 307.6170787  +6.6662830     3122.669     4853.354     4241.493     87.27041     174.7498      345.438      1.678     4.02     1042.502     61.66019     425.6323        24     1.433     0.999  84.91  16
        12    424.8112      8.0788 307.7645300  +6.6542161     861.0684     1371.411     1634.322      87.2704     174.6105     348.3839      1.898     4.86     1055.506     61.66019     125.5488         9     1.031     0.649  35.80   0
        13    766.1697      6.6179 307.6226790  +6.6662309     598.8683     981.8301     1786.068      87.2704     174.7498     337.9608      2.049     5.02     1042.733     61.66019      79.6853         5     0.994     0.717 -78.33  16
        14    542.1321      6.5078 307.7158143  +6.6587914     915.1738     1458.632      1880.68     87.54878     175.0975     337.0235      1.896     5.72     1050.181     61.66019     114.2886        11     1.166     0.791 -82.76  16
        15     73.0540      4.6407 307.9108613  +6.6438341      2795.81     4817.593       5033.9     87.54878     174.9585     315.6616      1.814     4.61     1080.337     61.66019     359.0671        28     1.471     1.216  85.20  24
        16     57.6584      5.5590 307.9172295  +6.6429374     800.2393     1067.657     424.8762     87.68764     174.9585       327.02      1.511     5.29     1082.416     61.66019     93.47046         9     0.996     0.792 -70.33  16
        17    434.3502      4.1414 307.7606975  +6.6561613     795.6615     1523.631      1496.78     87.68764     173.4921     308.7643      1.943     7.17     1054.649     61.66019     91.70667        11     1.564     0.920  52.91  16
        18    597.0065      1.7659 307.6931631  +6.6625843     971.8453     1085.771     764.9144     81.20438     145.9146     270.8111      1.202     2.64      1048.49     61.66019     176.1584         8     0.801     0.643  37.82  24
        19     15.4658      1.6258 307.9349002  +6.6431427     1218.938     1517.158     1318.988     79.99682     144.0686     268.6007      1.220     2.98     1088.338     61.66019      254.629        10     0.959     0.667  -8.01  24
        20     13.1069    991.4302 307.9023966  +6.2343714     14123.33     19533.29     20153.61     87.82627     174.6802     349.7432      1.464     3.28     1108.477     61.66019     2217.479        35     1.435     0.932 -86.55   0
        21    834.7452   1023.5063 307.5600500  +6.2486179     669.2654     792.1253     1431.927     78.46123     141.7702      266.372      0.881     2.05     1094.679     61.66019     168.4442         5     0.675     0.447 -26.25  24
        22    197.8079   1023.5869 307.8245990  +6.2272926     713.1841     865.2798     978.0078     77.36818     140.2169     264.5847      0.889     2.00     1108.774     61.66019     205.6409         5     0.688     0.444  23.91  24
        23     77.8436    981.7656 307.8758360  +6.2405359     8593.454     12308.95     12273.89     87.40971     174.9585     349.6388      1.470     3.20     1108.581     61.66019     1404.438        33     1.467     0.947 -82.58   0
        24    807.1647    981.2172 307.5729243  +6.2651610     16512.76     21920.56     22863.64      87.2704     174.7498     349.5692      1.357     3.01     1093.164     61.66019     2873.257        32     1.358     0.825 -82.61   0
        25    999.1584    980.8628 307.4931852  +6.2717014     710.5151     849.9105     485.8986     87.68764      174.889     349.8823      1.283     3.08     1086.534     61.66019     148.7688         5     0.781     0.498  46.18   0
        26    590.6069    972.1825 307.6631804  +6.2616650     176333.2     245826.2     255879.3      87.2704     174.6802     349.6388      1.455     3.33     1101.232     61.66019     25536.59        87     1.539     1.033 -82.81   3
        27    592.3707    965.0408 307.6626878  +6.2646729     81428.42     115229.9       119690      87.2704     174.7498     349.6388      1.468     3.41     1101.121     61.66019     11745.58        60     1.447     1.022 -85.44   3
        28    224.6363    975.1061 307.8150916  +6.2482104     4252.142     5932.121     5767.083     87.82627     174.8194     349.9171      1.445     3.27     1109.049     61.66019     614.1666        24     1.352     0.886  89.86   0
        29    408.4367    975.3605 307.7387408  +6.2542618     743.4569     1242.843     1852.418     87.40971     174.8194     349.6736      1.865     3.54     1108.353     61.66019     114.4081         5     1.151     0.314 -69.71   0
        30    766.3314    974.8130 307.5901004  +6.2664440     969.1639     1221.362     1028.025     87.13088     174.8194     349.6736      1.227     2.67     1094.379     61.66019     184.8557         7     0.755     0.611  88.01   0
        31    972.4112    971.4022 307.5046124  +6.2747180     846.2584     1324.145     2012.153     87.27041     174.6105     349.5692      1.860     5.15     1086.854     61.66019     110.4458         7     0.948     0.792  43.18   0
        32    801.5345    969.0753 307.5756701  +6.2699871     8132.703     10965.56     11515.37     87.82627     174.9585     349.7432      1.363     3.53     1092.889     61.66019     1188.951        23     1.333     0.754 -82.72   0
        33    899.4963    965.8923 307.5350850  +6.2745656      1899.48     2454.542     2266.186     87.68764      175.514      349.778      1.303     3.54     1089.475     61.66019     312.4557         9     1.121     0.500  88.94   0
        34    222.2484    964.4598 307.8164426  +6.2525263     2544.877     3356.505     3403.699     87.68764     174.9585     349.8823      1.476     3.41     1109.088     61.66019     384.1681        17     1.218     0.816 -87.70   0
        35    987.1689    964.4661 307.4987145  +6.2780732     584.1936      676.634     1005.375     87.40971     175.0281     349.7432      0.992     3.53     1086.261     61.66019     121.8956         5     0.996     0.362  83.95   0
        36    440.2097    961.7684 307.7260011  +6.2609373     4351.828     6324.349     7288.789     87.13088     174.6802     349.6388      1.541     3.60     1106.992     61.66019     602.0479        26     1.416     0.912 -77.21   0
        37    725.3000    961.4545 307.6075923  +6.2705915     8607.451     11450.31     11978.37     87.40971     174.9585     350.1256      1.420     3.51     1095.233     61.66019     1258.205        25     1.331     0.819 -83.00   0
        38    581.4572    960.6259 307.6673694  +6.2661314      4556.12     6638.466     7502.171     87.27041     174.9585     349.6736      1.575     3.59      1101.49     61.66019     593.7592        24     1.441     0.830 -81.53   0
        39    717.4520    960.6486 307.6108793  +6.2706624     1254.203     1669.166     1635.871     87.82627     174.8194     349.8127      1.488     4.88     1095.462     61.66019     172.1285        10     1.363     0.496 -88.13   0
        40    757.5706    956.6849 307.5943478  +6.2736375     1417.316     1621.367     1527.983     87.68764     174.6802     349.6736      1.257     3.75     1094.019     61.66019     216.3262        10     1.035     0.645  83.82   0
        41    964.8701    951.0001 307.5084281  +6.2828917     8283.584     11114.92     11013.88     87.13088     174.4013     349.5692      1.373     3.05     1086.477     61.66019     1447.627        27     1.324     0.834 -82.51   0
        42    719.2173    951.8417 307.6104417  +6.2743579     1263.714     1711.176     1961.494     87.13088     174.7498     349.5692      1.261     3.25     1095.102     61.66019     206.0892        11     1.112     0.613 -80.46   0
        43    447.9307    950.1570 307.7231848  +6.2659902     1312.098     1786.978     1882.765     87.54878      174.889     349.8823      1.512     4.97     1106.539     61.66019     188.1598        13     1.288     0.677 -85.32   0
        44    249.3149    950.8819 307.8056584  +6.2590401     1510.032     2119.504      2274.85     87.40971     175.3059     349.8823      1.423     3.68     1109.419     61.66019     251.2117        14     1.136     0.826 -83.25   0
        45    724.6982    949.1315 307.6082560  +6.2756599      3107.95      4203.34     4547.913     87.68764     175.0976     349.8127      1.451     3.70     1094.803     61.66019     462.5374        16     1.209     0.753  89.52   0
        46    740.5161    948.3184 307.6017127  +6.2765233     1370.299     1665.001     1951.677     87.40971     175.2365     349.8823      1.235     3.58     1094.239     61.66019     207.9962        10     1.091     0.607 -89.50   0
        47    371.3706    946.5757 307.7551061  +6.2649068     2002.801     2771.299     2995.303     87.13088     174.8194     349.6388      1.497     3.67      1109.26     61.66019     268.0725        18     1.306     0.904 -73.62   0
        48    981.8369    944.3868 307.5016016  +6.2861872     923.5674     1408.177     1512.567     87.13088     174.7498     349.4996      1.664     5.18     1085.772     61.66019     152.3256         9     1.115     0.681 -89.54   0
        49    553.6619    936.6332 307.6797216  +6.2751097     4522.898     6319.761     6749.087     87.40971     175.0281     349.7432      1.516     3.41     1102.453     61.66019     645.6603        23     1.354     0.862 -80.88   0
        50    523.8358    938.0497 307.6920632  +6.2735279     1279.514     1526.159     1411.274     87.54878     174.9585     349.7432      1.300     3.15      1103.57     61.66019     208.7667        10     1.046     0.648  79.63   0
        51    758.1502    936.0892 307.5947981  +6.2821613     9048.398     12287.08     12453.18     87.68764     174.7498     349.9518      1.399     3.20     1093.253     61.66019     1491.241        27     1.364     0.831 -84.11   0
        52    303.7727    935.6103 307.7835536  +6.2671708     16177.32     23520.02     24955.34     87.27041     174.7498     349.6736      1.556     3.31     1109.753     61.66019     2453.898        44     1.544     1.016 -84.25   2
        53    308.3322    932.8489 307.7817528  +6.2684638     1248.984     1382.751     1950.074     87.54878      174.889     349.8127      1.426     3.83      1109.73     61.66019     176.1368        12     1.149     0.787  88.79   3
        54    428.2911    936.1165 307.7318152  +6.2711307     1015.773     1436.099     1820.938     87.40971     175.3059     349.9518      1.560     3.06     1107.217     61.66019      160.146         8     0.876     0.626 -77.25   0
        55    819.2849    935.4601 307.5694243  +6.2844594     1421.513     2095.885     2538.743     87.82627     175.0281     349.9171      1.579     3.74     1091.246     61.66019     245.3528        12     1.177     0.687 -75.41   0
        56    130.3725    935.8814 307.8555681  +6.2612450     446.6852     742.3947     354.6353     87.54878     174.7498     349.7432      1.336     3.87     1109.052     61.66019     98.90332         5     0.888     0.483  88.34   0
        57    275.3868    932.8674 307.7954366  +6.2673523     981.7598     1486.145     1642.338     87.13088     174.7498     349.7084      1.683     5.46     1109.619     61.66019     154.0322        10     1.321     0.637 -77.37   0
        58    919.4675    929.6140 307.5280047  +6.2902111     10912.86     14444.77     15094.75     87.13088     174.8194     349.7432      1.364     3.43     1087.418     61.66019     1668.658        28     1.369     0.783 -81.42   0
        59    550.8549    928.9447 307.6811461  +6.2781906     9236.433     12978.91     13739.13     87.96469     174.9585     349.8127      1.475     3.38     1102.571     61.66019     1394.565        30     1.417     0.890 -87.12   0
        60    380.2940    929.0818 307.7519889  +6.2724291     1326.964     1085.343      725.032     87.40971     175.2365     349.9171      0.740     1.33     1108.811     61.66019     582.3158         6     0.671     0.413  44.24   0
        61    893.1100    925.7306 307.5390837  +6.2909369     14694.34     19653.43     19952.72     87.82627      175.167     349.8127      1.401     3.01      1088.09     61.66019     2640.115        35     1.333     1.035 -81.72   0
        62   1014.8391    925.1821 307.4885354  +6.2952155     6049.347     7884.439     7802.556      87.2704     174.7498     349.5692      1.305     3.11     1084.026     61.66019     1050.651        19     1.234     0.728 -86.64   0
        63    605.9164    926.4405 307.6583586  +6.2810644      1498.98     1858.834     1762.532     87.68764      174.889      349.778      1.350     3.18     1100.025     61.66019     259.5858        13     1.045     0.804  52.81   0
        64    537.2220    924.7534 307.6869500  +6.2794657      4541.82     6531.836     7444.365     87.27041     174.9585     349.6388      1.508     3.34     1102.979     61.66019     679.1355        22     1.298     0.871 -81.42   0
        65    646.8458    924.2626 307.6414301  +6.2833305     1620.688     2044.838     1760.084     87.54878      174.889     349.8823      1.376     3.36     1097.548     61.66019     235.3047        12     1.098     0.684 -80.19   0
        66     72.2746    923.6945 307.8801109  +6.2643269      923.827     1436.984     1739.483     87.40971      175.167     349.8127      1.731     3.30     1109.438     61.66019     175.2316         7     0.955     0.626  82.52   0
        67    802.3826    922.4739 307.5768810  +6.2892584     733.1314     921.4733     1049.664     87.13088     174.7498     349.7084      1.263     2.89     1091.397     61.66019     157.1216         7     1.067     0.480 -85.34   0
        68    490.4724    921.1749 307.7064893  +6.2793803     2262.907      3444.24     3654.164     87.27041     174.8194     349.7084      1.550     3.81     1104.507     61.66019     312.6862        20     1.364     0.975  86.90   0
        69    924.8602    913.2847 307.5263116  +6.2971335     52787.49     69977.52     72158.05     87.82627     175.0281     349.9171      1.385     3.20      1086.64     61.66019      8722.09        49     1.396     0.912 -84.47   0
        70    232.1421    911.6810 307.8141136  +6.2746510     1889.144     2704.032     2675.754     87.68764     174.9585     349.8475      1.461     3.75     1109.443     61.66019     265.1219        14     1.195     0.793 -83.31   0
        71    630.7299    910.0418 307.6486023  +6.2886645     897.0898     1156.405     904.3657     87.54878     174.9585     349.8823      1.685     3.20     1098.087     61.66019     202.1241         8     1.177     0.438 -86.25   0
        72    120.3620    910.7042 307.8605762  +6.2713049     796.3503     1184.795     916.4785     87.68764     174.8194     349.9518      1.517     4.98     1109.198     61.66019     124.6221         6     0.979     0.717  85.39   0
        73    770.9584    905.2205 307.5905135  +6.2953350     7466.683      10655.7     11216.19      87.2704     174.7498     349.6388      1.486     3.51     1091.355     61.66019     1302.884        32     1.709     0.850 -81.87   0
        74    822.8129    907.0435 307.5689118  +6.2963111     2714.623     3849.201     3962.377     87.13088     174.8194     349.5344      1.474     3.50     1089.757     61.66019     446.1512        15     1.262     0.697 -87.50   0
        75    240.4619    904.1422 307.8109121  +6.2780428     1676.267     2637.536     1791.997     87.82627      174.889     349.8475      1.586     3.87      1109.54     61.66019     238.4048        14     1.170     0.834 -83.76   0
        76    557.5310    904.5096 307.6791946  +6.2885036     958.5419     1283.245     1477.114     87.68764     175.0976     349.8127      1.558     3.82     1101.479     61.66019     125.8746         8     1.035     0.499  88.79   0
        77    205.1155    903.5522 307.8256139  +6.2771013     902.8435     1603.823     2178.007     87.68764     174.9585     349.8475      2.260     5.70     1109.387     61.66019     120.2814        11     1.260     0.726 -84.22   0
        78     65.4715    902.0995 307.8836663  +6.2730151     3043.668     4320.747     4498.212     87.40971     175.0976     349.8475      1.504     3.51     1109.598     61.66019     397.1481        21     1.404     0.849 -87.28   0
        79    959.1930    900.0532 307.5124927  +6.3037403     8149.657     10625.83      11219.2     87.13088     174.7498     349.4648      1.348     3.16     1084.976     61.66019      1419.05        22     1.313     0.734 -84.56   0
        80    215.6466    896.1256 307.8214901  +6.2805209     732.1423     1097.089     1407.373     87.54878     175.0281     349.8127      1.671     4.41     1109.516     61.66019     128.1069         7     1.252     0.441 -80.98   0
        81    641.2352    894.2549 307.6447689  +6.2955341     934.4053     1211.759      795.294     87.54878     174.9585     349.8475      1.451     4.45     1096.937     61.66019     153.9956         8     1.066     0.572  79.97   0
        82    932.9291    891.8006 307.5236794  +6.3062737     2487.422     3313.495     3261.856     86.99113     174.4013      349.604      1.355     3.01     1085.683     61.66019     409.2717        15     1.225     0.696  89.06   0
        83    792.4370    888.4973 307.5821523  +6.3029567     1302.851     1910.279     2556.503     87.68764     174.8194     349.9866      1.490     4.24     1090.073     61.66019     231.5837        11     1.327     0.539 -78.83   0
        84    265.8855    887.9051 307.8008994  +6.2855995       4751.4     7014.031     7750.732     87.68764     175.3753     349.8823      1.549     3.40     1109.682     61.66019     664.2849        27     1.388     0.973 -76.00   0
        85    653.6429    887.7026 307.6398348  +6.2986540     5211.408     7014.759     6727.985     87.68764      174.889     350.0561      1.462     3.45     1095.863     61.66019     733.3003        22     1.314     0.855 -86.85   0
        86   1003.0294    887.9845 307.4946865  +6.3101827     937.0688      1373.19     1110.771     87.27041     174.6802     349.7432      1.439     2.43     1082.786     61.66019     167.7432         7     0.811     0.546 -45.57   0
        87    475.9301    886.2036 307.7137069  +6.2933344      1196.92     1794.577     2265.935     86.99113     174.5408     349.6388      1.874     3.51     1104.357     61.66019     163.5706        12     1.084     0.720 -77.61   0
        88     34.6324    885.3780 307.8970408  +6.2788838     2409.829     3467.848      3886.82     87.13088     174.7498      349.604      1.512     3.28      1109.89     61.66019     356.7085        19     1.251     0.853 -89.41   0
        89    885.5035    884.2825 307.5436327  +6.3077987      1116.48     1520.333     1590.121     87.54878     175.3753     349.9171      1.345     4.57     1086.175     61.66019     171.2977         9     1.204     0.493 -85.75   0
        90    977.4633    881.8958 307.5055110  +6.3118461     770.7827     980.8287     462.2631     87.54878     175.0975     349.8475      1.330     4.21     1083.569     61.66019     133.2896         6     1.014     0.498 -89.06   0
        91    957.0211    881.4624 307.5140176  +6.3113447     966.0621     1248.634     1776.493      87.2704     174.9585     349.6736      1.387     2.64     1084.339     61.66019     204.0277         8     0.982     0.600 -77.09   0
        92    302.0920    881.3621 307.7860804  +6.2895144     840.1476     1390.783     1418.052     87.82627      174.889     349.8823      1.753     4.59      1109.49     61.66019     145.2018         9     1.167     0.675  84.64   0
        93   1009.6010    879.5154 307.4922401  +6.3138985     1082.766     1662.913     1537.529     86.85117     174.4711     349.4996      1.614     5.30     1082.146     61.66019     187.2008        12     1.688     0.470 -85.08   0
        94    578.1860    880.1395 307.6714340  +6.2992567     1832.522     2580.407     2734.603     87.13088     174.8194     349.5344      1.443     4.19     1099.896     61.66019     259.1208        17     1.359     0.911  79.62   0
        95     67.7120    877.2719 307.8835746  +6.2833419     841.2525     1214.044     1646.113     87.82627     175.2365     349.8127      1.572     5.21     1109.663     61.66019     109.0609         8     0.969     0.792 -88.42   0
        96    617.6180    876.4739 307.6551770  +6.3020876     1389.869     1936.708     1910.321     87.13088      174.889     349.7084      1.568     3.55     1097.964     61.66019     216.2734        13     1.044     0.809 -59.93   0
        97    297.6051    874.2935 307.7881825  +6.2922828     1407.006     1907.676     2135.738     87.27041     174.6105     349.5344      1.508     3.52     1109.533     61.66019     216.4873        11     1.084     0.696  85.54   0
        98    565.3945    872.9063 307.6769908  +6.3018161       765.36     997.4382     1002.084      87.2704     174.6105     349.5692      1.477     4.45     1100.177     61.66019     128.7239         6     0.839     0.671  56.56   0
        99    764.3470    870.5748 307.5944225  +6.3094207      946.536      1026.01     728.3953     87.13088     175.0281     349.7084      1.233     3.78     1089.658     61.66019     160.1993         9     1.023     0.611 -84.88   0
       100    901.8613    866.9210 307.5374192  +6.3155127     8219.763      11127.1     11826.58     87.82627     175.0281     349.8127      1.414     3.24     1085.198     61.66019     1333.937        27     1.330     0.840 -84.50   0
       101    437.7512    864.0167 307.7303131  +6.3012186     2196.625     2942.244     2686.493     87.13088     175.0281     349.5692      1.454     3.40     1105.213     61.66019     302.5775        18     1.225     0.877  84.19   0
       102    339.5027    862.6161 307.7711723  +6.2985081     9905.491     14738.18     16090.12     87.68764     174.6802     349.6388      1.631     3.46     1108.598     61.66019     1300.906        32     1.470     0.989 -84.17   0
       103    259.5689    861.5420 307.8044123  +6.2962734     7509.397     11014.46     10752.94     87.54878     174.9585     349.7432      1.605     3.40     1109.757     61.66019     1066.384        29     1.435     0.976 -88.53   0
       104    178.6131    860.1384 307.8380875  +6.2941385     508.3128      572.418     792.0987     87.13088     174.7498     349.4996      1.223     3.47     1109.416     61.66019     89.29749         5     0.779     0.447 -72.42   0
       105    771.8422    855.5330 307.5918137  +6.3158818      840.239      1323.45     1480.743     87.68764      174.889     349.8823      1.549     5.48     1088.909     61.66019     142.8446        11     1.362     0.622 -78.05   0
       106    587.6265    855.9387 307.6683260  +6.3095652     1333.795     1763.209     1344.241      87.2704     174.9585     349.7432      1.322     3.63     1098.553     61.66019      198.589        13     1.219     0.707 -60.01   0
       107    917.7584    852.0684 307.5313129  +6.3221752     1111.527     1512.309      2073.56     87.54878      174.889     349.9171      1.375     4.11     1084.287     61.66019     181.1179         9     1.073     0.585  89.65   0
       108    873.8740    851.0293 307.5495785  +6.3211425     810.6291     1147.895     1301.665     87.54878     174.9585      349.778      1.504     3.83     1085.028     61.66019      124.814         6     1.267     0.332  89.86   0
       109    985.0823    847.4047 307.5035009  +6.3263422     868.5063     1098.758     713.2592     87.13088     174.5408     349.4996      1.233     3.61      1081.33     61.66019     161.8069         7     0.913     0.530  83.70   0
       110    754.0345    845.1425 307.5995601  +6.3195784     1861.978      2474.63     3063.956     87.54878     174.9585     349.8127      1.447     3.76     1088.979     61.66019     308.3802        15     1.351     0.669 -69.92   0
       111    578.0868    845.7950 307.6726299  +6.3134351     669.5626     1220.593     1199.825     87.13088     174.6105     349.4996      1.708     4.28     1098.432     61.66019     108.2981         5     1.058     0.493  66.44   0
       112      4.9398    842.6699 307.9108180  +6.2955207      1125.41     1331.167     884.1448     87.82627     174.9585     319.4164      1.349     4.17     1109.916     61.66019     151.3972        10     0.944     0.731 -87.88  16
       113    985.2766    840.9059 307.5036378  +6.3290322     1593.237     1898.674     2356.608     87.40971      175.167     349.8127      1.316     3.75     1080.928     61.66019     255.6687        12     1.209     0.610  88.13   0
       114    629.8170    841.1793 307.6512956  +6.3170690     631.9836     1085.693     1108.824     87.40971     174.7498     349.7084      1.615     4.01     1095.182     61.66019     118.9366         5     1.327     0.347  82.38   0
       115    618.0721    841.9792 307.6561477  +6.3163465     756.1926     1065.407     922.3029     87.27041     174.8194      349.778      1.468     2.94     1096.089     61.66019     124.3917         5     0.642     0.572  88.99   0
       116    539.0846    840.8607 307.6889979  +6.3141691     1304.337     1905.082     1888.853     87.82627     175.0281     349.8823      1.619     5.91     1100.089     61.66019      162.853        13     1.235     0.795 -71.71   0
       117    672.6345    838.5460 307.6335969  +6.3195861     2708.301     4027.076     4365.641     87.54878     174.9585     349.8127      1.543     4.01      1092.05     61.66019     362.1632        21     1.439     0.860 -65.95   0
       118   1023.6841    837.4475 307.4877978  +6.3317382      535.066     879.9156     1042.986     75.93972     138.8217     262.8778      1.664     3.91     1078.944     61.66019     98.88977         6     0.944     0.465 -89.13  24
       119    962.4093    836.3989 307.5132886  +6.3301322     766.9919      1140.68     916.4734     86.99114     174.6105     349.5692      1.745     4.35     1081.605     61.66019     179.8966         9     1.263     0.745  81.57   0
       120     69.1764    834.7357 307.8844036  +6.3009545     3103.288     5090.186     5179.324      87.2704     174.9585     349.7084      1.724     4.01     1109.575     61.66019     393.7572        24     1.524     0.916 -86.70   0
       121    833.4341    834.7526 307.5669241  +6.3265161     1007.062     1284.407     605.8831     87.40971     174.9585     349.7432      1.342     4.56     1086.118     61.66019      144.988         9     1.232     0.480 -83.71   0
       122    212.7527    833.7695 307.8247963  +6.3061715     2159.077     3097.357     3399.182     87.27041     174.9585     349.7084      1.568     4.07     1109.571     61.66019     290.1625        20     1.468     0.820 -89.56   0
       123     86.8413    834.1511 307.8770857  +6.3017891     2027.992     2925.885     2653.999     87.68764      174.889     349.7432      1.537     3.75      1109.49     61.66019     295.3386        20     1.320     0.940 -83.72   0
       124    950.5820    833.8243 307.5182883  +6.3308016     975.1624      1291.86       1424.9     87.27041     174.8194     349.7432      1.371     4.66     1081.957     61.66019     147.7382         9     1.265     0.488  86.48   0
       125    570.2156    834.3249 307.6762854  +6.3179083     542.4875     784.5959     1250.199     87.13088     174.6802     349.6736      1.913     4.46      1098.21     61.66019     111.1444         5     1.178     0.481 -32.24   0
       126    351.6500    829.9025 307.7672288  +6.3124229     889.7947     1490.575     1807.618     87.54878      174.889     349.9866      2.376     6.16     1108.204     61.66019     114.1771        12     1.516     0.704 -81.98   1
       127    246.8665    830.7872 307.8107262  +6.3085467     820.7216     1269.274     831.9253     87.13088     174.7498     349.7084      1.699     3.26     1109.538     61.66019     140.0137         5     0.773     0.514 -58.04   0
       128    667.1964    827.5951 307.6362238  +6.3239264     7625.759     10842.29     11384.98     86.99114     174.5408     349.6388      1.516     3.50     1091.771     61.66019     1062.278        27     1.409     0.935 -83.02   0
       129    804.8591    828.7914 307.5789949  +6.3280251     801.2108     1003.281     636.8011     86.99113     174.8194     349.4996      1.320     3.54     1086.764     61.66019     147.6848         7     1.050     0.593  78.72   0
       130     27.3550    826.0934 307.9020677  +6.3031183     1186.379     1491.661     1264.828     87.54878      174.889     349.9518      1.564     5.38     1109.711     61.66019     167.6257        12     1.457     0.675 -83.64   0
       131     40.5361    824.4666 307.8966474  +6.3042328     1103.383     1705.375     1464.901     87.68764     174.9585     349.8475      1.649     5.29     1109.642     61.66019     163.0669        11     1.288     0.674 -77.83   0
       132    904.8450    823.7457 307.5376267  +6.3334404     3211.769     4162.352     4322.734     87.68764     174.9585     349.8475      1.355     3.28     1083.262     61.66019      514.126        16     1.281     0.682 -89.02   0
       133    350.2540    820.8031 307.7681153  +6.3161334     16250.03     25071.14      26921.4     86.99114     174.6802     349.3951      1.639     3.61     1108.203     61.66019     2062.429        42     1.511     1.098 -87.31   0
       134     84.9713    821.8824 307.8782770  +6.3067921     1460.828     2070.706     1865.472     87.54878     174.7498     349.7432      1.456     4.26     1109.455     61.66019     209.0712        15     1.361     0.721  79.38   0
       135    221.1431    820.6463 307.8217537  +6.3118716     1264.451      1991.43     2138.213     87.68764     174.9585     349.9171      1.752     4.20     1109.518     61.66019     168.0327        12     1.013     0.931 -28.12   0
       136    401.1209    820.0100 307.7470114  +6.3181639      659.407     1028.208     927.0832     87.27041     174.6105     349.6388      1.519     4.01     1105.971     61.66019     88.85315         6     0.957     0.482  54.62   0
       137    428.1151    811.4952 307.7360845  +6.3225833     1070.275     1664.314     2114.326     87.68764     175.3753     349.9171      1.750     5.01     1104.613     61.66019     156.3271        12     1.269     0.731 -74.35   0
       138    113.6636    811.7111 307.8667021  +6.3119552     1734.419     2705.395     3201.448     87.54878     175.0976     349.8475      1.733     3.80     1109.361     61.66019     250.1882        19     1.272     1.010 -65.86   0
       139    679.4785    811.4681 307.6316633  +6.3309957     726.8195     1567.187     1632.011     87.82628     175.0976     349.8127      2.061     6.75     1090.171     61.66019     95.17944        10     1.294     0.988 -70.50   2
       140    681.5765    807.6055 307.6309215  +6.3326607     991.0994     1286.448     1353.774     87.13088     174.6802     349.6388      1.413     3.53     1089.943     61.66019     174.4309         9     1.047     0.674  66.31   2
       141    895.2523    805.5596 307.5422215  +6.3406305     2469.444     3137.851     3563.396     87.54878     175.0281     349.8127      1.363     3.20     1083.023     61.66019     403.1073        13     1.120     0.686 -80.37   0
       142     97.1472    805.0458 307.8737880  +6.3141529     2540.628     3736.902      4362.54     87.68764     174.9585     349.8823      1.565     3.88     1109.352     61.66019     321.1436        20     1.360     0.898  89.55   0
       143    866.0045    805.0192 307.5543903  +6.3398793     2380.213     3214.033     3205.403     87.27041     174.5408      349.604      1.394     3.41     1084.645     61.66019     379.4092        15     1.196     0.747 -80.31   0
       144    829.4504    804.4429 307.5695956  +6.3388991     3668.423     4911.901     5043.122     87.82628     174.9585     349.8475      1.441     3.39     1085.149     61.66019     546.2668        20     1.230     0.865 -81.84   0
       145    565.2844    795.9695 307.6796238  +6.3335814     340389.9     511827.3     531293.9     87.68764     174.7498     349.6736      1.610     3.48     1096.675     61.66019     43370.64       134     1.621     1.205 -82.01   0
       146    459.8951    802.8930 307.7231721  +6.3271987     679.9308     1022.518     1518.423     87.68764     175.5833     349.7432      1.696     5.15     1102.976     61.66019     108.5966         7     1.003     0.746  31.54   0
       147    409.5243    798.6100 307.7442414  +6.3272817     7613.837     11617.35     12001.77     87.27041     174.4711      349.604      1.671     3.63     1105.201     61.66019      957.896        32     1.473     1.036 -80.01   0
       148    653.1417    798.7850 307.6430305  +6.3353536     1369.473     1761.893     1579.302     86.99113      174.889     349.5344      1.454     3.63     1090.955     61.66019      231.999        12     1.130     0.710 -79.96   0
       149    352.7433    797.0143 307.7678829  +6.3260396      12179.9     19107.99     20155.64     86.99114     174.8194     349.4648      1.670     3.58     1107.871     61.66019     1549.179        38     1.508     1.111 -83.28   0
       150    256.6332    795.1119 307.8078725  +6.3236049     554.4231     1374.508     3227.165     87.82627      174.889     349.8127      4.710     6.72     1109.215     61.66019     109.5103         6     1.320     0.958 -75.79   0
       151    671.0928    793.1776 307.6357614  +6.3382684     3843.863     5493.968     5896.317     87.68764     174.7498     349.6388      1.525     3.47      1089.76     61.66019     521.3159        23     1.319     0.906 -78.44   0
       152    903.6210    792.1877 307.5391929  +6.3464310     6220.693     8377.524     8207.163     87.40971     174.6105     349.7084      1.414     3.49     1081.818     61.66019     929.9109        23     1.251     0.845 -86.71   0
       153    898.5838    792.3099 307.5412815  +6.3462127     524.1395     742.7202     708.1499     87.40971     174.6802     349.6388      1.190     4.17     1082.107     61.66019     106.6576         5     1.023     0.486 -84.58   0
       154    742.7759    789.4987 307.6061051  +6.3421798     752.4752     999.1607     576.9027     87.82627     174.6802      349.604      1.561     5.27     1088.017     61.66019     109.2013         7     1.125     0.698 -58.89   0
       155    645.9430    787.2280 307.6464094  +6.3398854     3510.944     4979.834     5023.213      87.2704     175.0281     349.7084      1.476     3.91     1091.191     61.66019     480.8182        22     1.351     0.899 -81.05   0
       156    834.3071    786.5086 307.5681795  +6.3464666     1745.908     2545.583     2366.933     87.68764      175.514     349.8127      1.549     3.94     1084.239     61.66019     252.5404        14     1.245     0.715 -75.76   0
       157    636.4120    785.9166 307.6504130  +6.3401087     950.0524     1541.476     1559.964      87.2704     174.7498     349.6388      1.889     5.66     1091.751     61.66019     132.5997        10     1.314     0.687  79.23   3
       158    638.9667    781.7410 307.6494920  +6.3419181     2288.849     3511.867      4573.43     87.54878     175.0281      349.778      1.889     4.13     1091.489     61.66019     305.7512        18     1.348     0.864 -89.29   2
       159    961.2740    784.9752 307.5154827  +6.3513290     834.6998     1199.278     1506.917      87.2704     174.7498     349.7432      1.365     3.64     1078.907     61.66019     147.2303         7     0.857     0.571  70.81   0
       160    922.4291    779.9035 307.5317908  +6.3521299     3768.019     5149.944     5456.583     87.82627     174.6802     349.8127      1.398     3.58     1080.209     61.66019     556.7581        22     1.338     0.794 -84.69   0
       161    332.8511    780.6179 307.7766991  +6.3321437     962.3995     1366.614     1157.334     87.13088     175.0281     349.5344      1.527     4.71     1107.691     61.66019     135.9784         8     0.900     0.699  59.09   0
       162    380.6226    775.9653 307.7570106  +6.3356646     2726.068     4151.813     4188.656     87.13088     174.6802     349.5692      1.599     4.10     1105.505     61.66019     351.4757        24     1.496     0.971 -84.92   0
       163    516.7716    765.7783 307.7007931  +6.3444263     2911.975      4580.75     4701.636     86.99113     174.7498     349.7084      1.647     3.66     1098.032     61.66019     384.5197        22     1.330     0.969 -87.60   0
       164    861.6153    764.9927 307.5575559  +6.3562612     1247.231     1717.177     2065.473      87.2704     174.6802     349.6388      1.633     4.52      1082.37     61.66019      174.822        10     1.111     0.611 -72.55   0
       165    563.6393    761.7760 307.6814572  +6.3476457     5940.777     9167.238     10128.48     87.27041     174.6802     349.5692      1.645     3.76     1095.026     61.66019     731.1725        32     1.465     1.128 -79.32   0
       166    581.9558    763.3417 307.6737951  +6.3476112     747.2491     1274.849     1748.576     87.54878      174.889     349.9171      1.543     4.15     1094.019     61.66019     119.3964         6     0.841     0.642  41.26   0
       167    275.3045    761.9556 307.8012345  +6.3379215     685.3663     1168.942     1345.086     87.68764      174.889     349.9518      1.607     5.05     1108.938     61.66019     117.8992         6     1.028     0.701  72.50   0
       168    481.6158    760.8596 307.7155637  +6.3452817     1454.148     2175.561      2082.12     87.13088      174.889     349.5344      1.560     3.95     1099.871     61.66019     199.6285        17     1.198     0.961  73.81   0
       169    899.2611    759.8205 307.5420892  +6.3596512     1680.437     2261.135      2085.95      87.2704     174.9585     349.7432      1.327     3.79     1080.352     61.66019      273.275        11     1.154     0.595 -77.33   0
       170    570.6133    760.9645 307.6785872  +6.3482138     1152.823     1572.851      1567.45     87.13088     174.7498      349.604      1.469     4.08     1094.568     61.66019     156.5426        10     1.005     0.789 -64.97   0
       171    123.2300    759.8972 307.8644783  +6.3336707     1514.567     1991.483     1754.928     87.82627     174.6802     349.8475      1.447     3.49     1108.905     61.66019     233.2247        13     1.056     0.838  82.94   0
       172    699.4799    758.3987 307.6251365  +6.3535771     862.8475     1068.552     751.9769     86.85117     174.3316     349.5692      1.414     3.56     1088.485     61.66019     151.3237         9     0.928     0.771 -74.32   0
       173    534.3889    755.6794 307.6938140  +6.3491854     19833.18     30384.62     31273.04     87.27041     174.6105     349.6388      1.678     3.59     1096.469     61.66019     2435.246        47     1.580     1.094 -83.68   0
       174    947.9509    753.7943 307.5220625  +6.3637610     4437.789     5731.522     6285.527     87.13088     174.7498       349.43      1.381     3.18     1078.313     61.66019     701.6583        17     1.280     0.708 -83.64   0
       175     45.0334    746.4626 307.8974161  +6.3365922     1569.831     2362.394      2152.11     87.54878     175.0281     349.7432      1.627     4.27     1108.921     61.66019     202.1582        16     1.303     0.818  82.39   0
       176    327.0398    744.4183 307.7803336  +6.3468964     3106.765     4643.445     4633.295      87.2704     174.7498     349.5692      1.621     4.06     1106.707     61.66019     363.3845        21     1.381     0.952 -74.54   0
       177    792.5312    740.2062 307.5870887  +6.3641935      58672.7     84363.44     87182.59     87.13088     174.5408     349.6388      1.522     3.29      1083.27     61.66019     7997.566        58     1.483     1.048 -82.98   0
       178     26.9916    742.5580 307.9050428  +6.3375983      2280.04      3379.58     3784.246     86.99113     174.7498     349.5344      1.565     4.46      1108.96     61.66019     304.4244        18     1.424     0.828  75.18   0
       179    467.1878    742.1002 307.7221891  +6.3525452     450.8737     380.3965      312.608     87.40971     174.6802     349.5692      1.418     4.88     1099.677     61.66019     83.61938         5     0.958     0.705 -60.14   0
       180    249.3027    716.7159 307.8135625  +6.3557299     761599.1      1847906      2021313     87.68764     175.3753     349.8823      2.335     7.70     1107.642     61.66019     62657.05       551     2.792     1.865 -88.50   4
       181    436.2416    739.0915 307.7351467  +6.3527522      868.833     1306.563     1271.268     87.68764     174.9585     349.9171      1.638     5.18     1101.081     61.66019     141.0658         9     0.914     0.830   9.85   0
       182    720.7858    734.8326 307.6170763  +6.3640192     21997.66     32818.32     33995.64      87.2704     174.6802     349.7084      1.595     3.54     1086.833     61.66019     2844.808        47     1.520     1.080 -83.57   3
       183    714.4614    731.3260 307.6198216  +6.3652561     91490.78       133477     138080.6     87.96469     174.9585     349.8127      1.601     3.39     1087.068     61.66019     11895.22        73     1.571     1.104 -81.41   2
       184    917.7568    735.4366 307.5352222  +6.3703361     9664.631      12918.4     13518.85     87.40971      174.889     349.6388      1.408     3.31     1078.266     61.66019     1422.028        23     1.326     0.792 -84.83   0
       185    359.3863    732.2361 307.7673063  +6.3530101     19448.55     31495.34     33205.36     87.13088     174.7498     349.5692      1.746     3.74     1104.394     61.66019     2416.419        46     1.613     1.152 -82.61   0
       186    421.2765    730.0706 307.7416677  +6.3559762     21228.89     33683.68     35038.57     87.96469     175.2365     349.8127      1.694     3.79     1101.382     61.66019     2534.522        47     1.569     1.159 -85.19   0
       187    408.7303    732.3507 307.7468031  +6.3546148     1364.968     1974.243     1587.597     87.68764      174.889     349.8475      1.591     5.06      1102.06     61.66019     165.2371        13     1.153     0.815 -89.33   0
       188    958.3359    728.9252 307.5185811  +6.3743760     2436.068     3378.955     3911.932     87.82627     174.9585      349.778      1.443     3.40     1077.294     61.66019     388.5511        15     1.161     0.773 -83.30   0
       189    914.6323    726.8861 307.5368069  +6.3737628     7559.811     10414.82     11639.01     87.68764     174.7498     349.8127      1.429     3.13     1078.144     61.66019     1096.122        26     1.352     0.838 -85.57   0
       190    655.2719    726.0114 307.6445909  +6.3654748     6300.538     9493.189     9650.373     87.13088     174.5408      349.604      1.572     3.54     1089.712     61.66019     801.0238        31     1.443     1.007 -80.94   0
       191    887.4422    727.0510 307.5480980  +6.3727890     760.8704     900.1149     1226.258     87.68764     174.9585     349.8127      1.229     3.07     1079.212     61.66019     132.9602         6     0.784     0.496 -88.31   0
       192    443.8894    723.7557 307.7324859  +6.3593405     1629.165     2375.059     2140.922     87.68764     174.8194     349.8475      1.557     4.04      1099.88     61.66019     192.4108        14     1.133     0.867 -80.18   0
       193    169.3483    723.3142 307.8465553  +6.3503239      792.967     999.1815     1030.552     87.68764      174.889     349.9171      1.586     5.04     1108.337     61.66019      96.8396         6     0.968     0.743  79.94   0
       194    882.7808    718.1879 307.5503318  +6.3762935     881.4588     1393.715     1600.769     87.40971     174.6802     349.7084      1.629     3.67     1079.032     61.66019     142.4266         8     0.927     0.618  87.02   0
       195    608.5045    717.7765 307.6642975  +6.3673132     966.9656      1378.94     1789.403     87.82627     174.6802     349.6736      1.555     4.66     1091.015     61.66019     160.1074        10     1.134     0.714 -47.73   0
       196    159.9443    717.3024 307.8506650  +6.3524907     983.4116     1603.354     1653.392     87.54878     174.9585     350.0561      1.702     4.23     1108.201     61.66019     161.5215         9     1.128     0.655 -47.78   0
       197    690.5858    716.0351 307.6302546  +6.3707733     2344.084     3420.428     3421.186      87.2704     174.6802     349.6388      1.560     3.78     1087.842     61.66019     303.0433        19     1.340     0.873 -87.30   0
       198    424.2221    712.7512 307.7410272  +6.3632263     50170.87     80848.02     84377.95     87.27041     175.0281     349.7084      1.718     3.75     1100.358     61.66019     6076.406        67     1.627     1.216 -80.85   0
       199    135.1617    716.4469 307.8609893  +6.3520122     819.1419     1292.379     1253.216     87.54878      174.889     349.6388      1.457     3.59     1108.146     61.66019     149.8324         7     0.987     0.532  74.01   0
       200    967.0859    714.6541 307.5154238  +6.3805603     823.0875     1289.531     1466.739     87.68764      174.889     349.9866      1.752     3.63     1076.479     61.66019     144.9972         8     1.049     0.700 -70.87   0
       201    915.1320    713.8407 307.5370365  +6.3791663     407.8951     486.7568     668.5744     87.54878      174.889     349.9171      1.329     5.09      1077.75     61.66019     86.67871         5     1.136     0.706 -79.77   0
       202    541.9240    711.8076 307.6921595  +6.3675529     6672.077     10407.91     10975.76      87.2704     174.4013      349.604      1.622     3.73     1094.422     61.66019     858.9026        29     1.457     1.031 -77.40   0
       203    458.7786    710.4069 307.7267497  +6.3653507     4345.566     7125.002     7904.371     87.27041     174.7498      349.604      1.765     4.05     1098.311     61.66019     517.0048        27     1.519     1.017 -79.84   0
       204    787.0869    708.3337 307.5904203  +6.3771730     12013.29     17405.16     17945.96     87.68764      175.167     349.8475      1.546     3.47      1082.35     61.66019     1631.646        32     1.452     0.953 -81.40   0
       205     16.5911    704.7458 307.9106420  +6.3528617     1336.808     2049.863     2313.858     86.99114      174.889     349.4996      1.680     5.43     1108.503     61.66019      177.749        16     1.229     0.997 -82.53   0
       206    455.4656    703.7744 307.7283494  +6.3679786     2202.911     3706.308     3908.735     87.27041      174.889     349.6736      1.846     4.28     1098.193     61.66019     263.1052        20     1.380     0.935 -75.70   0
       207    808.6183    702.5942 307.5816672  +6.3802610     1272.088     1971.686     1970.567     87.27041     174.5408     349.6388      1.569     4.46     1081.135     61.66019     203.5104        12     1.422     0.581 -80.99   0
       208    144.9481    700.4698 307.8574634  +6.3589377     11038.32     18044.89     19875.75     87.54878     174.8194      349.778      1.778     3.83     1107.745     61.66019     1260.877        46     1.599     1.215 -82.95   0
       209    152.8563    700.7901 307.8541672  +6.3590709     2790.055     4696.881     5193.144     86.99113      174.889     349.4648      1.848     4.14     1107.777     61.66019     370.0045        24     1.481     1.030 -72.61   0
       210    137.1791    697.6549 307.8607859  +6.3598393     2820.718     4805.114     5172.902     87.13088     174.9585      349.604      1.779     4.07     1107.688     61.66019     380.7323        27     1.531     1.022 -86.20   3
       211    137.2978    691.3983 307.8609480  +6.3624267     1928.961      2983.52     3553.875     87.13088     174.6802     349.4648      1.665     4.53      1107.51     61.66019      256.111        17     1.362     0.842 -74.75   3
       212    932.6380    696.9171 307.5303304  +6.3867376     7425.558      10040.8     10295.14     87.68764      174.889      349.778      1.392     3.09     1076.661     61.66019     1037.786        25     1.369     0.817 -86.15   0
       213    981.7762    696.9238 307.5099143  +6.3883707      1864.16     2555.176     2781.528      87.2704      174.889      349.778      1.377     3.57       1075.1     61.66019      283.312        13     1.151     0.696 -84.91   0
       214    688.2216    694.7300 307.6319525  +6.3794918     1825.337      2603.23     2334.911     87.27041      174.889     349.7432      1.518     3.32     1087.372     61.66019     281.8191        15     1.096     0.871 -85.13   0
       215    422.9495    693.2629 307.7422124  +6.3712308     1153.953      2110.01     2689.613     87.68764      174.889     349.8823      1.948     5.86     1099.391     61.66019     141.1132        12     1.010     0.956 -80.15   0
       216    574.9960    693.7745 307.6790260  +6.3761046     2304.385     3569.647     3447.027     87.13088     174.6802     349.6388      1.625     4.16     1092.324     61.66019     254.1193        22     1.400     0.961  88.50   0
       217    956.2682    688.4587 307.5207960  +6.3910171     3593.426     4850.535     3150.243     87.82627      174.889     349.8127      1.406     3.09     1075.537     61.66019     600.9625        18     1.188     0.780 -87.51   0
       218    926.8866    688.8937 307.5329889  +6.3898592     3242.334     4619.169     5181.059     87.68764     175.4446     349.9171      1.519     3.65      1076.63     61.66019     453.5828        18     1.293     0.812 -88.92   0
       219    987.1553    688.1380 307.5079736  +6.3921776     2129.576     2912.175     3280.896     87.68764      174.889     349.9171      1.411     3.23     1074.384     61.66019     351.0458        15     1.185     0.718 -79.71   0
       220    679.2316    688.0171 307.6359131  +6.3819636     1523.383     2270.402      2237.13      87.2704     174.7498     349.6736      1.614     4.65     1087.704     61.66019     188.3159        17     1.325     0.917 -89.55   0
       221    826.2606    686.6063 307.5748737  +6.3874510      1131.65     1409.728      1123.62     86.99114     174.7498     349.5692      1.359     2.96     1079.882     61.66019     175.4917         9     0.923     0.700 -57.44   0
       222    901.7828    684.2584 307.5435744  +6.3909371     868.5532     1201.259     981.9917     87.27041      174.889     349.5344      1.291     4.82     1077.221     61.66019     125.1129         9     1.220     0.539 -78.16   0
       223    251.7431    683.3323 307.8136749  +6.3695963     1844.792     2848.479     3562.604     87.82627      174.889      349.778      1.722     4.01     1105.492     61.66019     239.1062        17     1.154     1.003 -82.77   0
       224    944.3766    678.3551 307.5260753  +6.3947933     1084.221     1405.151     1197.813     87.13088     174.9585     349.6388      1.319     4.57     1075.621     61.66019     166.1604         8     0.986     0.602 -81.76   0
       225    918.5526    677.4322 307.5368357  +6.3943144      1230.24     1816.366     1698.972     87.40971     174.9585     349.7432      1.643     4.42     1076.519     61.66019     193.2745        13     1.487     0.600 -86.52   0
       226    971.2234    676.1832 307.5149936  +6.3965839     2704.289     3768.778     3932.343     87.40971     174.8194     349.7084      1.439     3.06      1074.35     61.66019      428.114        18     1.318     0.760 -77.22   0
       227    272.4944    678.6724 307.8052111  +6.3722161     567.4368     694.4325     638.1516     87.54878     175.0281     349.8475      1.136     4.01     1104.894     61.66019     72.08618         6     0.979     0.469  -0.28   0
       228    167.6762    678.5481 307.8487616  +6.3687522     680.2272     1143.414     1272.003     87.68764     175.0281     349.8127      2.216     3.54     1107.043     61.66019     127.8656         5     0.939     0.455  14.18   0
       229    979.1860    675.6346 307.5117036  +6.3970755     546.5083     807.9945     1519.227     87.27041     174.6802     349.6736      1.564     3.35     1073.995     61.66019     131.2664         5     0.940     0.381  84.70   0
       230    690.9353    675.1147 307.6314840  +6.3876821     938.7191     1166.728     1231.273     87.82627      175.167     349.8475      1.487     5.44     1086.578     61.66019     120.3977        11     1.080     0.900  41.58   0
       231   1013.0106    669.3696 307.4978597  +6.4007881     2039.742      2792.32     2892.354     87.13088     174.7498     349.6388      1.498     3.87      1072.11     61.66019      330.077        17     1.368     0.747 -85.36   0
       232    639.4907    669.3502 307.6530517  +6.3883447     749.3781     978.8859     774.2485     87.68764     174.7498     350.0214      1.611     5.51     1088.903     61.66019     128.4738         5     1.119     0.765  89.68   0
       233    814.4004    668.2001 307.5804189  +6.3946561     1208.208     1671.552     1177.229     86.99114     174.4711     349.4648      1.445     3.34     1079.668     61.66019     180.3617         9     1.023     0.612 -61.18   0
       234    900.6086    665.4631 307.5446924  +6.3986592     1676.606     2430.665     2193.745     87.13088     174.6802      349.604      1.497     3.40     1076.583     61.66019     267.1919        15     1.246     0.757  85.37   0
       235    874.9388    660.5587 307.5555224  +6.3998292     1011.296     1363.992     1739.111     87.68764     174.9585     349.8475      1.598     3.92     1077.226     61.66019     169.1085         8     0.952     0.650  81.33   0
       236    857.3756    656.7616 307.5629470  +6.4008118     1685.894     2526.237      2184.37     87.27041     174.7498      349.604      1.626     4.38     1077.734     61.66019     238.4108        17     1.370     0.882 -84.24   0
       237     56.6953    655.8187 307.8956357  +6.3744114     2414.484     3939.069     3898.827     87.54878     174.6802      349.604      1.751     4.03     1106.848     61.66019     309.5491        25     1.456     1.086 -87.19   0
       238    120.5101    654.4039 307.8691720  +6.3771385     967.1237     1783.343     1899.669     87.13088     174.6105     349.4648      2.053     6.23      1106.12     61.66019     125.8401        12     1.320     0.827  67.31   0
       239    669.2314    644.2560 307.6415384  +6.3996999     6133.317      9357.69     9099.487     87.54878     174.9585     349.7432      1.656     3.63     1087.795     61.66019     727.5398        33     1.512     1.052 -71.04   0
       240    616.0364    643.7932 307.6636556  +6.3981144     1315.978     2115.215      1776.49     86.85117     174.6802     349.5344      1.662     4.16     1089.752     61.66019     171.5104        15     1.187     0.892 -60.13   0
       241    538.9950    644.3748 307.6956452  +6.3952996     566.5765     1117.664     1532.562     87.13088     174.6802     349.6388      2.051     4.47     1093.429     61.66019     103.0465         5     1.002     0.568  72.31   0
       242    132.3530    640.2311 307.8647307  +6.3833882     3491.298     5668.663     5325.491     87.27041     174.9585     349.7084      1.740     4.04     1105.435     61.66019     464.4366        27     1.562     0.998 -84.72   0
       243    643.2298    640.0613 307.6524826  +6.4005637     1915.651      3083.39     2879.558     87.40971     174.9585      349.778      1.727     4.82     1088.755     61.66019     213.5431        21     1.441     1.029 -72.33   0
       244    319.0518    640.5858 307.7871530  +6.3895029      585.588     961.3824     1064.072     86.99113     174.9585     349.5344      1.684     6.20     1101.144     61.66019      103.026         8     1.286     0.839 -74.36   0
       245   1006.1514    639.4150 307.5017128  +6.4129291     2882.871     3893.197      3998.19     86.99114      174.889     349.4996      1.397     3.24     1071.324     61.66019     437.6232        21     1.379     0.788 -87.88   0
       246    786.0846    636.3549 307.5932525  +6.4068617     20712.94     30052.69     30714.66     87.68764      174.889     349.8127      1.557     3.51     1080.408     61.66019     2739.307        40     1.450     1.027 -82.24   0
       247    513.9962    636.7537 307.7062881  +6.3976106     836.0076     1492.825     1634.689     86.99113     174.6802     349.4648      1.905     4.60     1093.707     61.66019     124.1179         9     1.039     0.682  89.07   0
       248    916.1440    636.0195 307.5392246  +6.4113348     4010.336     5598.378      6016.84     87.13088     174.9585      349.604      1.463     3.30     1074.918     61.66019     601.5043        19     1.251     0.829 -87.69   0
       249    485.1627    636.3635 307.7182809  +6.3968074     1310.916     2259.829     2676.303     87.40971     174.8194      349.604      1.880     5.19     1094.082     61.66019     174.4062        14     1.091     1.036 -89.34   0
       250    259.6633    630.0723 307.8121815  +6.3918537     5651.015     8948.401     8616.121     87.68764     174.9585     349.8823      1.737     3.97     1102.659     61.66019      728.702        32     1.540     1.114 -88.56   0
       251    666.6594    629.1841 307.6431135  +6.4058375     6592.043      10074.2     9934.834     87.13088      174.889     349.5344      1.628     3.58     1087.869     61.66019     790.6198        29     1.435     1.021 -77.64   0
       252    362.0799    628.7072 307.7696766  +6.3958491     676.3336     1017.528     757.0829     87.40971      175.167     349.8823      1.614     4.77     1099.051     61.66019     106.8876         6     1.153     0.559  69.09   0
       253    926.4305    621.8160 307.5354267  +6.4175425     1420.514     1959.525     2084.042     87.27041     174.6802     349.7432      1.312     2.52     1073.904     61.66019     295.2748        10     0.948     0.655  82.12   0
       254    738.3550    617.6263 307.6137127  +6.4130031     3434.271     5397.577     5741.717     87.13088     175.0281     349.7084      1.682     3.94     1083.553     61.66019     464.7639        22     1.409     0.941 -87.72   0
       255    693.3811    618.2066 307.6323797  +6.4112625      1074.29     1688.288     1738.487     87.27041     174.6105      349.604      1.677     5.58      1086.39     61.66019     138.5096        15     1.299     1.000 -45.55   0
       256   1004.6677    614.0877 307.5031775  +6.4233382     10001.01      13475.8     13537.26     87.82627     175.2365     349.8475      1.389     3.28     1070.441     61.66019     1430.967        29     1.349     0.858 -82.68   0
       257    943.0340    614.5935 307.5287699  +6.4210778     2506.596     3556.706      3194.74     86.99113     174.7498     349.5692      1.438     3.50     1072.906     61.66019     360.0555        18     1.372     0.769 -87.00   0
       258    745.9382    615.0723 307.6106477  +6.4143107     556.1823     718.5584     1228.034     87.82627     174.9585     349.8823      1.502     3.78     1082.966     61.66019     104.4586         5     1.646     0.250 -57.55   0
       259     23.8945    613.9346 307.9106789  +6.3906035     1772.519     3283.413     3706.068     87.68764     175.0975     349.8475      1.940     5.57     1105.858     61.66019     200.7301        23     1.523     1.150 -82.72   0
       260    543.4766    610.0887 307.6949368  +6.4096069     1767.991     2954.588     2952.001     87.68764     175.3059     349.8823      1.795     4.57     1093.089     61.66019     198.8427        22     1.390     1.079 -69.95   0
       261     82.1195    609.1053 307.8866523  +6.3945536     23689.27     38931.61     40993.68     87.40971     175.2365     349.9171      1.761     3.69     1104.281     61.66019     3100.075        53     1.639     1.204 -84.29   0
       262    558.1995    611.2606 307.6887801  +6.4096152     480.4138     630.9244     888.8838     86.85117     174.7498     349.4648      1.489     4.49     1092.457     61.66019     78.11609         5     0.784     0.732 -34.47   0
       263    511.9821    607.3816 307.7081135  +6.4096716     1215.309     1945.981     2032.999      87.4097     174.6802     349.7432      1.921     5.01     1093.291     61.66019     148.5231        15     1.327     0.901 -43.06   0
       264    933.0518    605.5405 307.5332210  +6.4244836      953.267     1464.857     1335.109     87.68764      174.889     349.8127      1.606     4.92     1072.912     61.66019     162.8386        12     1.481     0.762 -79.87   0
       265    552.2420    603.5646 307.6915143  +6.4125938     855.3302     1384.216     1266.379     87.40971     174.9585     349.6388      1.845     6.27     1092.645     61.66019     109.4376        11     1.190     0.927 -69.81   0
       266    728.0749    601.2748 307.6185332  +6.4194121     3494.361     5394.214      5614.19     87.96469     175.2365     349.9171      1.631     3.82     1084.205     61.66019     432.6562        26     1.436     0.993 -85.03   0
       267    750.1060    599.5006 307.6094388  +6.4208798     3919.556      5906.83     5362.815     87.68764      175.514     349.6388      1.590     4.03     1082.692     61.66019     465.3893        24     1.414     0.946 -76.86   0
       268    581.5325    597.3419 307.6795536  +6.4161423     2959.945     5039.546     5100.826     87.82627      174.889     349.8127      1.813     4.33     1091.305     61.66019      352.968        26     1.565     1.032 -69.86   0
       269    417.8363    598.3704 307.7475333  +6.4102426     1195.164      1724.49     1550.984      87.2704     174.6802     349.6388      1.533     3.69     1094.488     61.66019     141.7711        11     1.017     0.734  43.33   0
       270    242.4266    597.2930 307.8204489  +6.4048107     1585.866     2724.246     3385.397     87.82627     174.6802     349.6388      1.878     5.39      1101.83     61.66019     194.2301        19     1.475     0.977  82.82   0
       271   1022.8608    595.5809 307.4962379  +6.4315856     5665.958      7165.46     6960.509     85.15359     151.6389     277.4243      1.364     3.33     1068.656     61.66019     831.0345        21     1.277     0.783 -87.49  24
       272    325.5648    596.6653 307.7859280  +6.4078566     1289.761     2393.679     2859.717     87.54878     174.9585     349.8475      2.129     5.73     1098.385     61.66019     172.4274        16     1.265     0.992 -28.00   0
       273    988.2563    594.4326 307.5106550  +6.4309083     9213.451     12322.19     12632.69     87.54878     175.0281     349.8127      1.420     3.20     1070.053     61.66019      1424.74        26     1.291     0.895 -87.00   0
       274    707.9255    593.3093 307.6271729  +6.4220288     917.6755      1296.84     999.4255     87.68764      175.167     349.8475      1.631     5.74     1085.478     61.66019     124.2006        11     1.077     0.862 -65.47   0
       275     99.9332    591.5573 307.8798444  +6.4023976     850.0468     1354.014     1703.612     87.68764      174.889     349.8823      1.973     5.62     1103.728     61.66019     120.8688        10     1.207     0.738 -72.16   0
       276    146.8748    588.0388 307.8604605  +6.4054263     21811.81     36393.79     37945.71     87.54878     174.9585     349.8823      1.786     3.94     1103.584     61.66019     2607.942        54     1.664     1.229 -85.40   0
       277    433.7546    588.8041 307.7412417  +6.4147255     2491.737     4521.121     4936.601     86.99114     174.6105     349.4648      1.892     4.85     1094.055     61.66019     285.6688        28     1.668     1.129 -80.11   0
       278    815.4036    588.3330 307.5826821  +6.4276690     1212.172     1610.833     1198.859     86.99114     174.6105     349.5692      1.506     3.86     1078.396     61.66019     196.7257        12     1.143     0.797  84.22   0
       279    983.1467    577.3265 307.5133513  +6.4378019      7429.59      10990.9     11891.89     87.54878     174.9585     349.8127      1.583     3.55     1069.332     61.66019     1114.896        31     1.469     1.012  81.70   0
       280     28.1161    576.9604 307.9101754  +6.4060122     1114.497     2003.491      1959.51     87.68764      174.889     349.7432      1.891     6.49       1104.4     61.66019     144.2996        13     1.304     0.907 -57.65   0
       281    576.8068    572.7828 307.6823433  +6.4261254      43611.2     72214.73     75544.12      87.2704     174.6802     349.6388      1.767     3.91     1091.449     61.66019     4804.127        59     1.620     1.233 -81.47   0
       282    536.3704    572.9863 307.6991378  +6.4246897     611.8334     1232.005      880.197      87.2704     174.7498     349.7432      1.929     3.90     1092.424     61.66019     100.8494         5     0.798     0.566  -1.57   0
       283    184.3652    569.4978 307.8455104  +6.4143402     2588.255      4402.67     5456.371     87.68764     174.8194     349.9866      1.898     4.10     1102.407     61.66019     334.2189        23     1.373     1.065 -84.94   0
       284     76.7921    563.6707 307.8904014  +6.4131349     1212.704     2271.991     2760.828     87.13088     174.5408     349.7084      1.995     7.67      1103.57     61.66019      167.389        17     1.662     0.990  70.41   0
       285    474.0672    556.5970 307.7255766  +6.4293734     55093.65     94785.35      99263.6     86.99113     174.6105      349.604      1.826     3.97     1093.077     61.66019     6238.468        65     1.672     1.280 -81.83   0
       286    659.6583    554.1081 307.6485456  +6.4366046     776.2046     1191.823      941.504     87.54878      174.889     349.9171      1.531     4.19     1088.396     61.66019      111.431         6     0.782     0.641  16.63   0
       287    148.7812    551.8493 307.8608910  +6.4204333     1607.558     2759.658     3429.752     87.13088     175.0281      349.604      1.925     4.26     1102.999     61.66019     218.2806        19     1.243     1.058 -79.23   0
       288    943.4590    549.2169 307.5307844  +6.4480880     720.2266     1104.873     930.1661     87.27041     174.8194     349.5344      1.376     4.07     1070.193     61.66019     116.2639         7     1.004     0.471 -79.40   0
       289    427.7438    548.8910 307.7450837  +6.4310052     718.0869     1024.037     1409.904     87.54878     174.8194     349.9518      1.726     5.05      1093.35     61.66019     114.2358         8     1.484     0.486  52.51   0
       290    619.8184    548.0406 307.6653036  +6.4377793     800.4884     1198.913      1197.08     87.27041     174.7498     349.5692      1.602     3.20     1090.449     61.66019     117.0441         7     0.715     0.688  66.13   0
       291    319.5578    546.0969 307.7901291  +6.4285358     1841.381      3153.14     3250.142     87.68764      174.889     350.0214      1.888     5.14     1094.691     61.66019     199.0656        22     1.426     1.074 -75.77   0
       292     17.7257    558.3924 307.9151203  +6.4133298     1333.472     2301.521     2960.165     87.27041     174.4711     349.6736      1.932     5.14     1103.747     61.66019     159.7938        16     1.252     1.057  77.37   0
       293    746.0544    540.0481 307.6131188  +6.4452942     5077.186     7772.006     7973.196     87.68764     174.9585     349.8823      1.628     3.73     1083.229     61.66019     572.1333        29     1.433     1.029 -78.62   0
       294    542.1736    535.0693 307.6980025  +6.4405405     1137.643     2133.877     2041.492      87.2704     174.8194     349.7432      1.951     7.13      1091.65     61.66019     140.3274        16     1.779     0.800 -88.78   0
       295    799.6122    535.2882 307.5910240  +6.4490462     13887.27     20810.99     21665.23     87.27041     174.6802     349.6736      1.626     3.54     1080.254     61.66019     1830.004        36     1.439     1.064 -84.09   0
       296   1016.7601    535.8309 307.5007740  +6.4560554     1047.917     1391.867     1441.258     87.27041     174.7498     349.0816      1.551     5.15     1064.857     61.66019     147.5295        10     1.015     0.739  70.05  16
       297    623.5135    533.4287 307.6642596  +6.4439363     2522.919     3952.073     4576.735     87.82628     174.6105     349.6736      1.772     4.59     1090.142     61.66019     281.8273        23     1.513     0.989 -81.09   0
       298    940.5292    529.5303 307.5326617  +6.4561196     1139.185     1736.289     2225.447     87.68764     175.0976      349.778      1.732     3.62     1069.637     61.66019     196.3234         9     1.058     0.715  77.83   0
       299    381.6535    527.7178 307.7649479  +6.4382049     830.3703     1541.213     2124.135     87.68764     174.9585     349.8823      2.106     5.97     1092.351     61.66019     108.0173        10     1.167     0.860 -72.61   0
       300    236.2997    527.2869 307.8253573  +6.4335116     978.9767     1752.568     963.3181     87.68764      175.514     349.8823      1.799     4.87     1097.622     61.66019     184.7231        12     1.330     0.948 -73.50   0
       301    875.7187    518.5816 307.5599599  +6.4584818      2868.01     4095.807     4061.766     87.27041     174.6105     349.7432      1.528     3.60     1073.567     61.66019     419.9703        18     1.313     0.802  88.91   0
       302    834.2911    515.9404 307.5772632  +6.4581916     2532.153     3561.825     3224.476     87.54878     174.9585     349.8823      1.522     3.69     1077.306     61.66019     360.7439        20     1.316     0.916 -82.49   0
       303    805.3069    511.8666 307.5894438  +6.4589075      2321.76     3736.787     4242.426     87.54878      175.167     349.8127      1.832     4.24     1080.201     61.66019     327.0049        18     1.342     0.865 -77.43   0
       304    262.4337    511.0869 307.8150453  +6.4410772      6774.25      11788.5     12048.29     87.68764     174.8194     349.8127      1.877     4.38     1095.438     61.66019     808.1523        37     1.561     1.258  88.14   0
       305    815.0160    507.1963 307.5855661  +6.4611597       154589     237850.1     247886.4      87.2704     174.5408     349.6388      1.633     3.74     1079.282     61.66019     18695.88        98     1.619     1.206 -81.25   0
       306    744.6668    508.2079 307.6147647  +6.4583955     672.2298     1147.377     1708.451     87.13088     174.6802     349.6388      1.908     5.37     1083.355     61.66019     80.85425         9     1.302     0.625 -78.31   0
       307    196.7192    505.6363 307.8425339  +6.4411238     50482.81     88297.05     93102.75     87.54878     175.0281     349.8127      1.869     4.22     1098.559     61.66019     5568.478        67     1.717     1.317 -83.11   0
       308    120.7210    501.8863 307.8742378  +6.4401214     5659.717     9598.462     9923.128     87.54878     175.3059     349.9171      1.788     4.15     1101.722     61.66019     633.1479        36     1.528     1.216 -85.55   0
       309    985.9020    498.9193 307.5148333  +6.4702705     1387.134     1642.404     1755.262     87.54878     175.3059     349.8823      1.306     3.17     1064.893     61.66019       227.04        12     1.084     0.683 -71.51   0
       310   1006.8916    498.0663 307.5061397  +6.4713213     827.6238     1146.374     1240.988     87.68764      175.167     349.8127      1.319     3.32     1063.114     61.66019     176.7819         7     0.979     0.549 -53.24   0
       311    851.4859    494.4731 307.5708383  +6.4676293     4483.604     6405.976     6242.819     87.82628     175.3059     349.8127      1.579     3.47     1075.729     61.66019     595.9097        26     1.430     0.944 -85.73   0
       312    236.0745    496.7422 307.8264819  +6.4461164     684.9236     921.2488     1066.699     87.68764     174.9585     349.8127      1.320     4.81     1095.872     61.66019     112.4076         5     1.050     0.625 -66.18   0
       313    370.0905    492.7509 307.7709312  +6.4522560     14303.02     25551.44     26922.31     87.68764     174.7498     349.9866      1.893     4.18     1089.731     61.66019     1685.251        46     1.633     1.286 -80.86   0
       314    172.1587    491.6825 307.8532101  +6.4460613     1800.414     3245.124     3479.171     87.68764     174.9585     349.7432      1.839     4.36     1099.257     61.66019     259.5439        20     1.420     0.957 -62.80   0
       315    805.5511    487.8756 307.5901476  +6.4688222     5692.164     8539.937     8966.106     87.54878     175.0281     349.8127      1.637     3.51     1080.485     61.66019     778.1129        28     1.407     0.992 -83.29   0
       316    536.4528    487.6797 307.7019745  +6.4599174     5629.009      9503.11     9918.154     87.68764     174.9585     349.8127      1.836     4.28      1091.07     61.66019      609.844        35     1.540     1.195 -65.68   0
       317    247.3084    488.7942 307.8220824  +6.4497749     684.3054     1396.896     1328.464     87.27041     174.6105     349.5692      2.187     4.96     1094.984     61.66019     101.9308         8     1.355     0.513  59.14   0
       318    109.3765    488.9832 307.8793875  +6.4450682      914.499     1576.607     1723.206      87.4097     174.8194     349.7084      2.111     6.20     1101.781     61.66019     116.1282        11     1.172     0.923   7.79   0
       319    394.4262    484.2005 307.7611074  +6.4566016     1148.827     2255.362     2630.712     87.27041     174.6105      349.604      2.088     6.75     1089.029     61.66019     169.4542        16     1.432     1.165  82.48   0
       320    183.4950    480.7637 307.8488686  +6.4509502     5937.595     10379.04     10957.49     87.82627     174.8194     349.9518      1.886     4.52     1097.953     61.66019     687.0146        37     1.656     1.205 -83.63   0
       321    581.1597    480.6459 307.6836340  +6.4643163     1983.451     3791.168     4063.488     87.54878     174.9585     349.6388      2.031     5.57     1090.608     61.66019      221.859        26     1.542     1.170 -62.31   0
       322    278.7037    477.2869 307.8094255  +6.4555791     72006.45     129778.4     137360.6     87.68764     175.3753     349.8475      1.929     4.45     1093.109     61.66019     7801.993        88     1.778     1.393 -83.24   0
       323     55.1207    479.4428 307.9022533  +6.4471851     4474.865     7641.904     8553.433     87.68764     174.9585      349.778      1.845     4.10     1102.575     61.66019     591.4344        35     1.739     1.142 -84.71   0
       324    864.1887    480.6287 307.5660242  +6.4737694     623.5209     704.8712     740.1972     87.13088     174.7498     349.6388      1.268     4.42     1074.386     61.66019      94.5387         6     0.950     0.584  66.72   0
       325    822.0196    480.2222 307.5835611  +6.4725316     1393.396     2138.086     2190.442     87.40971      174.889     349.7432      1.545     4.82     1078.882     61.66019     185.0122        13     1.169     0.811 -72.47   0
       326    978.1471    470.8304 307.5189970  +6.4816111     1826.646     2548.312     2095.722     87.54878     175.0281     349.7432      1.486     4.14     1064.519     61.66019     287.3655        18     1.329     0.901 -73.33   0
       327    262.6423    471.8376 307.8162832  +6.4572907     1240.276      2107.41     2453.365     87.40971     174.9585     349.6736      1.832     6.63     1093.375     61.66019     144.0277        17     1.399     0.954  67.93   0
       328    801.7094    469.5872 307.5923579  +6.4762459     15877.36     24275.56     25229.91     87.40971     174.6802      349.604      1.654     3.70     1081.008     61.66019     2068.392        41     1.531     1.082 -81.61   0
       329    505.4232    468.0488 307.7155291  +6.4669857     34331.65     64872.93     69930.34      87.2704     174.9585     349.7084      2.006     4.26     1089.325     61.66019     3721.749        74     1.716     1.537 -78.47   0
       330    655.8293    466.9852 307.6530652  +6.4724519     862.2578     1443.117     1745.419     87.27041     174.6802     349.7432      1.823     6.11      1087.49     61.66019     120.3984        11     1.268     0.828 -53.18   0
       331    217.8913    464.5218 307.8351249  +6.4588107     1619.646     3159.746     3596.656     87.40971     175.2365     349.8823      2.038     5.18     1095.187     61.66019     206.4897        24     1.440     1.250 -35.30   0
       332    665.2996    463.0121 307.6492635  +6.4744087     2690.344      4565.87      5135.42      87.4097     174.6802     349.5692      1.884     4.55     1086.986     61.66019     312.0209        25     1.479     1.083 -73.35   0
       333     53.6745    464.3217 307.9033656  +6.4533801     1033.258     1968.013     1736.452     87.96469     175.2365     349.8475      2.151     6.07      1102.02     61.66019     150.1064        12     1.406     0.738  57.24   0
       334    675.4492    463.2090 307.6450393  +6.4746663     1304.591     2027.865     2126.478     87.13088     174.7498     349.4648      1.703     3.85     1086.556     61.66019     167.2698        16     1.132     0.944 -71.41   0
       335    727.4274    462.1671 307.6234749  +6.4768317      1308.38     2118.143     2335.414     87.13088     174.6802     349.5692      1.763     5.66     1083.635     61.66019     159.9486        17     1.300     1.077  80.55   0
       336    403.2265    458.6657 307.7583112  +6.4674400     1353.398     2409.416     2737.691     87.27041      174.889     349.7084      1.931     5.54     1087.017     61.66019     161.1837        19     1.348     1.181 -82.27   0
       337    334.6503    456.9986 307.7868629  +6.4658315     3163.637     5900.354     6299.941     86.99113     174.5408     349.3603      1.942     4.70     1088.039     61.66019     375.3496        33     1.621     1.230  85.09   0
       338    149.8143    455.6758 307.8637108  +6.4601788      21886.5     38678.37     40570.27     87.13088     174.6802     349.6388      1.880     4.16     1098.709     61.66019     2557.895        53     1.720     1.265 -83.44   0
       339    877.6857    455.7178 307.5612511  +6.4845056     1605.926     2340.242     2563.101     87.40971     175.2365     349.9171      1.579     4.77     1073.181     61.66019     211.2301        16     1.362     0.859 -84.32   0
       340    514.3757    456.5973 307.7121945  +6.4720137     1745.568       2778.7     2781.408     87.27041     174.6105      349.604      1.790     4.93     1088.457     61.66019     225.8278        20     1.466     0.933 -73.96   0
       341    115.0543    453.8530 307.8782157  +6.4597644     2376.905     4144.019     4084.358     87.96469      174.889      349.778      1.860     4.63      1100.15     61.66019     292.0015        28     1.558     1.157 -63.85   0
       342    975.2881    450.0852 307.5208803  +6.4900823     5482.466     7571.576     6700.614     87.40971     175.2365     349.9171      1.456     3.12     1064.548     61.66019     854.6317        25     1.370     0.891  88.08   0
       343    352.2554    452.1017 307.7797125  +6.4684433     930.7624     1660.718     1907.857     87.54878     174.9585     350.0561      1.874     6.65     1086.607     61.66019     107.2456        12     1.256     0.988  10.98   0
       344    548.5426    442.6373 307.6984666  +6.4789206     1286.238     2266.506      2455.45     87.68764     175.0281     349.8127      1.961     5.06     1087.872     61.66019     154.3892        15     1.135     1.080  39.45   0
       345     14.1251    440.0152 307.9206208  +6.4620872      21554.4     37592.86     39757.84     87.13088     174.6802     349.6736      1.851     4.03     1101.837     61.66019     2859.359        55     1.691     1.256 -86.00   0
       346    446.7532    436.7440 307.7409629  +6.4779490     35498.14      63002.6     66034.55     87.68764     174.9585     349.9171      1.896     4.26     1085.483     61.66019     3758.259        64     1.710     1.341 -82.31   0
       347    654.7903    436.3375 307.6545274  +6.4850723     10715.98     17898.23     19151.53     87.13088     174.7498      349.604      1.790     4.12     1086.388     61.66019     1170.815        37     1.552     1.176 -78.35   0
       348    294.7655    437.0744 307.8041082  +6.4727218     738.8699     1449.569     1133.364     87.54878     174.9585      349.778      2.000     5.41     1088.647     61.66019     118.2509         8     1.167     0.709  21.98   0
       349    211.9770    434.4079 307.8385993  +6.4710466     15729.23     29874.09     31171.45      87.2704     174.7498      349.604      1.991     4.33     1094.414     61.66019     1812.611        54     1.721     1.392  87.04   0
       350    177.9465    435.8913 307.8526897  +6.4692922     1319.391     2245.449     1890.913     87.54878     174.7498     349.9518      1.629     3.70     1096.393     61.66019     175.6108        13     1.160     0.883 -54.33   0
       351    576.6714    433.1580 307.6870967  +6.4837751     2525.388     4456.296     4977.843     87.54878     174.9585     349.8823      1.912     4.93     1087.263     61.66019      259.241        27     1.551     1.170  83.42   0
       352      1.3927    433.9199 307.9261175  +6.4641759     1229.198     2256.829     2965.159     76.73659     139.8694     264.0784      2.382     6.25     1101.887     61.66019     231.6736        13     1.735     0.633 -88.25  24
       353    988.7136    434.6266 307.5158192  +6.4969125     1223.616     1810.501     2470.764     87.82627     174.7498     349.6736      1.618     3.86     1063.047     61.66019     188.2765        11     1.150     0.678  82.26   0
       354    828.8132    434.6007 307.5822691  +6.4915965     837.1475     1249.271     1097.379     87.27041     174.6105     349.5692      1.420     3.66     1078.094     61.66019     139.9176         6     0.869     0.500 -41.66   0
       355    917.2363    433.6755 307.5455547  +6.4949252     750.9269     930.9073     996.2324     87.54878     175.0281     349.8475      1.488     3.91     1069.773     61.66019     113.6704         5     1.050     0.417  85.24   0
       356    950.3807    430.3740 307.5318917  +6.4973924     4983.622     7068.857     7052.279     87.13088     174.7498     349.7084      1.495     3.30     1066.704     61.66019     750.1797        24     1.401     0.858 -89.05   0
       357    623.5865    428.7512 307.6677493  +6.4871626     5554.353     9242.186     9935.614     86.99114      174.889     349.4648      1.798     4.29     1086.914     61.66019     639.4946        33     1.528     1.146 -76.72   0
       358    111.3616    429.6049 307.8805696  +6.4696527     903.7291     1933.705      1508.85     86.71098     174.6802     349.5344      2.039     4.48      1099.28     61.66019     175.0968         9     1.506     0.649 -57.28   0
       359    972.9850    422.5051 307.5227617  +6.5013943     3706.738     5160.897       5547.5     87.40971     174.6802      349.604      1.504     3.53     1064.429     61.66019      542.515        19     1.315     0.803 -79.68   0
       360    535.7275    420.0593 307.7045518  +6.4878150     6325.602     10800.35     10941.77     87.82627     174.9585     349.8127      1.808     4.20      1085.65     61.66019     680.3834        38     1.561     1.225 -80.54   0
       361    381.8750    420.4283 307.7684724  +6.4825139      2235.69     4130.122      4282.32     87.54878     174.9585      349.778      1.990     4.44      1083.93     61.66019     263.5515        27     1.464     1.180 -60.46   0
       362    411.9019    421.3791 307.7559629  +6.4831268     662.8905     1239.502     1775.895     87.54878     174.7498     349.5344      2.196     4.21     1083.886     61.66019     87.47729         6     0.780     0.646  54.88   0
       363    892.2765    415.8543 307.5565249  +6.5014526     3233.349      4923.04     5236.493     87.82627     174.9585     349.8127      1.622     3.73     1071.862     61.66019     477.4209        21     1.297     0.973 -78.20   0
       364    241.4927    415.2024 307.8269830  +6.4799668     552.4432     1048.808     639.8577     87.13088     174.6105     349.4996      1.860     4.50     1091.437     61.66019     91.33997         5     0.812     0.709 -46.66   0
       365    899.7223    410.4385 307.5536122  +6.5039370     2141.519      2875.65     2678.286     87.54878     175.0281     349.8127      1.455     3.96     1070.956     61.66019     281.6711        18     1.314     0.862  81.58   0
       366    269.6002    412.0351 307.8154102  +6.4822172     2762.387     2700.203     3092.147     86.57055     174.7498      349.604      0.875     2.96     1088.568     61.66019     884.8448         8     1.031     0.293   3.01   0
       367    939.0463    409.1994 307.5373117  +6.5057585     1184.965     1375.263      1046.48     86.99113     174.6802     349.3255      1.376     3.93     1067.366     61.66019     171.0715        13     1.222     0.784 -67.17   0
       368    118.1047    409.3642 307.8784518  +6.4782366     739.4429     1205.251     1347.154     87.82627     174.8194     349.9518      1.935     4.92     1097.855     61.66019     106.1511         5     1.063     0.645  60.41   0
       369    723.5499    406.2612 307.6269645  +6.4997873     2746.411     4394.199     4163.932     87.68764      174.889     349.8823      1.690     4.15     1082.072     61.66019     356.7422        24     1.399     1.048 -85.04   0
       370     85.4742    405.3267 307.8921471  +6.4788078      1582.73     2721.471     2319.991     87.96469     175.2365     349.8823      1.843     4.98     1098.637     61.66019     205.6759        20     1.371     1.033  73.94   0
       371    435.4586    405.3568 307.7467139  +6.4905313     797.3689      1581.18     828.4856     87.54878      174.889     349.9171      2.174     5.46     1082.549     61.66019     109.6768         8     1.408     0.598 -75.41   2
       372    394.6062    404.3863 307.7637228  +6.4895643     2909.961     5416.204     5325.681     87.27041     174.7498     349.6388      1.928     4.81     1082.663     61.66019     318.7897        29     1.541     1.209  84.21   0
       373    622.2452    401.0199 307.6692393  +6.4985686     8656.621     14839.76     15994.67      87.2704     174.8194     349.6388      1.835     4.14     1084.857     61.66019     922.9607        41     1.569     1.252 -73.63   0
       374    785.1921    397.2181 307.6016516  +6.5055781     15059.09     24210.69     26596.92      87.2704     174.6802     349.6388      1.807     4.50     1079.818     61.66019     1809.221        59     2.090     1.198 -58.88   0
       375    304.7769    397.8198 307.8012725  +6.4892661      2208.42     4008.814     4177.654     87.40971     174.8194     349.7432      1.923     5.02     1085.305     61.66019      272.929        24     1.399     1.178 -83.17   0
       376    813.6706    394.9736 307.5898920  +6.5074547      1230.98     1751.793     1922.669      87.2704     174.8194     349.7432      1.529     3.58     1078.009     61.66019     155.9147        12     0.950     0.889  22.57   0
       377    387.9424    394.3975 307.7668286  +6.4934656     1215.791     2318.358     2838.748     86.99113     174.6802     349.5344      2.017     6.40     1082.042     61.66019     161.4781        14     1.254     0.982 -42.25   0
       378    970.0647    392.5914 307.5249779  +6.5136493     1970.998     2934.963     2813.556     87.13088     174.6802     349.6736      1.565     4.15     1063.709     61.66019     294.3433        16     1.263     0.921  89.15   0
       379    122.4032    389.5167 307.8773365  +6.4865761     3768.455         7051     7319.101     86.99114     174.5408     349.4648      1.943     4.41     1096.406     61.66019      470.453        36     1.634     1.257 -79.43   0
       380    760.3724    388.4320 307.6122610  +6.5083782     2158.684     3316.449      3171.07     87.13088     174.6802      349.604      1.651     3.96       1080.3     61.66019     259.6658        20     1.292     0.967 -83.12   0
       381   1023.3382    386.9253 307.5030281  +6.5177622     3269.904     4322.761     4545.338     80.90418     144.5744     269.3245      1.359     3.89     1058.186     61.66019     472.8706        17     1.348     0.703  84.43  24
       382    280.5303    386.8086 307.8117196  +6.4930000     1329.279      2327.36      2604.26     87.13088     174.6105     349.6736      1.892     5.15     1086.134     61.66019      161.574        15     1.163     1.045  60.71   0
       383    358.3607    384.2430 307.7794638  +6.4966677      2624.97     4654.476     5182.651     87.40971     174.9585     349.6736      1.915     4.93     1082.051     61.66019     318.2935        28     1.532     1.210 -87.30   0
       384    714.3528    382.1579 307.6315963  +6.5094332     1510.341     2528.694     2053.679     87.68764     174.9585     349.7084      1.725     4.93     1081.872     61.66019     174.9147        16     1.165     0.993 -83.90   0
       385    988.0354    381.2459 307.5178898  +6.5189324     733.8488      913.094       1106.4      87.2704      174.889     349.6736      1.361     3.65     1061.431     61.66019     132.3516         5     0.996     0.541 -76.66   0
       386    245.6947    379.6887 307.8264358  +6.4947717     640.3058      1418.01     1558.531     87.68764     175.4446     349.8823      2.360     5.39     1088.173     61.66019     113.1473         7     0.941     0.873  70.91   0
       387    555.7297    374.9169 307.6977591  +6.5071240     697.4033     1684.535     2081.959     87.96469     175.2365     349.8475      3.012     7.35     1081.115     61.66019     100.4105         9     1.840     0.821  72.20   0
       388    477.9832    372.9664 307.7301336  +6.5053290     1140.714     1811.303     1808.236     87.27041     174.6802     349.6736      1.691     6.29     1079.766     61.66019     154.8549        12     1.058     1.050  82.32   0
       389    840.3793    372.1080 307.5795599  +6.5177871     1479.737     2176.127     2366.752     87.54878     174.7498     349.6388      1.570     3.99     1074.565     61.66019     205.1747        16     1.244     0.880 -79.73   0
       390    826.1190    371.1393 307.5855188  +6.5177116     1890.431     2779.773     2898.101     87.82627     174.9585      349.778      1.558     4.67     1075.424     61.66019     208.3337        19     1.338     0.990 -84.25   0
       391    723.4088    369.2311 307.6282673  +6.5150732     13696.95     22195.95     23547.04     87.13088     174.7498      349.604      1.760     3.96     1081.362     61.66019     1639.297        43     1.541     1.210 -79.71   0
       392    644.7198    365.2657 307.6611020  +6.5140832     2303.116     4094.734     4695.011     87.96469     175.0976      349.778      1.969     4.59     1081.647     61.66019     253.0942        22     1.375     1.093 -84.33   0
       393    616.9171    360.3327 307.6728220  +6.5151912     10806.05     25015.94     30067.76     87.82627     175.2365     349.8823      2.487     6.52     1080.975     61.66019     1325.076        70     2.386     1.531  39.68   0
       394    948.5623    359.1454 307.5350352  +6.5267442     4044.799      5716.03     5850.815     87.68764     175.0281     349.8475      1.495     3.50     1064.523     61.66019     556.0898        21     1.322     0.837 -80.56   0
       395    387.8437    355.2201 307.7681904  +6.5096393     23000.89      42438.1     44815.44     87.13088     174.8194     349.6388      1.953     4.41     1079.291     61.66019     2639.203        56     1.716     1.342 -82.67   0
       396    133.8825    354.6484 307.8737448  +6.5013589     1946.308     3664.618     3853.366     87.68764     174.9585     349.8475      1.943     5.08     1093.741     61.66019     251.7576        30     1.480     1.384 -83.33   0
       397    904.1672    354.6230 307.5536371  +6.5271329     1378.501      2474.26     3389.939     87.13088     174.7498     349.5692      2.175     3.75     1068.761     61.66019     221.6034        12     1.044     0.836 -74.92   0
       398     67.2464    350.2740 307.9015830  +6.5009269     1295.632     2351.858     2809.918     87.54878     175.0281     349.8127      2.075     6.20     1094.469     61.66019     143.7683        18     1.473     1.019  88.67   0
       399    917.5042    349.4452 307.5482680  +6.5297153     5397.983     7468.875      7427.24     87.68764      174.889     349.9866      1.536     3.43     1067.118     61.66019     791.6736        23     1.345     0.913 -77.83   0
       400    245.4065    345.7342 307.8277018  +6.5087822     11293.46     20957.51     21834.01     87.13088     174.6802      349.604      1.943     4.61      1085.71     61.66019     1279.724        48     1.701     1.316 -85.60   0
       401     80.7274    339.4834 307.8963459  +6.5058353     772.6619     1326.055     1401.039     87.96469     175.3059     349.8475      1.827     6.96     1094.236     61.66019     93.98401        10     1.298     1.151  30.31   0
       402    968.9179    337.8611 307.5272890  +6.5362109     1030.647     1338.412     1509.984     87.82627     174.9585     349.8127      1.493     5.71     1061.604     61.66019     155.5175        12     1.323     0.789 -63.09   0
       403    740.4538    339.1423 307.6221946  +6.5280665     714.5602     1190.704     1308.333     87.82627     174.9585     349.8127      1.905     4.99     1079.145     61.66019     112.5854         6     1.026     0.688 -34.62   0
       404    708.5596    338.7690 307.6354620  +6.5271561     549.7351     776.8315     724.2897     87.13088     174.7498     349.6736      1.494     4.42     1079.216     61.66019     101.5701         5     1.120     0.495 -88.23   0
       405   1017.8719    338.3734 307.5069264  +6.5376288     750.9835     917.9341     1588.827      87.2704     174.8194      342.289      1.292     3.46     1056.906     61.66019     103.7417         5     0.778     0.445 -17.21  16
       406    358.5648    335.3121 307.7810289  +6.5168788     1087.588     1850.615     1476.772     87.68764     174.8194     349.8127      1.728     6.58     1078.666     61.66019     141.0793        14     1.352     0.900 -66.50   0
       407    145.6776    334.4409 307.8695263  +6.5100987     4218.813     7426.042     7403.402     87.54878     174.9585     349.8475      1.883     4.63     1092.199     61.66019     474.8694        33     1.520     1.248 -86.27   0
       408    191.7242    335.4210 307.8503582  +6.5112396     683.8122     1314.235     1796.308     87.27041     174.7498     349.7432      2.195     6.57     1089.025     61.66019     109.5856         9     1.248     0.971 -67.88   0
       409    250.6942    334.3441 307.8258890  +6.5136626     1018.832      1771.02     1444.408     87.54878     174.9585     350.0214      1.720     6.06     1084.792     61.66019     122.4862        12     1.260     0.819 -22.89   0
       410    167.8517    330.2824 307.8604522  +6.5125602      1997.37     3910.127     4670.821     87.68764     174.9585     349.8823      2.250     5.86     1090.747     61.66019     199.6144        26     1.665     1.074 -68.78   0
       411    831.2958    330.8344 307.5847202  +6.5345272     895.9896     1689.115     1833.448     87.82627     174.8194     349.9171      1.932     4.33     1072.475     61.66019     126.3212        11     0.965     0.849 -39.80   0
       412    563.4106    328.8589 307.6961172  +6.5263991     881.9377      1396.74     1343.247     86.99114     174.8194     349.4996      1.849     6.64     1075.245     61.66019     98.79553        12     1.137     1.090 -85.88   0
       413    391.2791    325.0563 307.7677796  +6.5222094     1724.925     3193.181     3384.653     87.82627     174.9585     349.8127      1.941     5.61     1076.084     61.66019     203.5135        22     1.388     1.167 -76.44   0
       414     10.3768    325.9727 307.9260370  +6.5090496     643.0613     1143.896     1129.744     87.13088     174.8194     349.6388      1.704     4.09     1094.199     61.66019     108.6084         5     0.778     0.615  -4.30   0
       415    979.5026    324.0302 307.5233535  +6.5422745       959.38      1532.18     1716.669     87.82627     174.6802     349.8475      1.761     4.35     1060.029     61.66019     137.6321         8     1.120     0.481  82.33   0
       416     41.4120    319.4572 307.9133608  +6.5127831     2650.945     4920.297     5413.087     86.99114     174.8194     349.4996      1.940     4.06     1093.987     61.66019     376.1923        29     1.473     1.206 -70.84   0
       417    445.0140    318.4901 307.7456699  +6.5267199     5868.783     10654.08     10627.07     87.40971     174.7498     349.6388      1.913     4.35     1073.634     61.66019     629.0709        36     1.604     1.251 -84.91   0
       418    777.7153    317.2101 307.6074456  +6.5383661     1728.829     2979.561     3471.359     87.27041     174.6105     349.6388      1.901     4.82       1074.8     61.66019     222.9905        17     1.375     0.890 -69.62   0
       419    785.5679    315.7498 307.6042311  +6.5392310     12222.89     19157.51      20926.4     87.54878     174.9585     349.7432      1.704     3.71     1074.358     61.66019     1575.242        38     1.518     1.127 -81.53   0
       420    349.3992    314.5754 307.7855373  +6.5251342     843.9285     1545.384     1008.954     87.27041     174.6105     349.5692      1.916     5.48     1077.399     61.66019     115.1752         8     1.165     0.727  88.07   0
       421    601.0593    307.5895 307.6811866  +6.5364401     2997.256     4630.582     4189.902     86.99113     174.8194     349.4996      1.687     5.65     1072.411     61.66019     768.9133        15     1.718     0.524  87.02   0
       422    960.1437    307.3903 307.5319570  +6.5485010     691.7753     798.1787      697.274     86.99114      174.889     349.4648      1.304     3.42     1061.022     61.66019     132.0625         5     1.002     0.338  84.32   0
       423    400.8794    305.6356 307.7644446  +6.5305500     516.3486     798.5991     1473.901     87.54878     175.0281     349.8127      1.911     4.55     1073.518     61.66019     101.2767         5     1.164     0.505 -54.71   0
       424    493.1725    302.1504 307.7262064  +6.5350784     2512.511     4625.469     4944.872      87.2704     175.0976     349.7432      1.905     4.72     1071.059     61.66019     279.4362        27     1.564     1.091 -75.86   0
       425    465.4700    302.8389 307.7376961  +6.5338671     1712.185     2984.152      3027.67     87.54878     174.9585     349.8823      1.877     6.22     1071.458     61.66019     185.1064        20     1.300     1.145  73.73   0
       426      2.3256    303.3670 307.9301477  +6.5181128     556.8286     1316.973     1984.125     86.85117     154.4215     280.6507      3.065     7.01     1093.969     61.66019     100.6643         7     1.570     0.876 -17.50  24
       427    921.5908    302.2866 307.5481511  +6.5493245     921.5073     1214.586     1290.933     87.27041     174.6105     349.6388      1.464     3.41     1063.709     61.66019     141.6188         8     0.914     0.651  88.60   0
       428    850.8914    298.7127 307.5776544  +6.5484444     32165.03     50454.09     53250.56     87.54878     175.4446     349.9518      1.683     4.09     1068.504     61.66019     3874.589        54     1.655     1.099 -83.43   0
       429     69.6010    295.5099 307.9024567  +6.5236183     600.3939     890.2994     1194.508     86.85117     174.4013     349.5344      1.772     4.25     1093.422     61.66019     95.24036         5     1.050     0.490 -89.79   0
       430    342.5894    294.1601 307.7890559  +6.5333357      689.342     1014.033     1025.263     86.99114     174.7498     349.5344      1.685     5.83     1076.045     61.66019     90.06055         7     1.180     0.810 -42.05   0
       431    622.6799    291.2750 307.6727500  +6.5438992     2291.325     3935.595     4522.794     87.96469     175.2365     349.8823      1.840     4.83     1070.136     61.66019      249.562        22     1.422     1.059 -73.72   0
       432     31.1423    291.9161 307.9185602  +6.5238097     970.7982     1757.275     1663.902     87.68764     174.9585     349.8823      1.856     4.86     1093.633     61.66019     185.6179        11     1.391     1.012 -45.13   0
       433    707.3967    284.7356 307.6377613  +6.5494289     71127.03     117885.3     123691.5     86.99114     174.7498     349.5692      1.786     4.12     1071.996     61.66019     8369.421        76     1.660     1.279 -83.86   0
       434    865.3879    286.2644 307.5720472  +6.5540678     1459.221     2097.838     2386.871     87.13088     174.7498     349.6388      1.533     3.44     1066.174     61.66019     215.8658        14     1.135     0.868 -87.63   0
       435     86.9772    284.2728 307.8956158  +6.5288419     951.6827     1857.847     1464.782      87.2704     174.7498      349.778      1.870     5.69     1092.845     61.66019     129.3644        12     1.429     0.866 -75.60   0
       436    569.8636    281.5871 307.6950264  +6.5461342     2183.125     4142.351     4322.325     87.13088     174.7498      349.604      2.001     4.56     1068.148     61.66019     252.5775        27     1.448     1.206 -87.94   0
       437    107.1514    280.3956 307.8873631  +6.5311206     4961.319     9010.335     9293.319     86.99114     174.7498       349.43      1.910     4.32     1091.739     61.66019     634.8717        33     1.616     1.190 -82.29   0
       438    948.6408    281.7329 307.5375980  +6.5587126     750.3622     1130.299     858.5222     87.68764      174.889     349.8823      1.480     3.52     1060.576     61.66019     124.8528         5     0.808     0.442  73.97   0
       439    553.1425    277.7166 307.7021059  +6.5471734     5982.053     10702.63     11370.23     87.68764     174.9585     349.8823      1.876     4.29     1067.528     61.66019     607.8739        37     1.579     1.281 -77.58   0
       440    282.2218    275.3575 307.8147781  +6.5390761     2025.981     3540.557      2871.25     87.13088     174.8194     349.6388      1.865     4.85     1079.882     61.66019     249.1978        25     1.437     1.183 -59.04   0
       441    416.0940    272.9200 307.7592245  +6.5445682     20897.77     39121.45     41554.43     87.40971     175.2365     349.8823      1.979     4.43     1069.338     61.66019     2372.827        58     1.725     1.370 -80.04   0
       442    594.8144    272.5744 307.6849601  +6.5506898     640.2421     1139.092     994.9971     87.40971     174.7498     349.7432      1.859     4.82     1066.784     61.66019     101.1228         6     0.914     0.721  75.25   0
       443    524.0573    271.7330 307.7143952  +6.5486715     980.5784     1815.994     1535.775     87.82627      174.889      349.778      1.888     5.96     1066.633     61.66019     131.5219        12     1.338     0.747 -67.84   0
       444    682.2164    271.1446 307.6486833  +6.5542002     621.3306     848.6418     1244.962     86.99113      174.889     349.5344      1.632     5.05     1068.965     61.66019     91.91638         6     1.075     0.670  82.89   0
       445    396.2791    271.1522 307.7675190  +6.5446346      923.488     1743.193     3169.447     87.68764     175.0281     349.7432      2.271     4.01     1070.558     61.66019     147.3322         8     1.097     0.815 -20.22   0
       446    810.5171    266.1538 307.5955274  +6.5605426     690.4166     951.8784     872.2239     87.68764     174.9585     349.8127      1.746     5.09     1068.241     61.66019     114.0219         7     1.511     0.484  67.91   0
       447    505.1160    263.2827 307.7225518  +6.5515271     7024.786     12920.43     13848.54     87.40971     175.2365     349.8823      1.955     4.47     1065.282     61.66019     774.1769        38     1.659     1.240 -84.95   0
       448    495.7378    267.9843 307.7262911  +6.5492720     1095.169     1886.466     2268.794     87.13088      174.889      349.604      1.895     6.12     1066.065     61.66019     136.5817        15     1.271     0.933 -18.89   0
       449    646.8080    264.9192 307.6636087  +6.5555881     624.4681     781.3034     1014.496      87.2704     174.5408     349.6388      1.549     4.12      1066.83     61.66019     97.41357         5     0.888     0.753 -85.38   0
       450    774.3534    261.8107 307.6107035  +6.5611297     2813.838     4434.685     4977.405     87.13088     174.7498       349.43      1.730     4.28     1068.497     61.66019     365.9807        23     1.404     1.080 -74.15   0
       451    929.7641    261.3189 307.5461281  +6.5665134     804.0463     1374.938     1403.642     87.54878     175.0281     349.8127      1.666     4.02     1060.349     61.66019     167.8881         9     1.219     0.710  76.85   0
       452    721.1907    261.3594 307.6328140  +6.5595419     582.3607     1218.393     1775.204     86.99114     174.7498     349.4996      1.819     3.73     1068.253     61.66019      103.385         5     1.231     0.324 -79.22   0
       453    168.0093    253.6577 307.8629757  +6.5442043     736.4537     1290.232     868.0153     86.99113      174.889     349.4996      1.829     4.04     1086.188     61.66019     108.6924         5     0.815     0.573 -88.95   0
       454    394.9773    247.3876 307.7688613  +6.5544037     6005.866     11068.36     11745.44      87.2704     174.7498     349.7084      1.937     4.48     1068.726     61.66019     700.4825        41     1.690     1.292  89.83   0
       455    250.8387    248.3039 307.8287338  +6.5491943      1846.87     3219.497     3503.972     87.68764     174.8194     349.9518      1.812     5.10     1080.029     61.66019     200.5082        24     1.492     1.072 -76.13   0
       456    748.0357    247.0037 307.6221391  +6.5663657     946.9012     1720.372     1883.044     86.71098     174.8194      349.604      1.903     6.06     1066.265     61.66019     109.6826        13     1.044     0.989 -82.64   0
       457    762.8857    243.3023 307.6160914  +6.5683896     50054.94     80203.45     84058.66     87.68764     175.3753     349.8823      1.734     3.85     1065.536     61.66019     5779.617        67     1.620     1.230 -84.59   0
       458    434.4710    242.8573 307.7526003  +6.5575968     1969.274     3548.497     3657.067     87.82627     174.9585      349.778      1.975     5.23     1065.471     61.66019     203.1332        24     1.480     1.109 -75.13   0
       459    938.6653    239.5513 307.5431585  +6.5757984     2500.737      3492.55     3053.628     87.54878     174.8194      349.778      1.512     3.87     1058.505     61.66019     381.3036        19     1.341     0.851 -74.50   0
       460    580.9723    240.5392 307.6917910  +6.5634551     912.9666     1562.546     808.0818      87.2704     175.0281     349.7084      1.699     5.76     1061.886     61.66019     111.8475        12     1.431     0.652 -66.71   0
       461    421.2326    238.9596 307.7582336  +6.5587630     1668.542     2948.266     3376.378     87.40971     174.7498     349.6388      2.012     7.24     1065.991     61.66019     241.7306        19     1.675     0.875 -61.15   0
       462    997.7480    240.2591 307.5185781  +6.5774733     1995.938     2921.331     2494.368     87.68764     174.9585     349.8127      1.535     3.93     1056.332     61.66019     283.1207        15     1.298     0.730 -89.43   0
       463    471.7167    239.1253 307.7372465  +6.5603845     899.6788     1779.426     2476.142     87.82627     175.3059     349.8823      2.139     5.46     1062.303     61.66019     110.3307        10     1.113     0.754 -15.64   0
       464    841.9969    233.0380 307.5835554  +6.5752666     1144.565     1910.991     2011.866     86.71098     174.6802     349.5692      1.743     5.46     1063.258     61.66019     157.4362        12     1.312     0.641  71.72   0
       465    974.0089    232.4464 307.5287068  +6.5799091     619.4341     890.7477     407.6697     87.13088     174.8194       349.43      1.568     4.64     1056.898     61.66019     114.8989         5     1.080     0.565  77.38   0
       466    761.3352    227.8442 307.6172552  +6.5747209     5751.392     9551.885     10744.46     87.68764      174.889     349.8127      1.823     4.01     1063.119     61.66019     722.2717        36     1.560     1.171 -82.70   0
       467    451.5190    230.1721 307.7459425  +6.5634055     1002.777     1912.264     2201.817     87.54878     174.7498      349.778      2.045     6.40     1062.637     61.66019     122.7184        12     1.234     0.938 -22.44   0
       468    197.7047    229.7564 307.8514422  +6.5550700     1992.192     3586.207     3722.617     87.68764      174.889     349.9518      1.888     5.24     1082.922     61.66019     225.8014        23     1.494     1.077 -56.25   0
       469    777.6290    225.7963 307.6105518  +6.5761101     2516.109     4143.626     4255.324     87.13088     174.7498     349.6388      1.819     4.07     1062.791     61.66019     297.0973        22     1.364     0.987  88.92   0
       470     93.8844    226.4122 307.8947020  +6.5529648      1096.24     1722.626     1715.094      87.2704     174.7498     349.6388      1.614     6.10     1088.756     61.66019      174.146        14     1.516     0.691  57.13   0
       471     80.9247    221.4388 307.9002560  +6.5545829     958.3776     1983.373     1513.766     87.54878     174.9585     349.8475      2.103     6.64     1089.402     61.66019     132.5823        14     1.326     1.140 -79.87   0
       472    367.3240    220.8977 307.7812474  +6.5644154     1402.362     3392.844     3319.397      87.2704     175.2365     349.8127      2.254     7.08     1069.092     61.66019     187.2069        28     1.708     1.337  14.31   0
       473   1015.8966    216.6974 307.5118245  +6.5878066     6524.877     8893.284     8713.756     87.68764     175.5833     349.6388      1.461     3.31     1054.927     61.66019     900.6428        24     1.333     0.859 -87.68  16
       474    493.9843    216.6561 307.7287487  +6.5704075     1671.699     3105.218     3092.399     86.99113      174.889     349.5344      1.929     5.32     1059.092     61.66019     211.6339        19     1.343     1.068 -57.26   0
       475    256.6523    212.3320 307.8275322  +6.5642424     4896.609     8986.162     10388.91     87.54878      174.889     349.7432      1.996     4.61     1078.022     61.66019     510.8644        38     1.667     1.282 -77.54   0
       476    821.0091    211.0068 307.5930183  +6.5836640     542.6776     963.7788     816.1096     86.85117     174.6802     349.6388      1.786     3.76     1060.858     61.66019     88.87415         5     1.004     0.404  61.86   0
       477    775.4841    206.4297 307.6120938  +6.5840355     649.2334     1108.854      1772.18     87.68764     174.7498     349.6736      1.841     3.42     1060.389     61.66019     134.7997         6     0.888     0.717  70.51   0
       478    234.3052    205.1776 307.8370613  +6.5664469     543.0471     1166.882     1297.431     87.68764     174.7498     349.6388      1.654     5.44     1079.827     61.66019     88.41638         7     1.731     0.482 -72.10   0
       479    390.6717    203.2520 307.7721389  +6.5724837     1499.837     3038.641     3085.428     87.54878     174.9585     349.8475      2.087     5.96     1065.386     61.66019      166.311        21     1.467     1.147 -72.72   0
       480    977.5413    201.8436 307.5282645  +6.5926634     1077.913     1214.322     1406.432     87.54878      174.889     349.9171      1.188     4.06     1055.054     61.66019     174.5652        10     1.138     0.603 -84.08   0
       481    160.6026    199.3290 307.8678899  +6.5663882       1477.5     2533.068     2517.861     87.13088     174.5408     349.6388      1.915     4.80      1083.61     61.66019     180.0114        15     1.189     0.956 -70.63   0
       482    313.2315    199.4550 307.8044521  +6.5714566     1019.549     1975.753     1980.871     87.54878     175.0281      349.778      2.030     6.60     1072.763     61.66019     125.1119        12     1.244     0.983 -59.22   0
       483    570.3291    194.5513 307.6977624  +6.5820885     1953.378     3344.319     3641.824     87.68764      174.889     349.8475      1.826     4.51     1057.908     61.66019     224.9386        25     1.458     1.130 -63.57   0
       484    913.9836    193.7490 307.5549535  +6.5938892      1714.01     2716.626     2424.854     87.13088     175.0281     349.4996      1.597     4.02     1056.869     61.66019     223.9829        18     1.323     0.919 -83.84   0
       485    733.8094    192.0638 307.6298981  +6.5885768     4752.932     7812.646     7921.045     87.13088     174.7498      349.604      1.758     3.92     1058.953     61.66019     617.4934        30     1.453     1.154 -78.72   0
       486    674.3972    192.2503 307.6545857  +6.5865161     1854.263     2876.759     3059.444     86.99114     174.6105     349.3603      1.697     4.60     1058.223     61.66019     210.2762        20     1.421     0.951 -74.17   0
       487    929.3655    184.2727 307.5488779  +6.5983146     1031.648     1487.356     1723.403     87.54878      174.889      349.778      1.545     5.14      1055.83     61.66019     157.8547        10     1.265     0.601 -87.56   0
       488    233.2560    177.7433 307.8384239  +6.5777395     1928.629     3683.231     4084.624     87.82627     175.0281     349.8823      2.082     6.45     1079.562     61.66019     185.7115        24     1.427     1.247 -83.90   0
       489    875.9364    176.1650 307.5713577  +6.5998822     1853.911     2809.102     3140.521     87.54878     175.0281     349.8127      1.645     5.08     1056.353     61.66019     204.6766        16     1.337     0.823 -83.23   0
       490    766.3575    175.7214 307.6169189  +6.5964111     1330.545     2226.539     2336.459     87.54878     174.9585     349.8475      1.774     4.95     1056.934     61.66019     167.9165        17     1.365     0.878 -82.41   0
       491    586.8865    171.9834 307.6916402  +6.5919607     608.3497     854.0433     476.6328     87.27041     174.6802     349.7432      1.640     4.77     1056.652     61.66019     96.46582         5     0.999     0.646 -56.42   0
       492    467.4701    167.0135 307.7414412  +6.5900184     18417.93     34370.38     37145.92     87.13088     174.6802     349.6736      2.004     4.95     1057.386     61.66019     1967.621        71     2.221     1.469 -56.03   0
       493    793.1937    166.2728 307.6060819  +6.6012080     12421.51     19847.47     21780.89     87.27041     174.4711     349.7084      1.729     4.05     1055.448     61.66019     1466.551        45     1.519     1.282 -81.02   0
       494    155.4819    160.7035 307.8713236  +6.5821649     1989.442     3880.573     3653.826     87.54878     175.3059     349.9171      1.975     5.97     1081.694     61.66019     215.9976        25     1.559     1.150 -80.56   0
       495    731.6653    162.0640 307.6317975  +6.6008927     660.3802     1056.517    -321.1057     87.68764     174.9585     349.8127      1.738     4.17       1055.7     61.66019     104.2844         6     0.834     0.664  55.67   0
       496    130.2287    160.0890 307.8818399  +6.5815706     980.9125     1549.983     2176.281     87.82627     174.6802     349.7084      2.178     6.09      1083.31     61.66019      121.547        14     1.423     0.811 -55.34   0
       497    929.6191    156.7109 307.5496970  +6.6097039     1499.601     2261.568      2842.11     87.40971     174.6802     349.7084      1.815     3.94     1054.316     61.66019     209.8424        14     1.243     0.760 -82.75   0
       498    311.8860    153.8881 307.8065491  +6.5902265     802.7461     1827.438     1892.407     87.40971     175.2365     349.9518      2.175     7.98     1071.649     61.66019     115.3339        12     1.768     1.007 -57.98   0
       499    591.3064    152.9624 307.6904433  +6.5999625     4077.617     7014.753      7410.61     87.82627     174.8194     349.8823      1.867     4.37     1055.641     61.66019     435.4595        32     1.583     1.124 -80.26   0
       500    553.8506    152.9512 307.7060119  +6.5987148     1693.812     3077.335     3263.952     87.68764     174.8194     349.7432      1.922     4.80     1055.892     61.66019     200.9473        19     1.402     1.000  87.05   0
       501    395.8131    152.0971 307.7717269  +6.5937783     1119.506      2184.74     1808.449     87.54878     174.6802     349.5344      1.998     5.60     1060.927     61.66019     157.9734        13     1.152     1.108 -67.43   0
       502    952.0640    149.9964 307.5405927  +6.6132241     2758.733     3614.795     3874.751     86.99114     174.6802     349.5692      1.426     3.22     1052.637     61.66019     393.9205        18     1.236     0.845  83.76   0
       503    898.2327    149.4190 307.5629877  +6.6116693      11571.6      16815.3     17071.96     87.13088     174.7498      349.604      1.584     3.32     1053.685     61.66019      1664.65        33     1.386     1.023  89.30   0
       504    573.5801    149.5238 307.6979268  +6.6007897     836.7056     1710.454      1376.21     87.27041     174.6105     349.7432      1.985     6.38     1055.601     61.66019     115.3245        10     1.415     0.808 -77.43   0
       505    326.1676    150.8052 307.8007173  +6.5919782     750.4927     1275.278     2008.007     86.99113     174.8194     349.5692      1.805     3.94     1069.371     61.66019     98.38757         6     0.767     0.580 -47.94   0
       506    696.2819    147.3474 307.6469993  +6.6057883     2686.844     4425.212     4720.169     87.68764     174.9585     349.8475      1.725     4.65     1054.957     61.66019      337.651        25     1.558     1.017 -79.44   0
       507     24.5133    146.2117 307.9262456  +6.5837481     22701.74     39533.67     41182.68     87.27041     174.6802     349.6388      1.873     4.23     1087.655     61.66019     2910.956        54     1.734     1.260 -83.26   0
       508    984.8621    147.2589 307.5270515  +6.6154466      10633.3     14843.09     15254.29     87.68764      174.889     349.8475      1.475     3.44     1050.818     61.66019     1417.727        31     1.388     0.927 -84.82   0
       509    270.9883    147.0301 307.8237788  +6.5916868     952.7576     1865.666     1914.123     87.13088     174.6802     349.6736      1.920     5.81     1076.511     61.66019     136.4268        11     1.299     0.998  76.59   0
       510    505.1521    142.2132 307.7266147  +6.6015198     1625.847     2923.647     2382.287     86.99113     174.8194     349.4996      1.838     4.57     1055.416     61.66019     191.7678        21     1.236     1.191  62.40   0
       511    888.9905    138.1555 307.5672073  +6.6160123     2128.357     3182.967     3447.336     87.13088     174.8194     349.4996      1.450     3.15     1052.759     61.66019      326.046        16     1.251     0.744  89.13   0
       512    836.7940    138.9145 307.5888779  +6.6139589     1822.027     2756.871     2710.029     87.13088     174.6105     349.4996      1.596     4.31     1052.981     61.66019     252.2697        16     1.307     0.839 -67.07   0
       513    517.0153    138.2266 307.7218181  +6.6035628     2129.062     3777.325     3403.664      87.2704     174.7498     349.7432      1.841     4.51     1055.185     61.66019     250.0402        26     1.412     1.221 -70.76   0
       514    748.4572    135.4330 307.6257129  +6.6124497     38054.04     59863.18      62066.8     87.54878     175.0281      349.778      1.742     3.82      1053.59     61.66019     4703.998        54     1.578     1.189 -85.20   0
       515    351.5398    135.0562 307.7907032  +6.5993314     5330.753     11260.79     13099.92     87.82627     174.9585     349.8475      2.283     6.27     1065.077     61.66019      495.119        51     2.295     1.248 -75.86   0
       516   1020.5378    133.1051 307.5126967  +6.6224786       2026.4     2878.624     2777.244     87.54878     175.0281     313.3794      1.450     3.03     1047.839     61.66019     330.8658        15     1.221     0.765 -75.53  16
       517    982.2266    134.1944 307.5285850  +6.6207535     2972.871     4220.878     4603.161     87.13088     174.7498      349.604      1.491     3.10      1049.75     61.66019     485.9197        18     1.190     0.843 -76.22   0
       518    916.3779    132.5976 307.5560097  +6.6192198     7726.078     11098.57     10813.32     87.27041     174.6105     349.5344      1.551     3.44     1052.193     61.66019     1099.351        32     1.356     1.062 -85.29   0
       519    459.8798    131.6618 307.7457873  +6.6043615       4109.5     7619.693     8183.263     87.82627     175.0281     349.8127      1.999     4.63     1055.964     61.66019     424.2822        32     1.605     1.194 -84.84   0
       520    117.2375    123.1345 307.8884887  +6.5963928     4037.723     7387.322     6926.101     87.54878      174.889     349.9171      1.924     4.47     1082.522     61.66019     546.0087        34     1.629     1.222 -78.07   0
       521    936.5338    121.9548 307.5479886  +6.6242859     777.1363      1220.95     1511.836     87.68764      174.889     349.8475      1.671     4.20     1050.731     61.66019     143.0571         7     1.064     0.539 -60.46   0
       522    614.0393    121.6287 307.6820488  +6.6136606     687.0253     1362.919     1298.973      87.2704     174.6802     349.6736      2.123     6.65     1054.021     61.66019     106.5352         9     1.403     0.893 -87.36   0
       523    287.6099    119.7428 307.8177915  +6.6035114     27660.39     51163.31     54908.12     86.99114      174.889     349.4996      1.962     4.57     1075.344     61.66019     3000.249        64     1.777     1.357 -81.54   0
       524    262.9592    120.8888 307.8279986  +6.6022115     5336.514     10050.09     10832.58     87.68764      174.889     349.8475      1.993     4.44     1076.652     61.66019     601.7373        38     1.639     1.318 -79.88   0
       525    716.8796    119.3407 307.6393793  +6.6180405     790.5356       980.31      772.012     87.82627     174.9585     349.7432      1.404     5.58      1052.98     61.66019     121.3154         8     1.033     0.849 -45.81   0
       526    167.7060    116.6229 307.8677329  +6.6007764     3325.426     5932.864     5810.193     87.68764     174.7498     349.6388      1.915     4.68     1080.084     61.66019     336.4283        29     1.577     1.149 -81.41   0
       527    411.6525    115.1890 307.7663880  +6.6095486     40920.38     75908.47     80011.96     86.99114      174.889     349.5344      1.941     4.58     1057.819     61.66019     4216.552        64     1.743     1.362 -81.86   0
       528    428.6952    115.7333 307.7592859  +6.6098946     1160.485     2190.231     2546.957     87.68764      175.167     349.8127      2.121     7.19     1056.691     61.66019     145.2617        15     1.224     1.184  21.22   0
       529    315.6454    112.9573 307.8063679  +6.6072531     15182.46     28117.73     31150.34     87.68764     174.9585     349.7432      1.996     4.60     1070.857     61.66019     1578.742        52     1.763     1.319 -84.57   0
       530    323.2156    112.5703 307.8032346  +6.6076667     1659.966     3768.501     5462.339     87.27041     174.6802     349.7432      2.837     7.63     1069.711     61.66019     190.6136        28     1.933     1.207 -73.48   0
       531    750.8905    111.3549 307.6255106  +6.6224732     31172.71     49701.32     51899.16     87.68764      174.889     349.9518      1.710     3.85     1051.839     61.66019     3666.547        52     1.572     1.183 -82.63   0
       532    699.0461    113.9573 307.6469730  +6.6196680     868.7152     1301.113     1093.342     87.68764     174.9585     349.7432      1.623     4.86     1052.967     61.66019     133.5007         9     0.945     0.789  18.47   0
       533    798.8560    111.8964 307.6055547  +6.6238500     1200.923     1993.901     2008.218     87.54878      174.889     350.0214      1.783     3.78     1050.983     61.66019     184.5281        11     0.979     0.858  -8.87   0
       534     67.7656    108.7489 307.9095370  +6.6006704      7955.81     13989.76     14275.71     87.54878     174.9585     349.7084      1.870     4.24     1084.295     61.66019     906.3925        41     1.614     1.232 -84.92   0
       535    101.8138    107.0800 307.8954421  +6.6025036     1187.806     1743.425     1747.047      87.2704     174.6802      349.604      1.595     5.94     1082.414     61.66019     129.5667        13     1.161     0.855 -39.62   0
       536   1009.2647    105.9159 307.5182939  +6.6333305     1116.107      1605.58     2143.288     87.82627      175.167     349.8823      1.543     3.78     1045.891     61.66019     188.8717         9     1.098     0.553  84.84   0
       537     19.8979    105.2777 307.9295493  +6.6004945     892.5619     2292.904     2723.918     87.27041     175.2365     349.8127      2.698     8.46     1086.793     61.66019     135.4011        15     1.452     1.377  24.13   0
       538    976.4611    105.2315 307.5319527  +6.6325211      573.487     656.8086     362.3551     87.40971     175.0281     349.7432      1.432     3.44     1047.333     61.66019     100.9297         5     0.781     0.438  68.36   0
       539    734.9490     99.5152 307.6325348  +6.6268300     576.5237     689.1958     447.4102     87.68764      174.889     349.9171      1.391     4.89     1051.392     61.66019     84.01526         6     1.071     0.632 -56.07   0
       540    584.6574     96.5323 307.6951063  +6.6230411     751.4239     879.7054     1014.543     87.82627      174.889      349.778      1.519     4.92     1052.853     61.66019     86.03833         6     0.979     0.701 -21.67   0
       541      1.6622     94.2721 307.9375010  +6.6044254     725.4404     1073.252     1651.731     80.75366     144.5744     269.3696      1.406     3.51     1087.719     61.66019     155.6365         5     0.764     0.466 -82.45  24
       542   1010.2335     91.8961 307.5183611  +6.6391518     2510.195     3867.099     4889.226     87.82627     174.8194     349.9518      1.810     3.75     1044.512     61.66019     384.1022        19     1.274     0.894  85.53   0
       543    593.6895     90.0536 307.6915700  +6.6260182      782.066     1435.179     1471.724     87.68764     174.7498     349.9518      1.881     5.77     1052.535     61.66019     103.9283         8     1.217     0.770 -75.56   0
       544    286.5113     85.9826 307.8193879  +6.6174143     25513.17     46952.22     50162.75     87.40971     174.6802     349.6736      1.948     4.74     1075.287     61.66019     2816.685        58     1.743     1.344 -83.53   0
       545    601.4147     87.9065 307.6884312  +6.6271630     1681.606     2926.365     3247.271      87.4097     174.6802     349.6388      1.876     4.52     1052.422     61.66019     210.3638        21     1.308     1.077 -74.54   0
       546     31.9828     84.5953 307.9252266  +6.6094405     3932.153     7135.838     8156.352      87.2704     174.6105     349.6388      1.955     4.35     1085.892     61.66019     447.5114        36     1.708     1.210 -72.05   0
       547    718.0718     82.6091 307.6401185  +6.6332474       7294.3      11936.4     12618.03     87.13088     174.4711      349.604      1.737     3.97     1050.515     61.66019     833.5228        33     1.498     1.111 -87.40   0
       548    195.3046     83.3273 307.8573872  +6.6154507     619.8277     1091.683     909.8478     87.54878     175.0976     349.8127      1.799     5.24     1078.244     61.66019     124.5363         6     1.204     0.644  22.77   0
       549    272.7372     81.5693 307.8252621  +6.6187747     695.4604     1210.707     2018.103     87.40971     175.0281      349.778      1.819     4.01     1075.721     61.66019     106.0768         6     0.868     0.531 -42.40   0
       550    128.9482     79.7304 307.8850891  +6.6147078     4064.158     7390.082     7836.311     87.54878     174.8194      349.778      1.901     4.39     1080.181     61.66019     466.0826        31     1.606     1.133 -86.57   0
       551    656.3411     77.1492 307.6659619  +6.6334403     879.1285     1276.229     1069.472     87.68764     174.9585     349.8127      1.700     5.62     1051.676     61.66019     105.3868        10     1.046     0.851  37.63   0
       552    591.0105     77.7318 307.6930984  +6.6310165     693.3818     1177.692     1187.026     87.13088     174.7498     349.6388      1.727     6.11     1052.014     61.66019      83.6095         7     1.045     1.003 -31.95   0
       553    468.1814     77.2478 307.7441705  +6.6271076     1138.096     1811.979     1531.866     87.13088     174.9585      349.604      1.696     6.09     1053.366     61.66019      132.731        14     1.150     0.961 -68.35   0
       554    399.5375     75.9187 307.7727478  +6.6253579     3387.517     6361.638      7098.99     87.82627     174.9585     349.8127      2.020     4.75     1058.545     61.66019     320.8165        34     1.589     1.262  71.42   0
       555    364.0427     74.5849 307.7875465  +6.6247195      2586.26     4959.745     4813.358     87.13088     174.6802     349.5692      1.951     4.88     1063.176     61.66019     288.1461        32     1.605     1.290 -80.57   0
       556    576.2343     74.6493 307.6993441  +6.6317953     641.4479     1193.915     1569.499     87.54878     174.9585     349.7432      2.456     7.45     1051.988     61.66019     127.2661         7     1.610     0.964 -80.87   0
       557    118.6307     74.3653 307.8895588  +6.6165764     1421.127     2483.746     2405.333     87.27041     174.6802     349.5692      1.886     4.68     1080.194     61.66019     207.4344        17     1.296     1.022  79.22   0
       558   1010.7474     68.2966 307.5189386  +6.6489137     1656.674     2084.446     2294.126     87.54878     174.9585     350.0909      1.421     3.56     1042.079     61.66019     255.5695        13     1.176     0.674 -87.79   0
       559    215.9467     63.6290 307.8494729  +6.6242770     4567.622     8528.719     8816.784      87.4097     175.0281     349.7084      1.941     4.53     1076.814     61.66019     538.5314        36     1.727     1.196 -82.57   0
       560     98.6688     63.4356 307.8982254  +6.6204186     1852.797     3324.901      2909.89     87.54878     175.0281     349.9171      1.887     4.25     1080.166     61.66019     238.2283        24     1.378     1.180 -87.58   0
       561    677.6960     62.2285 307.6575871  +6.6403147      5734.72     9358.956     9488.082     87.82627     174.6802      349.778      1.756     3.88     1050.719     61.66019     684.5654        32     1.498     1.144 -81.19   0
       562    826.0210     61.9384 307.5959407  +6.6453847     999.0942     1405.067     1422.863     87.27041     174.9585     349.7084      1.524     5.10     1046.685     61.66019     139.7004         9     1.009     0.729  -7.17   0
       563    629.8641     59.5501 307.6775599  +6.6398226     8445.744     14435.49     15675.65     87.54878      174.889     349.8475      1.851     4.06     1050.958     61.66019     869.5746        44     1.636     1.245 -81.14   3
       564    633.3687     51.0768 307.6763882  +6.6434385     47945.25     80066.84     83573.09     87.54878     175.0281      349.778      1.794     4.18      1050.52     61.66019     5310.759        62     1.636     1.261 -84.35   3
       565    567.3624     59.3225 307.7035480  +6.6378273     533.1926      1043.83     1399.913     87.54878     175.0281     349.8127      1.825     4.27     1051.465     61.66019     105.0212         5     1.087     0.479  87.47   0
       566     28.5443     58.7146 307.9275317  +6.6200109     1008.595     1618.767     1665.923     87.68764     174.9585     349.9518      1.717     4.57     1086.187     61.66019     127.9445        11     0.957     0.848 -16.60   0
       567    356.9337     55.5138 307.7911448  +6.6323559     3033.812     5897.543     6670.463     87.68764      175.167     349.8823      2.083     4.77     1063.972     61.66019     336.6217        30     1.555     1.221 -75.82   0
       568    538.6179     54.5890 307.7156557  +6.6388205     1546.956     2833.127     2674.566     87.27041     174.6105     349.7084      1.858     4.62     1051.637     61.66019     186.0468        20     1.277     1.079 -80.11   0
       569   1003.2169     54.3859 307.5225353  +6.6544071     732.3912     1092.224      1009.96     87.40971     174.6105     349.7432      1.173     3.69      1041.08     61.66019     169.8407         6     0.954     0.411  87.90   0
       570    312.3598     44.8596 307.8100321  +6.6352609     3056.079     5686.511     5662.408     87.68764     174.9585     349.8823      1.949     4.98     1071.288     61.66019     301.3474        30     1.608     1.176  87.50   0
       571    589.6185   1020.6036 307.6619635  +6.2416378     977.7642     1404.265     1461.057     87.27041     174.4013     312.1346      1.594     4.09     1101.774     61.66019      154.348         7     0.992     0.482 -85.78  16
       572    712.2991     38.9867 307.6439847  +6.6510671     932.1389     1514.064      1423.23      87.4097     174.6802     349.5344      1.716     4.64     1047.616     61.66019     130.6464        10     0.959     0.842 -87.26   0
       573    683.8190     38.4188 307.6558426  +6.6503506     1281.811      2037.68     1871.699     87.40971      174.889     349.7432      1.702     6.22     1049.208     61.66019     146.2316        13     1.236     0.879 -38.93   0
       574    697.8138     35.1763 307.6501342  +6.6521568      3055.84     4814.197      4926.95     87.40971     174.7498     349.7432      1.656     3.85     1048.194     61.66019     351.5538        23     1.253     1.092 -84.35   0
       575    291.6986   1019.9911 307.7857242  +6.2319243     2713.269      3635.25     3481.761      87.4097     174.5408     320.3672      1.373     3.24     1110.407     61.66019     437.7292        17     1.198     0.780 -80.53  16
       576    893.9818     22.3316 307.5690195  +6.6640048      2185.39     3044.003     3383.615      87.2704     174.8194     349.7432      1.449     3.53     1042.572     61.66019     322.3318        15     1.213     0.747  89.62   0
       577    656.4371   1017.3920 307.6343178  +6.2451953     1109.296      1347.15     1196.751     86.85117     174.6802       345.79      1.208     4.41     1098.631     61.66019     205.3293         9     1.290     0.494  88.05  16
       578    609.4218   1014.1466 307.6539550  +6.2449655     2467.931     3087.022     2982.022     87.13088     174.9585      349.604      1.374     3.42      1101.22     61.66019     368.1327        16     1.194     0.797  89.10   0
       579    250.0147     19.3095 307.8368094  +6.6437198      667.831     1220.231     1269.912      87.4097     174.7498     349.6388      1.782     5.01     1074.831     61.66019     130.4006         5     1.275     0.558 -82.05   0
       580    909.1726   1012.0983 307.5295174  +6.2558080     1029.885     1449.038     854.9774     87.82627     174.6802      349.778      1.304     3.54     1090.418     61.66019     171.8148         9     1.082     0.564 -84.88   0
       581    165.5748   1010.7234 307.8384205  +6.2315231      19155.9     26568.73     27134.54     87.27041      174.889      349.778      1.479     3.32     1108.748     61.66019     2775.925        35     1.431     0.898 -86.35   0
       582    479.8367   1009.5767 307.7079326  +6.2425219     4444.843     6014.905     6583.383     87.27041     174.6802     349.5692      1.480     3.58     1105.824     61.66019      663.838        22     1.396     0.836 -87.32   0
       583    767.0732     12.5526 307.6221040  +6.6638106     721.4385     1303.515     1914.302     87.68764     175.0281     349.8127      2.131     3.58      1043.23     61.66019     111.1974         5     0.763     0.596 -79.57   0
       584    839.0679   1008.8716 307.5587451  +6.2548051     3690.697     4883.536     5571.618     87.68764     175.0975      349.778      1.349     3.26      1093.99     61.66019      655.317        17     1.298     0.687 -82.75   0
       585    759.9022   1007.4849 307.5916746  +6.2527385     1806.911     2483.042     2420.232     87.68764     175.3753     349.8823      1.419     4.78     1095.757     61.66019     299.5536        16     1.599     0.719 -74.50   0
       586    822.0003   1007.2299 307.5658896  +6.2549142     1353.264     1528.791     1829.786     86.99114     174.7498      349.604      1.283     3.80     1093.946     61.66019     218.1593        12     1.155     0.664 -83.25   0
       587    583.1689   1004.3277 307.6651894  +6.2481431     3423.124     4818.242     4947.021     87.54878     174.9585     349.8127      1.444     3.48     1101.791     61.66019     517.5988        17     1.333     0.713 -84.07   0
       588    288.3040    994.7641 307.7879845  +6.2422271     1731.273     2311.785     2702.013     87.82627     174.8194     349.9866      1.453     3.67     1110.193     61.66019     247.5125        13     1.122     0.698 -84.22   0
       589    712.1333    992.3747 307.6120235  +6.2573845     4898.257      6623.46     7357.479      87.2704     174.8194     349.7084      1.450     2.97     1096.571     61.66019     843.9095        23     1.330     0.821 -78.65   0
       590    907.0605    991.9290 307.5310705  +6.2640662     858.2702     933.1792     1252.398     87.82627     174.9585     349.9171      1.204     3.33      1089.91     61.66019      196.377         7     1.073     0.536 -82.42   0
       591    621.8663    990.8572 307.6495686  +6.2549979     2008.249     2806.937     2436.538     87.82627      174.889      349.778      1.440     3.72     1100.141     61.66019      315.584        13     1.229     0.638 -85.58   0
       592    241.9687    989.3450 307.8074124  +6.2429120     1580.693     2238.291      2896.98     87.54878     175.0281      349.778      1.519     3.15     1109.303     61.66019     250.2026        13     1.122     0.709 -85.44   0
       593   1018.2106    988.5777 307.4850130  +6.2691495     688.7752     518.9974    -426.9341     87.27041     174.6802     339.4694      0.998     2.59     1086.412     61.66019     183.8289         6     0.881     0.407 -88.88  16
       594    525.4232    986.5666 307.6897719  +6.2535473     713.6174     1174.596      700.158     87.13088     174.7498      349.604      1.692     4.53     1103.688     61.66019     109.0762         7     1.191     0.490 -86.54   0
