#   1 NUMBER                 Running object number                                     
#   2 X_IMAGE                Object position along x                                    [pixel]
#   3 Y_IMAGE                Object position along y                                    [pixel]
#   4 ALPHA_J2000            Right ascension of barycenter (J2000)                      [deg]
#   5 DELTA_J2000            Declination of barycenter (J2000)                          [deg]
#   6 FLUX_APER              Flux vector within fixed circular aperture(s)              [count]
#   9 FLUXERR_APER           RMS error vector for aperture flux(es)                     [count]
#  12 FLUX_RADIUS            Fraction-of-light radii                                    [pixel]
#  13 FWHM_IMAGE             FWHM assuming a gaussian core                              [pixel]
#  14 BACKGROUND             Background at centroid position                            [count]
#  15 THRESHOLD              Detection threshold above background                       [count]
#  16 FLUX_MAX               Peak flux above background                                 [count]
#  17 ISOAREA_IMAGE          Isophotal area above Analysis threshold                    [pixel**2]
#  18 A_IMAGE                Profile RMS along major axis                               [pixel]
#  19 B_IMAGE                Profile RMS along minor axis                               [pixel]
#  20 THETA_IMAGE            Position angle (CCW/x)                                     [deg]
#  21 FLAGS                  Extraction flags                                          
         1     24.6906     70.9497 307.9360460  +6.6320878     751493.8      1485014      1600272     78.14458     155.7318     311.9285      2.071     3.76     833.6228      54.9497     62228.57       442     2.070     1.868 -72.53   4
         2    644.6597     14.4662 307.6803917  +6.6761966     3472.052     5714.957     6765.566     78.26813     155.8558     311.7426      1.963     5.56     826.4004      54.9497     617.4916        33     1.982     0.996  79.81   0
         3    463.5347     15.5648 307.7556036  +6.6696818     26111.02     35655.84      36929.8     78.02084     155.9178     311.7736      1.478     2.81     826.3536      54.9497     3822.004        51     1.334     1.157 -72.55   0
         4    284.1146     15.9626 307.8301285  +6.6635021     10399.95      14371.7     15019.58     78.14458     155.9178     311.7426      1.435     2.89     832.6948      54.9497     1707.641        31     1.247     1.023 -78.29   0
         5    941.4485     15.4244 307.5570545  +6.6857085     2076.381     2907.546     2988.396     77.77276     155.9178     311.6496      1.532     3.87       826.13      54.9497     272.8188        16     1.194     0.837 -74.24   0
         6     49.5139     15.6478 307.9275981  +6.6557496     2529.629     3444.179     3216.764     78.14458     155.8558     311.7426      1.481     3.04      829.692      54.9497     358.3322        20     1.175     1.012 -10.30   0
         7    271.9824     12.5972 307.8352818  +6.6644840      3619.07     4892.456     5082.785     77.77276     155.4834     311.5255      1.408     2.95     832.2017      54.9497     572.5339        21     1.205     0.878 -86.79   0
         8    325.2410     10.5644 307.8132245  +6.6671102     1120.351      1499.65     1985.777      77.8969     155.9178     311.5876      1.510     3.72     832.9731      54.9497     183.1454        12     1.052     0.782 -64.58   0
         9    962.1736      5.6805 307.5487693  +6.6904214     1139.656     1530.267     1370.888     78.02084     155.7318     292.6215      1.484     3.08     824.7219      54.9497     184.2386        12     0.978     0.812 -70.58  16
        10    713.4772      5.1903 307.6521115  +6.6823256     1993.449     2730.958     2683.713     77.77276     155.5455     287.3906      1.438     3.19     825.7899      54.9497     312.6176        16     1.156     0.838 -76.01  16
        11    118.3259      5.7620 307.8993452  +6.6621441     690.1933     1012.162     843.5912     78.02084     155.9797      293.347      1.640     4.19     827.6607      54.9497     113.0366         7     1.122     0.447 -63.41  16
        12    224.3982      1.5492 307.8554215  +6.6674469     603.7529     679.7593     632.0622     69.78396     126.7231     237.7487      1.027     4.11     829.9574      54.9497     134.7451         6     0.864     0.558  45.81  24
        13    279.9472      1.2768 307.8323535  +6.6694241     498.9505     609.9917     1112.245     67.38904     123.0873      233.732      1.189     4.27     832.6641      54.9497     105.3359         7     1.181     0.440  -4.23  24
        14    454.9435   1005.0142 307.7259875  +6.2609618     4118.506     6347.054     7071.229     77.52388     155.7938     311.4325      1.628     3.21     859.2311      54.9497      588.941        29     1.337     1.128 -58.46   0
        15    822.0482   1023.2705 307.5729829  +6.2656906     8422.318     10734.63     11066.51     72.63345     129.6627     240.8578      1.313     3.33      856.507      54.9497     1532.482        25     1.313     0.843  -3.83  24
        16     92.7459   1023.5312 307.8757149  +6.2411744     3644.764     4523.531     4386.309     69.64536     125.8816     236.7714      1.184     2.99      854.592      54.9497     833.4763        15     1.209     0.622  -3.50  24
        17    596.3253   1003.9125 307.6673338  +6.2661453      4208.99     6759.184     7733.366     78.14458     156.2273     311.8046      1.747     3.40     859.3061      54.9497      579.536        27     1.392     1.039 -84.16   0
        18    732.5562   1003.9097 307.6107805  +6.2706968      1265.22     1968.786     2403.276     78.14458     155.8558     311.8355      1.756     5.70     857.3403      54.9497     163.2958        14     1.294     0.968 -31.22   0
        19    644.5502    998.1092 307.6475085  +6.2701524     564.7861     756.2051     675.2632     78.14458     155.7318     311.9285      1.580     3.34     858.6408      54.9497     152.4014         6     0.965     0.716 -79.09   0
        20    979.7435    994.2620 307.5084853  +6.2829204     6095.954      10714.5     11236.03     78.26813     155.8558     311.7736      1.871     3.87     854.0923      54.9497     671.7898        44     1.536     1.391 -78.15   0
        21    733.7969    995.1542 307.6105581  +6.2743525     953.5135     1570.139     2849.525     77.52388     155.6697     311.4015      2.342     5.60     857.2109      54.9497       142.74        14     1.226     0.849 -56.21   1
        22    264.2230    994.4518 307.8055123  +6.2589325     1518.894     2139.188     2685.478     77.64842     155.9178     311.6186      1.674     3.60     856.6127      54.9497     205.5635        14     1.077     0.897  86.51   0
        23    739.5192    992.3422 307.6082765  +6.2757043      2710.16     4345.628     5069.101     78.14458     155.9178     311.7426      1.772     3.46     857.0889      54.9497     341.4078        22     1.291     0.998 -85.04   0
        24    462.6833    993.2112 307.7231701  +6.2660930     1012.435     1410.815     1751.042     77.77276     155.6697     311.5876      1.482     3.66     858.9717      54.9497     139.3351        11     1.056     0.795  87.23   0
        25    755.1238    991.5751 307.6018241  +6.2765417     1004.557     1810.337     2169.207     77.77276     155.8558     311.7116      1.924     3.66     856.9018      54.9497      150.294        12     1.136     0.750 -40.23   0
        26    386.0860    990.0719 307.7550724  +6.2648244     2028.549     2822.764     2872.775     78.26813     156.1655     311.7736      1.447     3.50     858.8015      54.9497     314.1833        19     1.267     0.972 -75.80   0
        27    772.9993    979.4744 307.5948075  +6.2821334     7847.645     11902.41     12606.12     77.39915     155.2968     311.5565      1.625     3.26     856.4895      54.9497     1002.266        33     1.376     1.115 -68.23   0
        28    568.5105    980.1056 307.6796773  +6.2750429     4579.996     6670.073     7176.883     78.14458      156.351     311.8046      1.559     3.10     858.8147      54.9497     616.0807        27     1.269     1.047 -67.93   0
        29    538.7359    981.2777 307.6919984  +6.2735634     1233.261     1924.602     1277.494     78.39149     155.9797     311.7426      1.599     3.34     858.8604      54.9497     205.0458        14     1.116     0.819 -71.37   0
        30    318.8004    978.6980 307.7833854  +6.2672650     15548.95     23528.71     25452.21     77.64842     155.5455     311.3704      1.656     3.29     857.5975      54.9497     2157.641        55     1.760     1.200 -43.55   0
        31    442.8200    979.3894 307.7318790  +6.2711336     1029.553     1227.485     1543.296     77.77276     155.6076     311.6186      1.390     2.95     858.6252      54.9497     186.9691        12     1.010     0.771 -53.77   0
        32     15.2846    979.5747 307.9093473  +6.2567158     845.9616     1359.596     1336.781     78.26813     155.6697     311.6186      1.668     4.97     850.4724      54.9497       130.76         9     0.953     0.733 -70.89   0
        33    834.1520    978.8278 307.5694420  +6.2844402      1056.56     1349.505     1340.105     77.77276     155.9178     311.6806      1.373     4.25     855.5771      54.9497     165.9664         7     0.853     0.603  29.96   0
        34    290.3970    976.1974 307.7952600  +6.2673452     900.7338     1499.516     1422.844     77.52389     155.4834     311.5255      1.674     5.90     856.8458      54.9497     131.3801        13     1.390     0.856 -79.18   0
        35    934.3927    972.9401 307.5280237  +6.2902117      8003.52     13880.61     14601.14     77.52388     155.7318     311.5255      1.862     3.69     853.9329      54.9497     972.4441        44     1.473     1.385 -68.21   0
        36    565.7030    972.2982 307.6811042  +6.2781718     8581.241     12980.28     13436.59     78.14458     156.4128     311.5876      1.626     3.21     858.6698      54.9497     1133.309        38     1.396     1.130 -78.92   0
        37    652.6869    974.4391 307.6449224  +6.2801951     538.5379     559.8818      271.142     78.14458     155.8558     311.7426      1.339     3.45     858.0844      54.9497     93.04358         5     0.766     0.448 -20.10   0
        38    907.9647    969.1246 307.5391226  +6.2909061     11537.76      19910.1     21785.54     78.02084     155.9797     311.7426      1.868     3.78     854.2725      54.9497     1393.018        57     1.644     1.396 -79.69   0
        39    620.7903    969.4038 307.6583323  +6.2812080     1550.279     2370.371     2159.353     77.64842     155.6076     311.5876      1.631     3.34     858.3571      54.9497      223.403        16     1.116     0.933 -80.31   0
        40    552.1154    968.1418 307.6868841  +6.2794332     4279.359      6651.76     7258.629     78.14458     155.9178     311.8355      1.719     3.42     858.6358      54.9497     551.1896        35     1.522     1.273 -42.64   0
        41     18.1141    971.0577 307.9084595  +6.2603266     448.9584     789.8501     759.3312     78.14458     155.9178     311.8975      2.038     5.88     850.3647      54.9497     86.29785         7     1.454     0.668 -38.58   0
        42    661.3997    967.2954 307.6415443  +6.2834351     1497.366     2145.263      1691.29     77.64842     155.5455     311.3394      1.463     3.49     857.8682      54.9497     214.3716        14     1.112     0.807  58.01   0
        43     86.9775    966.4277 307.8800299  +6.2645516     907.0881     1559.109     2040.393     77.64842     155.7318     311.6496      2.262     3.59     852.3953      54.9497     135.3293         9     1.104     0.625 -67.18   0
        44    505.2187    964.6966 307.7064678  +6.2792868     2302.719     3140.461     3122.866     78.02084     155.7938     311.5255      1.504     3.46     858.5757      54.9497     297.7769        20     1.230     0.949 -79.36   0
        45    939.7254    956.6179 307.5263542  +6.2971271     41110.51     68582.01     72587.55     77.64842     155.6697     311.6496      1.800     3.57     853.6069      54.9497     4635.917        72     1.583     1.400 -82.09   0
        46     12.5747    956.3583 307.9112536  +6.2662079     3115.015     4573.338     4672.427     77.77276     155.8558     311.5255      1.587     3.20      849.871      54.9497     395.8192        25     1.262     1.047 -70.01   0
        47    246.9708    954.9802 307.8139994  +6.2746471     1880.551     2876.155     3152.973     77.77276     155.7318     311.6186      1.626     3.36       855.12      54.9497     286.8981        16     1.106     0.925 -69.91   0
        48    134.8554    954.2056 307.8605664  +6.2712046     588.5096     896.4263     961.9813     77.64842     155.7318     311.4325      1.374     4.00     852.7497      54.9497     94.32233         6     0.779     0.587 -42.26   0
        49    645.5931    952.9442 307.6485863  +6.2888312     1024.383       1524.4     1531.243     77.64842     155.7938     311.4945      1.667     4.46      857.768      54.9497     125.8495        11     0.999     0.823  35.66   0
        50    837.6984    950.4269 307.5689179  +6.2962823     2517.224     3825.396     3675.648     78.26813     155.6697     311.7116      1.662     3.75     855.0147      54.9497      282.284        22     1.276     1.073 -80.10   0
        51    785.8807    948.2522 307.5905029  +6.2954516     6674.363     10408.91     11392.28     78.14458     155.9178     311.7426      1.677     3.35     855.8472      54.9497      877.347        36     1.489     1.141 -85.54   0
        52    572.4379    947.4006 307.6791418  +6.2886746     1044.704     1618.338     1407.958     77.27421     155.7318     311.5565      1.567     3.75     858.1705      54.9497     150.9521         9     1.001     0.613 -87.64   0
        53    254.9398    947.3631 307.8109471  +6.2780586     1641.112      2350.96     2615.038     78.14458     155.9797     311.7116      1.620     3.81     855.1445      54.9497     245.7319        12     1.017     0.816 -73.29   0
        54    219.8880    947.0970 307.8255068  +6.2769927     786.6241     1367.289     1829.837     78.14458      156.351     311.7736      1.756     5.30     854.1152      54.9497     123.7779         9     0.971     0.907 -51.89   0
        55     80.3053    945.3909 307.8835073  +6.2730110     2906.764     4458.534     4749.082     77.77276     155.5455     311.5255      1.653     3.36      851.492      54.9497     399.0598        24     1.341     1.031 -69.31   0
        56    974.0416    943.2973 307.5125518  +6.3037689     6328.146     10624.12     10738.97     78.14458     155.7938     311.9595      1.776     3.60     852.2882      54.9497     808.3229        40     1.441     1.319 -59.01   0
        57    230.8578    939.0971 307.8212218  +6.2806630     746.2403     1025.208     1717.963     78.02084     155.8558     311.8975      1.511     5.29     854.1617      54.9497     101.0049         9     1.111     0.711  75.92   0
        58    656.2302    937.6116 307.6446832  +6.2955157      764.689     884.9127     563.9229     77.64842     155.6697     311.5876      1.287     3.40     857.4072      54.9497     113.7086         8     0.931     0.600  64.73   0
        59    947.8168    935.1664 307.5237104  +6.3062519     2036.902     3412.409     3142.023     77.77276     155.7318     311.6186      1.767     4.10      852.978      54.9497     236.6443        21     1.297     1.038 -61.38   0
        60      5.3597    933.4209 307.9150208  +6.2754333     1265.754      1933.59     2189.577     77.77276     155.7318     289.2004      1.656     4.01     849.1505      54.9497     157.2396        13     1.152     0.769 -75.05  16
        61    668.4688    931.0113 307.6398231  +6.2986491      4728.75     6941.619     7157.478     77.64842     155.7318     311.6186      1.541     3.14     857.2031      54.9497     660.6299        26     1.269     1.048 -62.14   0
        62    280.7302    931.2380 307.8007823  +6.2855796      4772.46     6961.928     7240.513     78.02084     155.9178     311.8046      1.531     3.01     855.5825      54.9497     663.9353        30     1.326     1.112 -67.96   0
        63   1018.2615    931.1602 307.4945978  +6.3102514     715.9845     1345.737     1525.407     78.14458     155.9178     302.2693      2.064     6.21     850.1058      54.9497     111.9678        10     1.321     0.821 -79.49  16
        64    807.3561    931.6932 307.5821404  +6.3030036     1483.224     2344.651      2749.76     78.14458     155.8558     311.8665      1.636     3.07     855.2595      54.9497     197.6841        13     0.962     0.877  66.97   0
        65    490.7613    929.1757 307.7136596  +6.2934659     1262.806     1711.981     1110.434     77.77276     155.7318     311.5565      1.395     3.44     858.0229      54.9497     187.1142        11     1.117     0.645 -78.76   0
        66     49.3593    928.5871 307.8969187  +6.2789075     2366.327     3435.709     3836.719     77.64842     155.7318     311.4945      1.594     3.76     850.1829      54.9497      292.519        19     1.264     0.940 -78.66   0
        67    900.7036    927.4536 307.5435275  +6.3078660     935.7903     1235.845     1321.781     78.02084     155.9178     311.9904      1.590     4.31     853.8245      54.9497     135.8505        12     1.091     0.876  78.17   0
        68    316.7214    924.8077 307.7860570  +6.2894405      766.274     1231.469     1620.018     77.77276     155.4212     311.5565      1.455     4.21     856.1926      54.9497     148.3735         8     1.291     0.438 -68.77   0
        69    992.4080    924.6902 307.5055470  +6.3120615     611.3525     1053.942     420.0757     77.77276     155.6076     311.5255      1.842     5.53     851.0367      54.9497     78.48938         7     1.069     0.808 -69.21   0
        70    971.6180    924.2090 307.5141944  +6.3115679     604.4644     967.9854     803.5145      77.8969     155.6697     311.5565      1.948     5.19     851.8035      54.9497     89.56439         6     1.176     0.647  71.80   0
        71    593.0383    923.5887 307.6713866  +6.2991927     1820.625     2498.339     2348.154     77.64842     155.7318     311.4635      1.485     3.12     857.5577      54.9497     269.4076        15     1.082     0.859 -73.96   0
        72   1023.6366    923.2700 307.4926291  +6.3136874     529.0474     722.1835     976.0529      68.2439     124.2592     234.9689      1.342     5.29     849.8143      54.9497     99.30884         7     1.244     0.636 -76.18  24
        73    632.4001    919.9097 307.6551686  +6.3020268     1358.331     1984.068     1892.365     77.39915     155.4212     311.4635      1.542     3.99      857.213      54.9497     193.5151        15     1.215     0.858 -81.44   0
        74     82.0547    920.3839 307.8836223  +6.2833922     918.9664     1433.713     1851.476     77.52388     155.9178     311.4635      1.518     5.29     850.7972      54.9497     125.6238        11     1.230     0.643 -65.22   0
        75    312.3137    917.6031 307.7881286  +6.2922667     1632.804     2182.794     2018.036     77.52389     155.5455     311.4635      1.460     3.45     855.9057      54.9497     265.0913        13     1.099     0.762 -63.67   0
        76    580.3853    915.6486 307.6769054  +6.3020473     699.9145     1055.057     1051.556     77.52389     155.8558     311.4635      1.836     5.87     857.4274      54.9497     85.68536        10     1.146     0.901 -61.06   0
        77    779.1287    913.9686 307.5944514  +6.3093786     940.2623      1340.07     1558.419     78.02084     155.9178     311.7116      1.533     5.29     855.4444      54.9497     124.6898        11     1.156     0.683 -70.58   0
        78    916.6494    910.3452 307.5374782  +6.3154598     6926.278     11182.32     12048.33     78.14458     155.9178     311.8046      1.766     3.46      853.152      54.9497     829.1053        37     1.445     1.239 -81.07   0
        79    154.6415    912.2379 307.8537637  +6.2891923     526.7424      787.144     636.0115      77.8969     155.9797     311.6186      1.443     3.44     852.0926      54.9497     85.88977         5     0.753     0.455 -75.37   0
        80    452.5790    907.4492 307.7302390  +6.3011565     2258.985     3030.333     2896.877     77.64842     155.9797     311.6186      1.490     3.26     856.7399      54.9497     312.8264        19     1.225     0.910 -66.77   0
        81    354.2936    905.8292 307.7710962  +6.2985337     10470.21     14957.01     14995.98     78.26813     155.6697     311.6496      1.538     3.12     856.2438      54.9497     1517.698        35     1.328     1.096 -73.04   0
        82    621.2236    907.1916 307.6602341  +6.3069033     566.7172     659.1906     697.3835     77.77276     155.6697     311.5876      1.345     3.19     857.0607      54.9497     105.2181         5     0.916     0.347 -42.71   0
        83    274.3430    904.7956 307.8043217  +6.2962805     7544.021     11220.19     11671.13     77.52389     155.7938     311.4635      1.592     3.16     854.7189      54.9497     1073.919        41     1.401     1.190 -67.29   0
        84    193.1792    902.9888 307.8380764  +6.2943036     546.3364      826.301     520.4971     77.77276     155.6076     311.6186      1.563     2.56     852.6574      54.9497     109.5115         5     0.774     0.483  31.60   0
        85    602.2916    899.4572 307.6683528  +6.3094633     1323.276     1737.135     1807.809     78.02084     155.8558     311.8355      1.513     3.91     857.0421      54.9497     173.9761        14     1.044     0.969 -41.05   0
        86    787.0104    899.2202 307.5916719  +6.3157297     595.0023     911.8006     496.2967     77.77276     155.6076     311.6186      1.862     3.21     855.0964      54.9497     89.91766         5     0.793     0.494 -56.92   0
        87    932.6626    895.5765 307.5313226  +6.3220899     938.4713     1558.682     1850.762     77.77276     155.9178     311.6496      1.731     4.38     852.3513      54.9497     119.0869        10     0.972     0.805  39.61   0
        88    165.0377    895.4014 307.8500139  +6.2964911     746.9082      1120.55     494.7544     77.27421     155.7318     311.5255      1.467     5.54     852.0091      54.9497     101.0181         8     1.203     0.718  39.87   0
        89    236.1766    895.4062 307.8204813  +6.2988762     535.5217     841.4302      1120.75     77.64842     155.6697     311.6186      1.434     3.47     853.4289      54.9497     70.76569         5     0.782     0.444  19.11   0
        90    888.9184    894.0018 307.5495367  +6.3212822     751.2074      1162.87     717.2873     77.52388     155.5455     311.4635      1.557     4.95     853.3159      54.9497      97.2168         9     0.970     0.716 -21.64   0
        91    430.4108    893.4277 307.7399122  +6.3062023     516.1671     458.3441      445.795     77.77276     155.7318     311.6186      1.071     4.10     856.0457      54.9497     79.83759         5     0.961     0.500 -44.56   0
        92   1000.0470    890.9872 307.5034990  +6.3262285     719.3043     1061.318     1683.848     77.52388     155.7318     311.4945      2.157     5.37     850.7512      54.9497     87.47455         9     1.098     0.741  84.15   0
        93    768.6897    888.4715 307.5996372  +6.3195555     1865.351     2672.901     2848.112     78.14458     156.1655     311.7426      1.494     3.15     855.2001      54.9497     250.8037        16     1.071     0.906  81.85   0
        94    592.5424    888.8258 307.6727561  +6.3135260     634.3403     781.3276     850.1765     77.77276     155.9178     311.5876      1.358     4.35     856.8059      54.9497     98.02118         6     1.095     0.492 -85.43   0
        95   1000.0939    884.3094 307.5037022  +6.3289867     1108.018     1893.083     2020.634     78.14458     156.4128     311.7426      1.845     4.98     850.7567      54.9497     140.8162        16     1.254     1.014 -72.24   0
        96    633.0406    884.9926 307.6560709  +6.3164618     887.3906     1309.633     1070.322     77.52388     155.6697     311.4325      1.492     3.75     856.4727      54.9497     164.4809        11     1.064     0.725  78.81   0
        97     19.1525    885.6409 307.9109036  +6.2956194     971.7707     1527.543     1953.183     78.02084     155.9178     311.6186      1.799     3.01     848.4578      54.9497     151.3674        10     0.935     0.723 -40.89   0
        98    644.2255    884.7668 307.6514349  +6.3169288     669.5498      830.663     970.0031     77.64842     155.7318     311.5565      1.434     3.38     856.3083      54.9497      99.7558         5     0.939     0.352  44.94   0
        99    554.1308    884.1152 307.6888609  +6.3141862     1320.822     1876.976     2116.833     78.26813     156.1655     311.7736      1.512     3.63     856.4142      54.9497     200.1199        13     1.106     0.810 -76.74   0
       100    687.3475    881.7182 307.6336339  +6.3196277     2743.248     3890.021     4440.363     78.14458     155.9178     311.7736      1.564     3.25     855.7426      54.9497     401.1697        19     1.103     0.960 -86.55   0
       101    494.6135    881.9910 307.7136413  +6.3130722     621.3316     1069.609     1154.354      77.8969     155.6697     311.6496      1.870     4.90     856.0209      54.9497     78.64844         5     1.399     0.486 -88.72   0
       102    861.9368    889.0324 307.5609047  +6.3224341     693.2916     1020.071      632.306      77.8969     155.9797     311.7116      1.319     4.72     853.8814      54.9497     108.6598         6     0.871     0.725  47.20   0
       103    977.1020    879.6397 307.5134038  +6.3301488      550.444     613.8414     899.6675     78.14458     155.7938     311.9595      1.230     2.73      851.119      54.9497     104.8097         5     0.849     0.479  -2.37   0
       104    848.2374    878.2025 307.5669539  +6.3264480     947.1682     1242.526     1126.213     77.27421     155.7318     311.5565      1.548     3.73      853.969      54.9497     167.0991        12     1.090     0.961  55.54   0
       105    584.8188    879.1613 307.6762862  +6.3172573      505.269     636.6313    -4752.153     77.77276     155.7318     311.4945      1.051     3.42     856.5197      54.9497     119.9258         5     0.786     0.520  41.26   0
       106    227.5244    876.9771 307.8246923  +6.3061932     2432.413     3389.391      3320.75     77.77276     155.7938     311.6496      1.441     2.94     852.9168      54.9497     378.3567        19     1.143     0.949 -76.16   0
       107    101.3736    877.1747 307.8770559  +6.3018769     2154.557      3315.27     3874.795     77.64842     155.7318     311.6496      1.651     3.74     850.1791      54.9497     321.7225        21     1.426     0.879 -69.79   0
       108     83.3748    877.2788 307.8845244  +6.3012293     2708.014     5725.865     5609.905      77.8969     155.7938     311.7116      2.164     9.11     849.7538      54.9497      986.241        27     1.827     1.269  47.66   0
       109    965.9478    877.0180 307.5181222  +6.3308596     767.6368     1355.676      1404.53     77.64842     155.9797     311.4945      1.784     5.43     851.2401      54.9497     117.7455        11     1.178     0.705 -27.46   0
       110    366.7415    872.9615 307.7670311  +6.3125181     1036.254     1621.726     1989.308     78.14458     155.9797     311.8046      1.776     4.58       855.26      54.9497     154.8527        11     1.095     0.938 -79.47   0
       111    261.3434    873.6130 307.8107655  +6.3087162     876.1865     1227.073     1061.805     77.52389     155.8558     311.4325      1.488     3.94     853.6556      54.9497     144.1196         9     1.059     0.708 -86.68   0
       112    681.9819    870.8682 307.6362245  +6.3239273     7526.599     10735.34     11136.83     77.77276     155.8558     311.6806      1.486     3.08     855.4623      54.9497     1139.456        30     1.312     1.008 -80.71   0
       113     41.9284    869.2194 307.9020014  +6.3031634      1369.08     1972.349     1973.357     77.77276     155.7938     311.6806      1.491     3.73      848.608      54.9497     188.7167        13     1.074     0.831 -66.99   0
       114    919.9254    867.2597 307.5375556  +6.3333547     2884.361     4559.559     5019.143     78.39149     155.9178     311.7116      1.682     3.45      851.716      54.9497     383.7747        23     1.260     1.083 -88.83   0
       115     55.0401    867.9216 307.8966020  +6.3041397     1244.493     1841.762     2465.366     78.02084     155.9178     311.7426      1.547     4.15     848.8845      54.9497     168.1166        15     1.226     0.849 -89.38   0
       116    364.9921    864.0636 307.7680559  +6.3161325      17809.6     25234.08     26587.21     77.64842     155.6697     311.5565      1.470     3.09     854.9734      54.9497     2594.164        43     1.333     1.112 -75.59   0
       117     99.5705    865.1128 307.8782102  +6.3067952     1441.771     1877.693     2238.629     78.26813     155.6697     311.6186      1.350     3.32     849.8553      54.9497     205.5905        15     1.206     0.771 -65.61   0
       118    415.4308    863.2072 307.7471445  +6.3181754     761.4158     812.2232     882.7635     77.52389     155.7318     311.5255      1.331     4.03     855.0579      54.9497     111.1487         7     0.989     0.470 -79.63   0
       119    235.8470    863.4437 307.8216919  +6.3120588     1495.837     2001.162     1820.869     78.14458     155.8558     311.7116      1.468     3.05     852.8764      54.9497     229.3823        13     1.031     0.817 -49.44   0
       120    128.3980    854.8918 307.8665865  +6.3119825      1792.08     2394.362      2509.57     77.52388     155.6076     311.4945      1.447     3.39     850.2892      54.9497     214.7819        16     1.110     0.888 -85.45   0
       121    442.4424    854.9231 307.7362080  +6.3224994     1197.273     1463.174     1143.432     78.02084     155.9178     311.7736      1.328     2.94       854.67      54.9497       212.85         9     0.887     0.716 -62.82   0
       122    474.6578    854.0020 307.7228641  +6.3239580      455.885     531.6711     809.6726     77.52388     155.6076     311.4945      1.295     3.08     854.6346      54.9497     94.39435         5     0.864     0.474  88.67   0
       123    523.0157    851.9724 307.7028554  +6.3264139     581.5334     876.2855     1264.237     77.77276     155.7318     311.6496      1.337     4.68     855.1076      54.9497     113.1483         7     1.242     0.500 -63.93   0
       124    696.4722    850.5974 307.6308863  +6.3327790     842.9716     1143.466     2155.163     77.64842     155.5455     311.5876      3.700     4.68      855.144      54.9497     123.8787         9     1.148     0.719 -65.16   0
       125    909.9577    848.8989 307.5423067  +6.3406019      1984.91     2853.491     3139.571     78.14458     155.7938     311.9595      1.538     3.68     851.8856      54.9497      283.979        17     1.181     0.926 -89.51   0
       126    880.8568    848.4438 307.5544043  +6.3398199     2054.938     3308.574      4082.53     78.02084     155.9178     311.7426      1.759     3.93      852.848      54.9497     266.7313        19     1.261     0.990  76.70   0
       127    844.1027    847.7850 307.5696862  +6.3388665     3085.606     4529.241      4666.82     78.02084     155.6697     311.5255      1.567     4.04     853.6198      54.9497     396.1824        25     1.372     1.035 -80.48   0
       128    111.7338    848.2189 307.8737290  +6.3141772     2588.852     3628.388     4041.764     77.77276     155.9178     311.6496      1.472     3.18     849.6923      54.9497     355.0819        16     1.140     0.829 -70.12   0
       129    359.6205    845.9710 307.7708931  +6.3234209     688.1335     869.4673     1439.302     77.64842     155.7318     311.6496      1.412     4.64     854.2787      54.9497     118.3846         7     1.104     0.554 -60.17   0
       130    580.0781    839.2643 307.6795901  +6.3335680     368420.8     518367.6     539294.2     78.39149     155.9797     311.7426      1.505     3.48     855.4996      54.9497     53808.63       167     1.516     1.306 -73.73   4
       131    475.1611    846.1841 307.7229172  +6.3272020     574.9072     991.1836     1496.384     77.77276     155.7318     311.5255      1.765     4.73     854.2259      54.9497     81.03137         6     1.114     0.570 -25.15   0
       132    424.3053    841.8119 307.7441776  +6.3273044     8547.283     11914.62     12311.97      77.8969     155.6697     311.5255      1.468     2.90     854.0031      54.9497     1379.033        30     1.263     1.013 -68.29   0
       133    667.6567    842.3000 307.6431275  +6.3352417     1301.314      1856.62     1934.934      77.8969     155.9178     311.9595      1.536     3.08     855.1428      54.9497     183.8193        12     0.948     0.844  84.55   0
       134    367.5234    840.2170 307.7678051  +6.3260609     13925.33     19853.42     20278.35     77.64842     155.6697     311.6186      1.512     2.96     854.0303      54.9497     1944.238        42     1.320     1.164 -63.48   0
       135    685.8642    836.4989 307.6357621  +6.3382445     3964.652     5780.809     5996.027     78.14458     155.9797     311.7736      1.567     3.08     854.9977      54.9497     576.7344        28     1.270     1.125 -86.86   0
       136    918.0128    835.3683 307.5394138  +6.3464558     5093.268     8102.412      9890.93     77.64842     155.6697     311.6806      1.883     3.66     851.5229      54.9497     686.4919        38     1.846     1.330  -5.42   0
       137    757.7799    833.3082 307.6060102  +6.3419627     765.3585      1174.18     1265.413     78.02084     155.7318     311.5876      1.718     5.01     854.5191      54.9497     113.6094         9     1.504     0.472 -77.30   0
       138    769.5998    831.8304 307.6011521  +6.3429672     503.1467     813.1613     1061.831     77.39915     155.7318     311.5565      1.937     4.48     854.3167      54.9497     79.72272         5     1.333     0.429  59.15   0
       139    660.7949    830.5175 307.6463706  +6.3398763     3735.865     5330.941     6152.077     77.64842     155.5455     311.4945      1.549     2.86     855.0841      54.9497     573.1002        23     1.218     0.991 -62.02   0
       140    849.1670    829.6547 307.5681890  +6.3465195     1625.263     2357.357     1757.156     78.02084     155.9178     311.7116      1.486     3.43     853.2833      54.9497     254.6044        16     1.237     0.823 -86.38   0
       141    651.2924    829.0909 307.6503636  +6.3401477     1142.536     1860.391      2328.32     78.14458     156.4128     311.7736      1.728     4.51     855.1405      54.9497     171.2163        12     1.283     0.654 -81.18   3
       142    653.7419    824.8782 307.6494875  +6.3419685     2340.161     3456.461     3943.456     78.26813     155.9178     311.6806      1.514     3.18     855.0555      54.9497     342.5424        17     1.173     0.824 -81.65   3
       143    203.3026    830.1967 307.8363199  +6.3246906     498.8545      678.598     1213.333      77.8969     155.6076     311.4325      1.278     3.77     851.6085      54.9497     112.4425         5     0.865     0.471  42.11   0
       144    975.7851    828.3947 307.5156594  +6.3512591     858.3665     1204.375     1171.087     77.77276     155.6076     311.5876      1.703     5.27     849.9235      54.9497      104.322        10     1.210     0.649  88.20   0
       145    937.3511    823.1987 307.5317906  +6.3521238      3166.92     4741.479     4691.108     77.52388     155.5455     311.3083      1.597     3.36     850.8909      54.9497     425.7745        25     1.258     1.104 -74.68   0
       146    347.5159    823.6979 307.7766658  +6.3322093      1016.26     1354.136      1400.65     78.14458     156.2892     311.8046      1.415     4.48     853.4648      54.9497     127.4489        10     0.995     0.743 -87.72   0
       147    395.4633    819.2429 307.7569088  +6.3356547     3122.142     4318.272      4905.62     78.14458     155.8558     311.7736      1.485     3.11     852.9992      54.9497     465.4711        22     1.162     1.094  89.76   0
       148    364.0639    811.9537 307.7701896  +6.3376117     428.4054      499.778    -234.6793     78.02084     155.8558     311.7736      1.079     3.00     852.9564      54.9497     111.8631         5     0.780     0.505  28.69   0
       149    531.6824    809.0756 307.7006941  +6.3444113     3351.802     4537.436     4003.621     78.39149     156.2273     311.8046      1.406     2.98     854.1661      54.9497      468.118        20     1.152     0.915 -82.51   0
       150    876.2710    808.3992 307.5576451  +6.3561975     1080.122     1412.632     1228.724     77.52389     155.4834     311.5565      1.459     4.12      852.481      54.9497     170.3969        13     1.066     0.995 -34.63   0
       151    596.8733    806.7094 307.6737068  +6.3475680     866.2304     1153.433     973.8558     78.14458     156.1655     311.7736      1.318     3.18     854.8135      54.9497     143.2476         9     0.932     0.625 -75.95   0
       152    578.4999    805.0762 307.6813900  +6.3476279     6683.587     9475.329     9793.014     77.64842     156.0417     311.7426      1.505     3.03     854.6876      54.9497     954.4391        32     1.327     1.001 -78.11   0
       153    585.5056    804.4344 307.6785028  +6.3481271     1361.593     1957.222       1809.5     78.26814     155.7938     311.8355      1.553     4.15     854.6937      54.9497     194.4694        15     1.288     0.844 -77.28   0
       154    496.2003    804.0040 307.7155957  +6.3453177     1765.973     2471.872     2341.234     77.52388     155.4834     311.4945      1.390     3.03     852.6572      54.9497     294.4258        13     1.103     0.682 -84.17   0
       155    290.1532    805.0942 307.8011057  +6.3379659     663.0776     915.9844      664.323     78.02084     155.8558     311.8665      1.354     3.86     852.7455      54.9497     109.2635         6     0.953     0.449 -53.34   0
       156    914.2347    803.2350 307.5420547  +6.3595946     1479.875     2203.851      1697.51      77.8969     155.6697     311.4945      1.534     3.62     851.4139      54.9497     176.7744        14     1.080     0.852  68.40   0
       157    137.9050    803.1798 307.8643786  +6.3336474     1504.031     2021.165     1954.614     78.02084     155.7318     311.5565      1.417     3.10     848.9291      54.9497     234.0791        12     1.063     0.701 -78.11   0
       158    714.0689    802.2194 307.6251980  +6.3533369     785.1812     1017.614     912.1981     77.77276     155.7938     311.6806      1.467     5.60     854.5128      54.9497     111.6219        12     1.126     0.907 -74.23   0
       159    549.1516    798.9597 307.6937799  +6.3491714        21682     30459.52     31151.85     78.02084     155.8558     311.6496      1.468     3.00     854.4001      54.9497     3431.424        46     1.338     1.129 -73.32   0
       160    390.3159    800.3531 307.7596796  +6.3432797     827.6837     1246.404     1397.609     78.14458     155.9178     311.7736      1.551     4.13     852.1965      54.9497     134.8307        10     1.192     0.595 -55.40   0
       161    962.7661    797.2101 307.5221051  +6.3636986     3795.927     6041.337     5749.032     77.64842     155.7318     311.5876      1.696     3.37     849.6469      54.9497     502.6389        28     1.307     1.168  67.83   0
       162    195.9609    798.1713 307.8404442  +6.3376638     664.6043     871.2915     972.3627     77.64842     155.6697     311.6186      1.351     3.79     850.6458      54.9497     96.55005         5     0.839     0.491 -65.71   0
       163     83.0909    794.9442 307.8874124  +6.3352057     511.6067     495.4796     748.7502     78.02084     155.7938     311.8665      1.381     5.16     848.0458      54.9497     82.04034         6     1.151     0.653  77.07   0
       164    434.4405    794.7779 307.7415468  +6.3470589     603.9376     756.9205     808.2885     77.77276     155.7318     311.5565      1.344     2.43     851.7323      54.9497     123.0872         5     0.688     0.483 -76.43   0
       165    262.5980    791.9759 307.8129865  +6.3424568     974.0732     2439.191     4508.809     77.77276     155.6076     311.5565      5.262     9.10     851.8854      54.9497      111.546        22     1.600     1.443 -42.62   0
       166     59.5566    789.4827 307.8973667  +6.3366693     1681.453     2349.567     2496.247     78.14458     155.9178     311.7116      1.524     3.86     847.9335      54.9497     224.2188        17     1.293     0.990 -78.20   0
       167    188.9900    789.9667 307.8436140  +6.3408165     556.2186     725.3831     218.5781     77.64842     155.7318     311.5876      1.407     3.75     850.0157      54.9497     80.21063         5     1.049     0.385  56.44   0
       168    604.0327    788.9790 307.6713278  +6.3551263     566.2844     988.8796     719.2276     77.64842     155.7318     311.5876      1.789     4.77     854.1627      54.9497     86.42847         6     0.918     0.703  47.55   0
       169    341.8103    787.6559 307.7802442  +6.3468958     3727.543     5438.892     5742.687     77.52388     155.8558     311.4325      1.552     3.15     852.0629      54.9497     497.6718        24     1.249     1.045 -76.03   0
       170    807.3703    783.4932 307.5870848  +6.3641810     60160.84     84450.83      88189.5     78.26814     155.6697     311.6496      1.557     3.06     852.6381      54.9497     8295.572        75     1.431     1.242 -74.84   0
       171     41.7779    785.7837 307.9048722  +6.3375986     2355.781     3244.845     3462.529      77.8969     155.7318     311.6806      1.453     3.53     847.8271      54.9497      343.509        17     1.236     0.793 -48.12   0
       172    745.5923    785.2146 307.6126780  +6.3614089     537.8332     997.6124     1087.849     77.77276     155.6697     311.5876      2.345     2.97     853.7925      54.9497     105.4075         5     0.729     0.448 -69.44   0
       173    264.5424    781.1694 307.8125421  +6.3469828     6309.038      9958.01     13271.24     78.02084     155.9178     311.6496      2.147     3.14     851.2887      54.9497     832.7023        46     1.784     1.258 -70.71   1
       174    450.5830    782.0084 307.7352727  +6.3528705      883.269     1333.935     1610.669      77.8969     155.6697     311.5876      1.549     4.61     851.3203      54.9497     143.8387         8     1.177     0.514 -66.95   0
       175    932.6479    778.6554 307.5352295  +6.3703547     8806.432     13149.62     13659.56     78.14458     155.9178     311.8355      1.632     3.25     850.5771      54.9497     1116.111        36     1.384     1.139 -70.60   0
       176    735.6109    778.0829 307.6170607  +6.3640196     23200.38     33833.84     36364.96     77.77276     155.6076     311.5876      1.530     3.03     853.7735      54.9497     3172.954        46     1.388     1.152 -77.14   3
       177    729.3007    774.5720 307.6197982  +6.3652583     98083.47     136128.4     141652.9     78.14458     155.6697     311.7116      1.522     3.00     853.6815      54.9497     14941.56        75     1.415     1.187 -74.58   3
       178    374.1472    775.4413 307.7672283  +6.3530214     22948.79     31568.74     32645.24     78.14458     155.9797     311.7426      1.481     2.97     851.3627      54.9497     3487.166        43     1.320     1.097 -66.27   0
       179    233.7387    777.2209 307.8254638  +6.3475794     862.7103     1844.539     3490.503     77.77276     155.9178     311.6806      3.413     6.13      850.618      54.9497     113.4039        13     1.665     0.635 -26.19   0
       180    423.3378    775.6304 307.7467985  +6.3545910     1621.948     2263.549     2503.967      77.8969     155.9797     311.7116      1.452     3.61      851.109      54.9497     241.7482        14     1.185     0.771 -67.67   0
       181    436.0445    773.2928 307.7416012  +6.3559814     24440.36     34188.59     35612.99     78.14458     155.8558     311.8665      1.481     2.96     851.0212      54.9497     3664.513        48     1.352     1.126 -64.06   0
       182    662.8980    774.6161 307.6473675  +6.3630224     839.5602     1100.241     1185.814     78.14458     155.6697     311.5255      1.457     3.79     853.5961      54.9497     153.3743         9     1.078     0.613 -68.05   0
       183    264.1465    759.8303 307.8134233  +6.3557780     768059.1      1702624      1859619     78.02084     155.9797     311.6806      2.209     3.98     850.0876      54.9497     63514.98       562     2.282     2.072 -72.39   4
       184    929.4727    770.1194 307.5368327  +6.3737726      6856.99     10428.11     11074.24     78.39148     156.1655     311.7736      1.646     3.28     850.6007      54.9497     846.2167        35     1.352     1.159 -79.82   0
       185    902.2725    770.7932 307.5481042  +6.3725880     711.3589     874.3787     799.2268     77.77276     155.4834     311.6806      1.408     4.44     851.1315      54.9497     106.2371         7     1.031     0.544  68.38   0
       186    670.0919    769.1709 307.6445627  +6.3655105     6981.459     9818.593     10007.35     78.26813     155.6697     311.6496      1.483     3.05     853.3429      54.9497     1030.453        27     1.290     0.997 -74.01   0
       187    159.9150    769.1635 307.8563845  +6.3484277     614.4175     745.0916     691.4387     78.14458     155.8558     311.7116      1.368     5.38     848.4228      54.9497     99.28613         6     1.060     0.769 -65.55   0
       188    458.9391    767.3997 307.7322931  +6.3591805     1942.292     2731.927     3142.392     77.39915     155.6697     311.4325      1.466     3.84     850.8493      54.9497     253.8297        17     1.234     0.875  78.91   0
       189    409.9216    768.7788 307.7525986  +6.3569700      577.153     849.5729     702.9553     77.77276     155.6076     311.7426      1.490     4.39     850.9145      54.9497     99.94086         5     0.799     0.686 -45.86   0
       190    183.8616    766.5043 307.8465319  +6.3503292     985.4319     1340.151     1342.075      77.8969     155.9797     311.8046      1.364     4.90     848.9078      54.9497     150.0572        10     1.168     0.747 -69.66   0
       191    757.8487    763.6874 307.6083086  +6.3707044     526.7062     853.7155     787.9828     78.14458     155.7938     311.8046      1.597     4.19     852.9495      54.9497     82.75452         6     0.782     0.640 -79.29   0
       192    897.9020    761.3014 307.5502357  +6.3763606     732.8307     1209.467     1408.573     78.14458     156.2892     311.5876      1.826     6.42     851.0059      54.9497     95.56165        11     1.292     0.896 -59.32   0
       193    623.1246    761.1363 307.6643328  +6.3672578     1006.671     1505.196     1908.218     78.39148     155.9178     311.7116      1.377     3.67     853.0052      54.9497     153.8129         9     0.924     0.733 -77.75   0
       194    705.2366    759.3335 307.6302994  +6.3707452      2590.89     3677.571     3221.028     78.02084     155.8558     311.8046      1.532     3.07     853.0925      54.9497     368.7183        22     1.189     1.029 -75.29   0
       195    438.9443    755.9655 307.7409782  +6.3632310      59306.8      83572.6     87389.78     78.02084     155.9178     311.7426      1.473     3.04     850.4752      54.9497     9259.187        69     1.409     1.193 -68.01   0
       196    174.3255    760.1442 307.8507048  +6.3526345     1078.153     1660.674     1867.836     78.02084     155.8558     311.6806      1.601     3.19     848.4352      54.9497     194.0597        10     0.955     0.752 -55.10   0
       197    149.2941    759.9141 307.8611051  +6.3518890     1153.762     1488.318     1207.949     78.14458      156.351     311.8046      1.342     3.56      848.102      54.9497     182.2768        12     1.074     0.766 -56.02   0
       198    981.5320    757.6621 307.5156321  +6.3806491     849.9029     1169.644     1250.228     78.14458     155.8558     311.7736      1.563     4.07     848.7441      54.9497      111.049         8     1.047     0.499 -89.74   0
       199    556.7411    755.0165 307.6921005  +6.3675646     7933.749     10675.04     10858.69     77.64842     155.7938     311.4945      1.411     3.01     852.2513      54.9497     1111.153        26     1.203     0.979 -69.87   0
       200    473.4761    753.6059 307.7267197  +6.3653611     5082.248     6931.037     7723.718     77.77276     155.4212     311.5876      1.490     3.06      850.456      54.9497     770.6724        24     1.238     0.945 -77.93   0
       201    801.9518    751.5072 307.5904032  +6.3772040     12836.76     18100.56     18992.01     78.02084     155.7938     311.8665      1.521     3.04     851.6115      54.9497     1877.303        40     1.351     1.143 -73.52   0
       202     31.0417    747.7688 307.9106093  +6.3529293     1325.579     1844.663     1767.833     77.64842     155.7938     311.5565      1.540     4.61     846.6263      54.9497     171.8734        15     1.177     0.933 -76.54   0
       203    469.9251    746.9822 307.7284161  +6.3679764     2412.502     3536.213     4042.817     77.64842     155.6697     311.6496      1.499     2.93     850.2324      54.9497     383.7866        19     1.178     0.893 -71.66   0
       204    823.6556    745.5640 307.5815899  +6.3803814     1331.098     1718.719     1242.479     78.02084     155.9178     311.7736      1.429     3.75     851.3149      54.9497     174.9096        12     1.142     0.716 -80.71   0
       205    973.2772    772.1744 307.5185757  +6.3743835     2036.238     3036.726     3211.629     77.77276     155.8558     311.7116      1.594     3.40     849.1149      54.9497      280.126        17     1.150     0.906 -82.13   0
       206    159.6214    743.5856 307.8573664  +6.3589759     12900.54     17851.25     19739.89      77.8969     155.6697     311.6496      1.503     2.81     847.7496      54.9497     1751.052        40     1.331     1.135 -74.17   0
       207    991.5009    745.2861 307.5119055  +6.3860899      607.392     921.0376     1400.119     78.14458      156.351     311.8046      1.707     4.83     848.3882      54.9497      90.0448         6     0.928     0.714  62.91   0
       208    167.8040    743.7786 307.8539627  +6.3591709      3241.97     4584.596     4887.903     77.77276     155.6697     311.5255      1.485     2.83     847.8217      54.9497     494.5501        21     1.246     0.926 -75.67   0
       209    151.7517    741.0057 307.8607206  +6.3597766     3130.565     4658.485     5486.421     77.52388     155.7318     311.4325      1.567     2.90     847.6556      54.9497     471.4813        22     1.232     0.917 -68.09   1
       210    947.4427    740.0421 307.5303746  +6.3867873      6888.52     9979.386        10962      77.8969     155.9178     311.6186      1.562     3.03     849.6824      54.9497     961.5278        33     1.276     1.157 -64.87   0
       211    996.7177    739.9700 307.5099166  +6.3884582      1553.05     2498.497     3151.786     78.02084     155.7318     311.7116      1.802     3.58     848.2292      54.9497     200.5651        15     1.105     0.900 -63.85   0
       212    702.9240    737.7790 307.6319805  +6.3795656     1684.315     2196.923     2317.697     77.77276     155.7318     311.6806      1.365     3.21     852.3466      54.9497     303.0065        15     1.131     0.863 -46.27   0
       213    589.8278    737.0242 307.6789651  +6.3760981     2589.216     3226.738     3089.824     77.64842     155.7938     311.5876      1.376     3.03     851.7615      54.9497     407.9034        16     1.076     0.865 -72.61   0
       214    437.5753    736.6406 307.7421946  +6.3711624      1324.05     1953.954     1695.387     77.77276     155.7938     311.5255      1.599     3.93     849.8606      54.9497     193.7133        14     1.212     0.874 -70.37   0
       215    151.9731    734.5117 307.8608470  +6.3624646     2223.218     3253.494     3062.389     78.26813     155.6697     311.6496      1.567     3.59     847.4835      54.9497     310.6345        19     1.147     1.026 -49.53   0
       216    721.3058    735.0923 307.6244378  +6.3812885      605.397     738.0152     348.7055     78.14458     156.4128     311.7426      1.373     3.62      852.422      54.9497     127.4179         5     0.883     0.458 -85.87   0
       217   1001.7919    731.5641 307.5080899  +6.3920971     2010.491     2736.564     3005.601     77.64842     155.7318     311.4945      1.472     3.41     848.0887      54.9497     279.9664        17     1.195     0.869 -85.16   0
       218    971.1955    731.5356 307.5207955  +6.3910900     3365.393     5203.799     5084.672     77.39915     155.6076     311.5565      1.653     3.52     848.9163      54.9497     474.2195        23     1.341     1.012 -83.71   0
       219    941.5216    732.1387 307.5330970  +6.3898525     3182.397     4510.308     4814.673     78.26813     155.9797     311.7116      1.524     3.07     849.6903      54.9497     465.5073        20     1.160     0.969 -78.24   0
       220    694.1161    731.3590 307.6358524  +6.3819216     1612.421     2166.047     2026.478     78.14458     155.8558     311.6806      1.492     3.90     851.9768      54.9497     236.0369        16     1.277     0.848  88.74   0
       221    841.2017    729.6959 307.5748344  +6.3875170     1111.129     1448.698     1455.818     77.64842     155.6697     311.3704      1.459     3.92     850.8712      54.9497     169.7436        13     1.141     0.842 -53.51   0
       222    266.5504    726.4057 307.8135479  +6.3696558     2047.873     2996.525     3494.968     77.64842     155.7318     311.3704      1.578     3.86     848.3245      54.9497     286.5159        20     1.361     1.007 -67.48   0
       223    916.9724    726.8631 307.5434667  +6.3912123     893.7568     1242.037     1275.665     77.77276     155.9178     311.6806      1.515     5.05     850.0691      54.9497     117.6842        10     0.966     0.747 -72.82   0
       224    959.4052    721.9028 307.5260126  +6.3946737     1198.137     1642.028     1176.904      77.8969     155.6076     311.4945      1.568     4.44     849.0916      54.9497     141.1857        18     1.311     0.914 -54.48   0
       225    286.8140    722.0735 307.8052800  +6.3721236     739.0299     943.0284     510.6103     77.64842     155.6697     311.5876      1.321     4.36     848.5298      54.9497     115.5451         7     0.982     0.551  74.90   0
       226    182.3088    721.4706 307.8486904  +6.3688662     804.5786     1078.094     1135.096     78.02084     156.1036     311.7426      1.521     3.50     847.0635      54.9497     149.3497         8     0.942     0.806  86.97   0
       227    986.1896    719.3961 307.5149743  +6.3966006     2565.204     3919.217     4247.981     77.64842     155.6076     311.6496      1.616     3.43     848.4588      54.9497     364.0874        21     1.223     1.032 -88.79   0
       228    933.1823    720.4146 307.5369510  +6.3944144     1072.201     1547.811     1592.632      77.8969     155.6076     311.6806      1.486     4.85     849.6398      54.9497     140.4602        13     1.187     0.846 -85.78   0
       229    705.1890    718.8149 307.6316742  +6.3874695     967.7641     1243.851     1843.576      77.8969     155.6697     311.6806      1.661     3.71     851.6103      54.9497     158.5992        10     1.034     0.699 -65.59   0
       230    496.3701    714.0959 307.7185382  +6.3824367     674.1912     1090.776     885.6214     78.26813     155.6697     311.7736      1.673     3.73     849.8047      54.9497     116.3806         6     0.755     0.633 -48.77   0
       231    426.2000    714.3598 307.7476649  +6.3799787     636.0045     892.6013     1506.331     77.14907     155.5455     311.4015      1.386     3.38      849.019      54.9497     98.30353         5     0.760     0.435  18.99   0
       232    653.6813    712.3922 307.6532764  +6.3884003      781.114     958.0861     1273.754     77.77276     155.5455     311.5876      1.303     3.96     851.0119      54.9497     127.4713         9     1.094     0.635 -87.71   0
       233    829.0398    711.2507 307.5805005  +6.3947255     1303.027     1792.981     1975.396     78.14458     155.9178     311.7426      1.527     3.28     850.6182      54.9497     216.4097        12     1.086     0.706 -58.22   0
       234    915.4331    708.5397 307.5447173  +6.3987250     1645.536     2486.581     2247.243      77.8969     155.9797     311.6806      1.602     3.27     849.6815      54.9497     241.9119        16     1.045     1.014 -76.81   0
       235    889.8573    703.9454 307.5554908  +6.3997691     885.6276     1175.037     978.5594     78.26813     155.9797     311.7736      1.421     3.86      850.012      54.9497     136.5148        10     1.092     0.671 -85.42   0
       236    676.2329    702.8681 307.6442310  +6.3930852      616.072     763.6894     921.2067     78.02084     155.9178     311.7426      1.362     5.37      850.688      54.9497      80.5365         8     1.226     0.663 -49.60   0
       237    872.2130    700.0899 307.5629461  +6.4007724     1690.953     2283.762     2414.236      77.8969     155.6697     311.5876      1.422     3.50     850.2742      54.9497     260.0052        15     1.203     0.803 -80.81   0
       238     71.3321    699.0903 307.8955199  +6.3743769     2671.905     3855.147     4182.177     78.26813     156.0417     311.7116      1.578     3.03     845.9754      54.9497     420.1639        20     1.309     0.872 -75.74   0
       239    135.5768    698.0397 307.8688812  +6.3769689     976.9202     1836.153     2080.281     77.77276     155.7318     311.5255      2.074     7.17     846.1268      54.9497     119.1813        17     1.627     0.887  88.99   0
       240    483.4645    697.7858 307.7244435  +6.3887374     454.5068      671.439     807.5781     77.64842     155.7938     311.6186      1.200     3.00     849.3936      54.9497     93.21136         5     0.725     0.464 -70.77   0
       241    726.8118    690.9087 307.6236290  +6.3997112     561.4557     913.7291     1280.084      77.8969     155.6076     311.5565      1.654     4.68      850.691      54.9497     79.34271         7     1.014     0.614 -13.91   0
       242    684.0242    687.5219 307.6415092  +6.3996804     7120.381     10017.42     10370.54     77.77276     155.7318     311.7116      1.474     2.87     850.1723      54.9497     1134.323        34     1.273     1.122 -76.12   0
       243    630.8283    686.6287 307.6636278  +6.3982717     1633.991     2586.579     2551.745     77.64842     155.6697     311.4945      1.565     4.27     850.0317      54.9497     242.5975        17     1.365     0.905 -39.69   0
       244    552.4950    687.2739 307.6961326  +6.3953863     767.1887     1001.572     961.8026      77.8969     156.1036     311.7426      1.454     3.76     849.6043      54.9497     112.2238         9     0.944     0.724  59.03   0
       245    541.6021    687.1979 307.7006582  +6.3950534      749.142      878.541     689.9213     77.52389     155.4834     311.4325      1.266     4.14     849.5362      54.9497     134.2706         7     1.000     0.489  88.08   0
       246    146.9813    683.3407 307.8646405  +6.3834194     4071.745     5682.698     6035.189     77.77276     155.7938     311.5565      1.467     2.91      845.573      54.9497     621.8533        24     1.225     0.991 -59.44   0
       247   1021.0912    682.6545 307.5017068  +6.4129297     2555.603     3956.176     3865.555     78.02084     153.1668     272.3732      1.607     3.31     848.0089      54.9497     336.8914        24     1.243     1.089  85.99  16
       248    657.9677    683.1242 307.6524759  +6.4006252     2423.702     3250.736     3701.008     78.02084     155.9178     311.7116      1.391     3.38     849.8748      54.9497      373.583        19     1.221     0.882 -78.14   0
       249    333.4822    683.4031 307.7872014  +6.3896509     807.0696     1037.582     1529.821     77.52389     155.5455     311.4325      1.387     3.59     847.1533      54.9497     121.3348         7     0.858     0.659  72.03   0
       250    269.3848    683.0201 307.8138284  +6.3876598     718.6583     759.9075      905.326     77.77276     155.6697     311.6496      1.170     4.08     846.2924      54.9497      130.355         8     0.880     0.696 -44.52   0
       251    800.9317    679.5430 307.5932314  +6.4068768     22721.67     30863.05     31606.06     78.26813     155.8558     311.6806      1.460     2.86       850.16      54.9497     3474.386        40     1.284     1.082 -73.62   0
       252    930.9817    679.3416 307.5392353  +6.4112962     4168.144     5923.184     5989.382     77.77276     155.7938     311.4945      1.490     3.17     848.6597      54.9497     567.2592        28     1.385     0.984 -69.61   0
       253    500.0365    679.8793 307.7181626  +6.3966837     1555.402     2266.778     1840.408     78.02084     155.9797     311.7426      1.493     3.68     849.1772      54.9497     238.7896        15     1.153     0.903 -78.77   0
       254    482.6744    680.8583 307.7253390  +6.3956986     479.1199     472.8023     331.4641     78.14458     155.9178     311.7426      1.160     4.86     849.1387      54.9497     93.15204         6     1.254     0.534 -50.55   0
       255    528.2915    679.5949 307.7064399  +6.3977465     982.8162     1307.161     1509.478     77.77276     155.6076     311.4945      1.673     4.08     849.2654      54.9497     146.0092        11     1.200     0.646 -70.07   0
       256    346.1528    679.2197 307.7820808  +6.3918024     677.9427     912.4244     569.4363     77.77276     155.9178     311.5565      1.391     3.99     847.1364      54.9497     105.8951         6     0.777     0.586  47.53   0
       257    274.4159    673.2586 307.8120673  +6.3918579     6844.322     9464.108     9697.955     77.52389     155.8558     311.4945      1.447     2.86     845.8803      54.9497     1067.272        28     1.236     1.011 -71.71   0
       258    681.4337    672.3609 307.6430921  +6.4058522     7773.502     10904.37     11242.44      77.8969     155.7318     311.5565      1.494     2.83     849.5089      54.9497     1155.916        31     1.258     1.044 -57.77   0
       259    663.8286    673.6401 307.6503596  +6.4047360     1043.162     1471.924     1842.671     77.77276     155.6697     311.6186      1.615     4.70     849.5219      54.9497     137.6162         9     0.981     0.638 -74.90   0
       260    376.7118    671.8736 307.7696386  +6.3958589     799.7601     1052.429     649.8926     78.14458     156.1655     311.7736      1.275     4.46      847.047      54.9497     126.0204         8     0.947     0.596 -75.48   0
       261    941.3816    665.0941 307.5353922  +6.4175241     1321.049      2125.89     1736.968     78.02084     155.6697     311.6496      1.623     3.80     848.2857      54.9497     216.3303        16     1.239     0.956  29.89   0
       262    753.1023    660.7691 307.6137198  +6.4130305     3936.228     5847.803     5817.178     78.26813     155.6697     311.8355      1.578     3.23     849.6268      54.9497     581.8405        27     1.278     1.094 -79.65   0
       263    708.4860    661.3268 307.6322279  +6.4113106      1283.08     1795.711     2273.153     78.26813     156.2273     311.7426      1.484     3.45     849.3035      54.9497     181.6837        12     1.038     0.799 -84.45   0
       264   1019.5522    657.3329 307.5031902  +6.4233313     9390.281     13560.65     13786.98     78.14458     155.8558     290.3674      1.587     3.13     846.9037      54.9497     1216.204        34     1.351     1.096 -87.26  16
       265     18.4782    659.6562 307.9187923  +6.3888777     861.8719     1016.702     905.0402     78.14458     155.9178     311.7426      1.423     5.45     845.0776      54.9497     109.4053        10     1.090     0.769 -42.62   0
       266    957.8972    657.7545 307.5287789  +6.4211041     2433.086     3187.209     3143.967     78.14458     155.7938     311.8975      1.421     3.11     847.8821      54.9497     346.8364        18     1.060     1.006 -66.66   0
       267    760.8141    658.3606 307.6105980  +6.4142821      478.849     611.5467      799.201     77.64842     155.7318     311.4945      1.199     4.77     849.5367      54.9497     91.91205         6     0.975     0.662 -80.09   0
       268   1007.9734    657.9185 307.5079789  +6.4227041     522.6865     689.3152     489.3198     78.02084     155.7318     311.7426      1.157     3.74     847.1534      54.9497     93.94171         5     0.801     0.503 -63.98   0
       269     38.7578    657.2010 307.9104548  +6.3905730     2079.669     3094.396     3304.399     77.52388     155.6076     311.3704      1.501     3.98     844.9828      54.9497     291.9163        20     1.236     1.079 -22.82   0
       270    455.0811    655.7952 307.7376368  +6.4051207      593.356     857.3146     1294.891     77.77276     155.4834     311.4945      1.480     2.76     847.7833      54.9497      119.511         6     0.754     0.539 -38.93   0
       271     96.7826    652.2440 307.8865294  +6.3945693     28334.69     39925.84     41253.55     77.64842     155.7938     311.5255      1.480     2.94     844.6981      54.9497     3952.908        48     1.348     1.137 -71.25   0
       272    557.9971    653.2610 307.6949873  +6.4096106     2366.836     3096.752     3438.634     77.52388     155.6697     311.4635      1.342     2.99     848.5147      54.9497     387.7141        17     1.086     0.870 -72.89   0
       273    526.8331    650.2686 307.7080281  +6.4098034     1538.154     2140.619     1783.976     78.02084     155.9178     311.7736      1.458     3.19     848.3726      54.9497     209.4199        13     1.039     0.800 -72.53   0
       274    948.0104    648.7930 307.5331835  +6.4244740     1054.039     1541.805     1366.797     77.64842     155.7318     311.6496      1.542     3.63     847.7855      54.9497     171.8095        11     1.091     0.716 -86.49   0
       275    567.1085    646.8945 307.6914171  +6.4125434     1090.878     1478.949     1594.183     78.14458     156.4128     311.7426      1.327     3.32     848.3174      54.9497     214.5673        11     1.101     0.719 -86.40   0
       276    742.7316    644.4406 307.6185722  +6.4194247     3990.754     5272.097     5084.289     78.02084     155.9178     311.8355      1.403     2.75          849      54.9497      628.591        23     1.143     0.988 -59.65   0
       277    764.8961    642.8070 307.6094229  +6.4208389     4573.433     6409.577     6485.748      77.8969     155.5455     311.5565      1.461     2.87     849.0429      54.9497     736.8218        25     1.237     0.963 -76.46   0
       278    596.2251    640.7463 307.6795325  +6.4160550     3651.799     5059.099      5508.78     77.64842     155.9797     311.5876      1.430     2.60       848.06      54.9497     645.7673        22     1.112     0.946 -62.06   0
       279    432.3943    641.1921 307.7475468  +6.4103890     1451.367     1903.565     1788.897     77.52389     155.7318     311.5876      1.406     3.45     846.6985      54.9497     223.4329        13     1.134     0.755 -76.90   0
       280    256.9186    640.2295 307.8204421  +6.4049049     1975.306     2747.026     2350.414     78.02084     155.7318     311.7426      1.471     2.95     844.4481      54.9497     322.5726        15     1.059     0.854 -86.93   0
       281   1003.1663    637.6945 307.5106495  +6.4308926     8547.906     12431.22     13157.87     78.26813     155.7938     311.8355      1.573     3.12     845.9562      54.9497     1248.193        35     1.312     1.115 -82.21   0
       282    340.4844    639.6862 307.7857615  +6.4079314     1527.981     2065.865     2318.715      77.8969     156.1036     311.8046      1.338     2.97     845.0028      54.9497     250.3322        12     0.967     0.792  55.83   0
       283    557.1502    638.2341 307.6958423  +6.4157854     780.6768      1172.64      879.123     78.02084     155.9178     311.6806      1.700     3.28     848.0282      54.9497     185.6611         8     1.066     0.710 -27.85   0
       284    722.9441    636.2621 307.6270625  +6.4221401     994.2723      1528.22     1607.038     78.26813     155.9178     311.7426      1.762     3.10     848.4943      54.9497     171.5433         9     0.897     0.643 -73.26   0
       285    114.4436    634.6955 307.8797868  +6.4024063     930.6386     1294.715     1565.761     78.14458     155.8558     311.8665      1.366     3.69     844.2316      54.9497     148.4141         8     0.933     0.696 -66.40   0
       286    448.4475    632.1299 307.7411849  +6.4146674     3166.325     4458.957     4785.895     78.14458     155.8558     311.7736      1.486     2.82     846.8322      54.9497     467.1555        20     1.241     0.847 -65.82   0
       287    161.5280    631.1826 307.8603546  +6.4054377     26276.53      37081.3     38601.38     77.64842     155.8558     311.6496      1.472     2.85     844.0624      54.9497     3824.529        53     1.382     1.157 -68.97   0
       288    829.7657    631.5966 307.5828600  +6.4276310      1307.68     1583.548     1868.266     77.39915     155.7318     311.4945      1.323     4.06     848.8522      54.9497     194.5624        12     1.062     0.826 -42.11   0
       289    665.9689    631.7266 307.6508733  +6.4221093     672.9963      796.362     770.1584     78.02084     155.9178     311.7426      1.178     4.24      847.632      54.9497     94.22552         6     0.911     0.563 -89.05   0
       290    380.8492    626.4777 307.7694440  +6.4147364      931.006     1374.785     1728.879     78.14458     155.9797     311.7116      1.327     4.08     844.9811      54.9497     151.7303         9     1.067     0.603  66.89   0
       291    623.2633    626.0756 307.6687961  +6.4230149     610.8412     700.7365     731.7707     78.39149     155.9178     311.7116      1.254     4.30     847.3612      54.9497     89.37177         7     0.881     0.597 -64.86   0
       292    998.0849    620.5911 307.5133301  +6.4377837     7181.208     11151.35     12287.16     77.77276     155.6076     311.5876      1.693     3.20     845.0725      54.9497     1001.235        35     1.413     1.152  66.81   0
       293     42.5966    620.0161 307.9101129  +6.4060511     1360.954      2078.31     2022.971     77.77276     155.5455     311.5876      1.596     4.20     844.3367      54.9497     179.9586        15     1.207     0.921 -60.63   0
       294    591.5497    615.9474 307.6823044  +6.4261355     54796.14     74574.35     77508.22     78.26813     155.7938     311.7736      1.419     2.77     847.0427      54.9497     8489.565        63     1.332     1.171 -73.14   0
       295    234.8518    617.6010 307.8303652  +6.4135052     783.0222     1400.159     2297.568     77.52388     155.5455     311.3083      2.898     6.31     843.6932      54.9497     103.0579        12     1.439     0.778 -71.19   0
       296    956.3930    617.6576 307.5307414  +6.4376061     655.6497     1085.323      978.427     77.52389     155.7938     311.4635      1.902     5.14     846.6214      54.9497     98.59924         9     0.970     0.771  81.35   0
       297      4.7801    616.4111 307.9259363  +6.4062675     538.1484     668.1896     827.0483     77.77276     155.6076     282.8154      1.559     4.90     844.6276      54.9497     72.19232         5     1.083     0.628 -63.08  16
       298    816.3228    615.1870 307.5889905  +6.4339564     667.8589     817.7249     703.1619     77.77276     155.5455     311.5565      1.262     2.91     848.3577      54.9497     125.6556         7     0.799     0.627 -67.82   0
       299    199.0692    612.7020 307.8453879  +6.4143265     3075.871     4251.846     4286.952     78.02084     156.0417     311.7426      1.453     3.03     843.5773      54.9497     491.7668        21     1.166     0.942 -75.29   0
       300   1002.7417    612.3586 307.5116708  +6.4413372     661.6368     1027.099     1231.045     78.14458     155.9178     311.8046      1.486     4.44     844.3051      54.9497     108.8464         7     0.985     0.570 -63.75   0
       301    521.6486    612.4595 307.7114479  +6.4252373     652.6227     972.7656     918.8965     78.14458     155.9178     311.8046      1.337     3.83     847.2075      54.9497     122.1693         6     0.895     0.471 -84.03   0
       302     91.7610    606.9336 307.8901392  +6.4131037     1546.921     1979.533      2052.23     78.02084     155.8558     311.8355      1.328     2.90     843.6031      54.9497     248.5363        13     1.055     0.784 -64.64   0
       303    488.8185    599.7682 307.7255060  +6.4293775     70706.41     97604.69     101304.4     77.77276     155.7318     311.6186      1.452     2.83     846.6917      54.9497     10742.97        68     1.360     1.184 -75.08   0
       304     32.3514    601.3600 307.9149951  +6.4134074     1848.109     2787.678       3625.5     78.02084     155.9178     311.6496      1.839     3.05     844.1799      54.9497     303.6689        15     1.179     0.818 -83.13   0
       305    674.6844    596.8137 307.6484224  +6.4368124     964.6219     1270.559     1713.567     77.77276     155.7318     311.5876      1.357     3.65      846.467      54.9497     157.8013         8     0.982     0.596  89.51   0
       306    163.3298    594.7450 307.8608319  +6.4205389     1795.109     2469.511     3194.013     78.02084     155.8558     311.7116      1.565     2.88     843.2595      54.9497     302.5587        15     1.094     0.811 -65.61   0
       307    958.5044    592.5063 307.5307038  +6.4480589     608.3771     758.0382     509.6494     78.14458     156.4745     311.6806      1.666     4.71     845.7372      54.9497     110.5798         7     1.308     0.481  83.54   0
       308    442.1523    592.4318 307.7451303  +6.4308436      997.046     1271.931     1177.038      77.8969     155.9178     311.6496      1.356     3.11     845.3837      54.9497     163.6702         8     0.916     0.609 -44.79   0
       309    634.7982    591.6292 307.6651593  +6.4376197     981.9183      1344.28     1402.694     77.64842     155.7318     311.5255      1.498     2.87     846.2325      54.9497     176.0514         8     0.870     0.631 -11.61   0
       310    334.2532    589.0839 307.7900478  +6.4286104     2373.779     3482.666     3670.094     78.14458     155.9178     311.8665      1.541     3.44     843.0891      54.9497     328.7601        22     1.369     0.947 -83.14   0
       311     35.3054    590.3918 307.9141379  +6.4180341     687.2951     922.5042     1802.798     77.77276     155.5455     311.5255      1.247     3.66       844.03      54.9497     118.8423         6     0.891     0.460  89.01   0
       312    343.1834    589.8149 307.7863150  +6.4286080     512.4792     580.6086     383.4864      77.8969     155.6076     311.6806      1.220     3.92     843.1187      54.9497     78.73615         6     0.777     0.566 -36.87   0
       313    486.3477    587.9234 307.7269291  +6.4341842     982.1318     1279.291     881.1219     78.26813     155.9797     311.7426      1.348     4.83     846.2865      54.9497     137.9991        10     1.090     0.767  64.64   0
       314     42.1051    589.0244 307.9113605  +6.4188271     571.6276     840.3106      1100.16     78.26813     155.6697     311.6186      1.509     4.59     843.9415      54.9497     87.39716         5     0.963     0.621 -55.80   0
       315    760.8550    583.1507 307.6130954  +6.4453300     6016.503      8048.47     8038.772     78.14458     155.9178     311.8046      1.393     2.84      847.328      54.9497        967.9        23     1.178     0.928 -63.10   0
       316    814.4290    578.5035 307.5910028  +6.4490362     15748.49      20957.6     21853.54     78.26814     155.6697     311.7426      1.443     2.90     847.7567      54.9497     2332.842        35     1.250     1.046 -71.28   0
       317    556.8172    577.5526 307.6980134  +6.4408231     1211.659     2110.388     2027.203     77.64842     155.8558     311.5255      1.956     7.09     846.0147      54.9497     193.3948        16     2.056     0.684 -78.44   0
       318    638.2556    576.6282 307.6642257  +6.4439276     3253.933      4427.99     4407.656     77.77276     155.9797     311.6186      1.486     2.96     845.9346      54.9497     505.2946        18     1.100     0.909 -73.93   0
       319    955.4501    572.5984 307.5326365  +6.4561752      1252.11     1621.267     1882.584     77.52389     155.5455     311.3394      1.443     3.59     845.2697      54.9497     172.6836        11     0.967     0.760 -78.35   0
       320    396.6288    570.3943 307.7647735  +6.4384156     1100.304     1464.065     1657.635     77.64842     155.7318     311.5565      1.431     2.91     843.6592      54.9497     182.2933        11     0.974     0.737  77.04   0
       321    250.7374    570.2093 307.8253615  +6.4336007     1444.727     2054.258     2163.198     77.52388     155.7318     311.5255      1.580     4.03     842.7893      54.9497     206.6885        16     1.200     0.930 -77.79   0
       322    214.6768    571.2783 307.8402996  +6.4319494     714.5864     1041.027     1127.361     78.39149     156.1655     311.8355      1.340     2.75     842.8018      54.9497      133.054         6     0.733     0.563 -39.11   0
       323    381.0232    570.1555 307.7712618  +6.4379913     618.6527     975.2332     1159.355     77.64842     155.9178     311.5876      1.634     3.89     843.3822      54.9497     83.25085         6     0.964     0.450 -36.34   0
       324    890.5779    561.6700 307.5599418  +6.4585246     2985.641     4206.278     3975.097     77.77276     155.8558     311.7116      1.540     3.13     846.1603      54.9497     440.8517        20     1.244     0.922 -88.84   0
       325    185.5118    561.4397 307.8527410  +6.4350315     753.0252     1326.375     1719.235     78.14458     155.8558     311.7736      1.947     3.52     842.6948      54.9497     162.8266         8     1.068     0.604 -75.42   0
       326    849.2526    559.1822 307.5771867  +6.4581736     2833.365     3733.146     3993.677     77.64842     155.9797     311.4945      1.380     2.90     846.8691      54.9497     459.8501        19     1.150     0.854 -65.67   0
       327    820.1284    555.1819 307.5894152  +6.4588534     2749.549     3838.288      4650.96     77.64842     155.8558     311.6806      1.477     2.92     847.3038      54.9497     438.4127        17     1.183     0.803 -66.82   0
       328    277.1779    554.1953 307.8149201  +6.4410980     8814.318     12111.44        11999     77.77276     155.6697     311.5255      1.419     2.78     842.6401      54.9497     1471.761        28     1.222     0.992 -73.42   0
       329    829.8007    550.3918 307.5855585  +6.4611535     175727.8       240649     249791.6     77.52389     155.6076     311.5565      1.431     2.78      847.019      54.9497     25749.56       107     1.422     1.211 -78.39   0
       330    762.7717    555.3398 307.6132293  +6.4568743     680.6093     965.5176     968.6093     77.77276     155.9797     311.6496      1.385     3.47      846.783      54.9497     102.8251         6     0.720     0.645  65.23   0
       331    881.6075    553.2429 307.5639485  +6.4617042     567.4201     633.6215     858.0915     77.64842     155.7318     311.4635      1.323     3.39     846.0203      54.9497     81.27277         5     0.741     0.450 -71.13   0
       332    211.4129    548.7869 307.8424110  +6.4411238     64753.33      90964.8     95022.29     78.02084     155.6076     311.6806      1.488     2.91     842.4271      54.9497     10285.78        72     1.421     1.194 -67.76   0
       333    759.4219    551.0544 307.6147637  +6.4585315     796.4327     1085.094     950.8107     77.64842     155.9178     311.5565      1.213     3.50     846.6042      54.9497     139.8647         7     0.945     0.486 -83.92   0
       334    135.4296    545.0291 307.8740895  +6.4401236      6728.27     9507.732     9904.041     77.64842     155.6697     311.4945      1.476     2.86     842.6287      54.9497     1069.963        30     1.250     1.077 -66.58   0
       335   1000.6923    542.2052 307.5148618  +6.4702285     1560.317     2083.572     1215.352     77.77276     155.6076     311.4945      1.457     3.22     844.0002      54.9497     201.7963        14     1.023     0.861 -63.23   0
       336   1021.8382    541.1858 307.5061139  +6.4713534     842.8593     1389.815     1238.131     77.77276     146.8546     262.1049      1.633     5.29     843.8115      54.9497     111.4604        11     1.230     0.666 -69.17  16
       337    866.3848    537.6159 307.5707923  +6.4676475     4924.033     6623.438     6906.509      77.8969     155.6076     311.6806      1.453     2.90     845.8356      54.9497     755.9758        26     1.231     1.017 -72.15   0
       338    475.1110    535.9572 307.7333376  +6.4552592     846.4212     915.5721     527.9012     78.14458     155.7938     311.7736      1.314     3.54     844.2582      54.9497     165.9834         9     1.062     0.622 -78.56   0
       339    186.6154    534.7024 307.8531818  +6.4461052     2065.119     2682.422     3017.001     78.14458     155.6697     311.5255      1.408     2.96     841.9918      54.9497     298.5618        16     1.085     0.837 -69.75   0
       340    261.5533    532.6389 307.8221326  +6.4494720     871.4162      1182.87     738.1721     78.02084     155.9178     311.5876      1.295     3.76     841.7756      54.9497     162.0908         7     1.058     0.464 -79.21   0
       341    820.3087    530.9939 307.5901486  +6.4688443     6218.522     8472.436       8492.3     77.77276     155.6076     311.5255      1.402     2.74     846.5159      54.9497     1070.814        25     1.172     0.997 -77.58   0
       342    551.0930    530.7480 307.7019586  +6.4599522     7385.283     9985.277     9802.963     78.02084     155.7938     311.9595      1.416     2.84     844.4009      54.9497     1263.391        29     1.250     0.973 -68.66   0
       343    191.7572    532.1101 307.8511338  +6.4473479     756.3759     973.9334     1104.284     78.14458     155.9178     311.7736      1.376     3.97     841.8235      54.9497     114.9442         7     0.844     0.623  67.42   0
       344    123.9243    532.0206 307.8793047  +6.4451068     1078.229     1298.181     1434.105     77.77276     155.7318     311.6806      1.264     3.06     842.2343      54.9497     165.3032         9     0.920     0.645 -71.42   0
       345    409.5061    527.3647 307.7608698  +6.4566091     1667.453     2235.682     1969.865     78.26814     155.7938     311.8355      1.381     3.12     842.5671      54.9497     258.7178        15     1.026     0.947 -59.04   0
       346    384.7867    535.8496 307.7708503  +6.4522785     18741.71     26045.88     27164.99     77.52388     155.8558     311.4635      1.452     2.84     842.6439      54.9497     2830.606        41     1.295     1.096 -71.58   0
       347    595.9509    523.8076 307.6835625  +6.4643174     2680.418      4156.03     4545.499     77.64842     155.6697     311.3704      1.613     3.70     844.3114      54.9497     422.6701        23     1.345     1.022 -44.98   0
       348    198.1694    523.9135 307.8487467  +6.4509466     7517.882     10306.87     10479.62     78.26813     155.6697     311.6496      1.451     2.95     841.4001      54.9497     1206.095        26     1.191     0.979 -74.74   0
       349    836.9340    523.2918 307.5835015  +6.4725783     1558.328     2382.347     2036.042     78.14458     156.1036     311.7426      1.548     3.64     845.8096      54.9497     234.8666        15     1.153     0.927  79.94   0
       350    513.7203    524.3402 307.7176935  +6.4613469     499.2087     795.6834     1411.327     78.26813     155.9178     311.7116      2.166     3.87     843.9647      54.9497       94.297         5     0.909     0.472 -46.09   0
       351    293.3805    520.3845 307.8093276  +6.4555980     97025.39     134338.2     139355.5      77.8969     155.6697     311.6496      1.477     2.84     841.1473      54.9497     14401.47        77     1.399     1.190 -71.04   0
       352     69.7948    522.6605 307.9020971  +6.4471514     5486.326     7972.015     8130.177     77.64842     155.7938     311.5255      1.531     3.00     842.6059      54.9497     752.9867        29     1.265     1.084  84.20   0
       353    582.8423    517.8938 307.6892043  +6.4663202     1053.485     1472.097     2178.228     78.26813     155.8558     311.8665      1.531     4.47      844.098      54.9497     153.1702         9     0.979     0.708 -64.57   0
       354    277.2091    515.5693 307.8162048  +6.4570432     1635.099     2269.326     2952.991     77.64842     155.7318     311.5565      1.610     3.21     840.8189      54.9497      261.694        12     1.072     0.720 -81.41   0
       355    992.8215    513.9327 307.5190736  +6.4816373     1823.392     2767.413     3024.547     77.77276     155.9178     311.6496      1.582     3.57     843.2486      54.9497     255.1353        19     1.299     0.899 -49.08   0
       356    816.5662    512.7380 307.5923129  +6.4762554     18242.34     24520.37     24992.55     78.02084     155.9797     311.6806      1.423     2.76     845.7717      54.9497     2799.349        38     1.265     1.056 -73.86   0
       357    520.1619    511.1636 307.7154601  +6.4670016      44874.9     67634.27     71081.76      77.8969     155.7938     311.5565      1.595     3.01     843.4614      54.9497     6256.271        68     1.421     1.362 -35.08   0
       358    670.6921    509.8351 307.6529910  +6.4725834     1085.401     1458.427      1569.61     78.26813     155.7938     311.7736      1.378     3.24     844.3655      54.9497     175.9001        10     1.004     0.677 -71.05   0
       359    280.1815    508.5374 307.8152068  +6.4600456     547.2335     799.8042     986.5843     77.77276     155.8558     311.6186      1.359     3.60     840.4086      54.9497     81.89099         5     0.997     0.374  84.33   0
       360    232.5502    507.4882 307.8350218  +6.4588806     2147.244     3115.853      3419.41     78.14458     155.7318     311.8665      1.599     3.90     840.2053      54.9497     297.9175        17     1.191     0.958 -49.21   0
       361     68.0871    507.7700 307.9033075  +6.4532404     1402.805     1905.061     1714.562     78.26813     155.7318     311.6496      1.394     3.17     842.3021      54.9497     283.1573        13     1.172     0.710 -84.46   0
       362    690.2600    506.3051 307.6449827  +6.4746942     1543.686     2058.337     2210.577     78.02084     155.9178     311.8355      1.371     3.12     844.2766      54.9497     271.3831        12     1.044     0.778 -84.71   0
       363    680.0405    506.1433 307.6492323  +6.4744196     3255.587     4626.731     4576.028     78.14458     155.9797     311.7736      1.456     3.12     844.2424      54.9497     517.4733        21     1.227     0.904 -67.75   0
       364    118.6524    507.4543 307.8823205  +6.4550701     643.8363      733.783      861.912     78.39149     155.8558     311.7116      1.298     3.93     841.4169      54.9497      103.209         6     0.931     0.475  87.45   0
       365    742.2107    505.2625 307.6234426  +6.4768596     1514.997     1993.903     2169.043     77.64842     155.7318     311.5565      1.404     2.94     844.5031      54.9497     264.2044        11     0.985     0.685  81.29   0
       366     99.2779    503.6815 307.8904929  +6.4559764     761.2102     971.6875     715.5142     78.39149     156.1655     311.8665      1.461     5.07     841.4504      54.9497     132.6707         7     1.005     0.723 -51.64   0
       367    417.9200    501.8336 307.7582323  +6.4674299     1990.774     2804.387     2603.528     78.02084     155.9178     311.7426      1.482     3.14      841.837      54.9497      322.489        15     1.217     0.754  85.47   0
       368    164.4896    498.7744 307.8635781  +6.4601926      28900.1     39872.49     41362.05     78.26813     155.7318     311.5876      1.470     2.80        840.8      54.9497     4591.264        52     1.343     1.150 -63.44   0
       369    529.2040    499.5907 307.7120929  +6.4720814     2326.965     3252.482     3526.483     77.52389     155.6076     311.5876      1.444     2.77     843.1191      54.9497     414.1962        15     1.121     0.757 -79.88   0
       370    349.3643    500.0728 307.7867612  +6.4658595     4246.964      5847.72     5771.458     78.02084     155.9178     311.7426      1.444     2.92       841.46      54.9497     660.3309        22     1.203     0.949 -63.43   0
       371    892.2729    498.7291 307.5613396  +6.4845631     1746.406     2251.253     2177.723     78.39149     156.0417     311.7426      1.299     2.76     844.0305      54.9497     267.6777        12     0.950     0.808 -57.18   0
       372    434.0245    498.4580 307.7516577  +6.4693627     490.0829     809.8965     598.0164     77.77276     155.9178     311.6186      1.876     4.11     841.8871      54.9497     82.02429         5     0.765     0.629  85.96   0
       373    129.6448    496.9879 307.8781080  +6.4597597     2964.843     4407.416     4529.408     77.64842     155.7318     311.4635      1.512     3.00     841.0011      54.9497      434.838        22     1.227     0.965 -80.12   0
       374      9.5110    496.8969 307.9279977  +6.4557590     2138.138     2889.643     3167.417     78.14458      156.351     311.7736      1.447     2.84      843.679      54.9497     343.6456        16     1.064     0.856 -65.69   0
       375    366.6327    495.1312 307.7797559  +6.4684781     1099.883     1496.786     1578.254     78.02084     155.9178     311.7736      1.425     4.47      841.484      54.9497     144.0525        10     0.947     0.800 -75.14   0
       376    990.0677    493.2542 307.5209072  +6.4900817     5499.191     7779.204     8174.355     78.14458     155.8558     311.6496      1.481     2.90     842.6873      54.9497     824.7234        30     1.313     1.022  85.51   0
       377    154.4082    489.2121 307.8680862  +6.4638011     564.7296     744.3154     843.8025     77.77276     155.7318     311.6806      1.719     4.20     840.5436      54.9497     97.69727         5     1.130     0.444  32.60   0
       378    563.1768    485.8325 307.6984453  +6.4788972     1581.586     2274.675      2026.36     77.64842     155.7318     311.5255      1.521     3.41     843.0018      54.9497     258.7812        17     1.236     0.887 -84.60   0
       379     28.7278    483.1122 307.9204821  +6.4620952     27445.18     38730.83     40501.49     78.26813     156.1655     311.7426      1.482     2.93     843.0063      54.9497     3814.872        49     1.380     1.143 -63.28   0
       380    461.5085    479.8826 307.7408669  +6.4779508     47380.88     65035.61     67442.36      77.8969     156.1655     311.8046      1.442     2.78     841.3564      54.9497     7507.207        57     1.328     1.137 -72.24   0
       381    438.1611    483.1714 307.7504526  +6.4758114     572.1575     794.7543      807.156     77.64842     155.6697     311.6186      1.416     3.90     841.3555      54.9497     85.49963         6     0.757     0.575  34.16   0
       382    669.5764    479.5372 307.6544684  +6.4850529     14082.15     18910.95     19391.08     77.77276     155.9178     311.6496      1.431     2.79     843.2002      54.9497     2089.647        39     1.248     1.087 -77.13   0
       383     11.3032    477.3647 307.9279114  +6.4638817     211404.4     296680.4     309296.7     78.14458     155.7938     311.8975      1.532     2.95     843.3566      54.9497     30873.64       121     1.464     1.292 -71.76   0
       384    309.3352    480.0884 307.8040556  +6.4727667     1121.128     1469.288     1541.057     78.14458     156.1036     311.7426      1.454     3.30     839.4433      54.9497      184.118        11     1.087     0.661 -66.36   0
       385    226.6663    477.5293 307.8384723  +6.4710496     21353.79     31091.56     32478.84     78.14458     155.9797     311.7426      1.598     2.95     838.6804      54.9497     2945.287        48     1.361     1.235  75.41   0
       386   1003.3439    478.0824 307.5158995  +6.4967868     1227.117     1683.504     1949.798     78.14458     155.9178     311.8355      1.487     3.52     842.0767      54.9497      186.055        11     0.913     0.811  73.05   0
       387    843.6740    477.3006 307.5822390  +6.4917882     1016.817     1594.427     1669.004     77.64842     156.0417     311.6806      1.641     4.20     843.7392      54.9497     172.8097        13     1.232     0.855 -78.90   0
       388    192.4017    478.4747 307.8526698  +6.4695092     1773.804      2449.87     2432.363     77.64842      155.359     311.6186      1.431     3.23     839.4211      54.9497     259.1274        15     1.120     0.889 -60.69   0
       389    931.9478    477.3649 307.5455755  +6.4947046     858.9616     1018.192      1072.02     78.02084     155.9178     311.6806      1.357     3.41     843.2607      54.9497     151.7005        10     0.953     0.714  87.12   0
       390    591.3687    476.1890 307.6870603  +6.4838208       3118.7     4343.463     4113.022     77.64842     155.6697     311.6186      1.434     3.05      842.761      54.9497     479.0585        21     1.207     0.916 -68.19   0
       391    965.2010    473.3946 307.5318974  +6.4974515     5202.582     7038.548     7126.141     77.52389     155.6076     311.5565      1.441     2.99     842.6231      54.9497     789.1089        25     1.177     0.998 -79.47   0
       392    638.3265    471.8625 307.6677035  +6.4871767     7210.538     9747.848     9822.166     78.26813     155.9178     311.7426      1.407     2.81      842.796      54.9497     1166.907        26     1.208     0.949 -77.57   0
       393    125.7952    472.7103 307.8805235  +6.4696516     1304.556     1731.386     1488.262     77.64842     155.6076     311.4635      1.443     2.97     840.3232      54.9497     197.0325        12     0.988     0.777 -58.13   0
       394    238.0026    472.0769 307.8339479  +6.4736807     517.9255     663.3621     933.2938     77.64842     155.4212     311.6186      1.154     3.78     838.5463      54.9497     91.45892         5     0.816     0.503 -62.22   0
       395    175.4082    467.2946 307.8601027  +6.4735535     416.9935     529.7535     974.9509     77.77276     155.5455     311.5255      2.050     4.51     839.5121      54.9497     70.67249         5     1.187     0.486 -86.08   0
       396    987.7678    465.6749 307.5227825  +6.5013899      3783.06     5138.275     5599.947     78.02084     155.9797     311.7116      1.447     3.02     842.1375      54.9497     564.8325        23     1.234     1.015  88.99   0
       397    550.5445    463.0832 307.7044538  +6.4878654     8224.051     11255.75     11550.92     78.14458     155.9178     311.8355      1.434     2.80     841.4485      54.9497     1227.735        31     1.260     1.011 -70.60   0
       398    426.1090    464.5894 307.7560811  +6.4830781     808.4036     1079.179     1179.695      77.8969     155.5455     311.5255      1.467     4.65     840.2587      54.9497     111.3078        10     1.004     0.761  72.82   0
       399    396.5119    463.1682 307.7684203  +6.4826733     2856.271     3779.778     4191.178     78.26813     155.7318     311.7426      1.355     2.92     840.0128      54.9497     424.0668        19     1.142     0.894 -87.96   0
       400   1018.7853    461.9708 307.5100238  +6.5039519     460.5993     715.1296     1042.167     77.77276     155.6697     297.6956      1.442     5.43     841.6307      54.9497     89.53436         6     1.238     0.687 -81.68  16
       401    906.9974    458.8260 307.5565568  +6.5015260     3550.072     5110.593     5402.912     77.64842     155.6076     311.5565      1.507     3.08     842.8706      54.9497     533.3805        24     1.260     0.963 -69.97   0
       402    255.0657    457.8725 307.8273393  +6.4801166     648.0841     985.5859      1109.93     78.14458     155.9797     311.7426      1.600     5.31     838.1778      54.9497     112.9108         9     1.208     0.901  47.70   0
       403    901.7734    456.5948 307.5588009  +6.5022729     425.2056     589.2751      803.691     77.64842     155.7318     311.5876      1.552     4.99     842.8272      54.9497     70.99847         5     1.075     0.656 -64.86   0
       404    914.4689    453.4376 307.5536336  +6.5039993     2374.402     3184.909      2973.66     78.02084     155.9178     311.8355      1.394     2.88     842.7019      54.9497      373.944        15     1.108     0.796 -86.57   0
       405    133.3082    453.0264 307.8780659  +6.4780291     727.4366     955.2015     473.4992     78.26813     155.6697     311.5876      1.277     3.96     839.8188      54.9497     128.7985         8     1.018     0.602  69.07   0
       406    953.8246    452.3725 307.5373238  +6.5057505     1261.738     1726.199     2098.968     77.64842     155.7318     311.5876      1.417     3.69     842.3355      54.9497     173.5893        10     1.035     0.657 -72.25   0
       407    738.3011    449.3622 307.6269359  +6.4998045     3361.913     4369.749     4559.674     78.14458     155.7938     311.9595      1.364     2.71     842.7441      54.9497     549.7192        23     1.178     0.922 -87.37   0
       408    291.9592    451.0964 307.8122456  +6.4841513     652.2147     672.5966     205.7734     78.14458     155.7938     311.8975      1.250     2.87     837.8838      54.9497     122.0276         5     0.934     0.377 -61.47   0
       409    100.2178    448.3105 307.8919663  +6.4788638     2085.004     3100.296     3190.376      77.8969     155.6697     311.6496      1.617     3.52     840.2359      54.9497     326.7188        20     1.295     0.975 -68.27   0
       410    409.2301    447.5537 307.7636625  +6.4895448     4189.992     5795.549     6424.213     77.64842     155.9797     311.6186      1.482     3.11     839.1276      54.9497     668.1576        23     1.218     0.969 -65.24   0
       411    449.3802    447.6785 307.7469840  +6.4908382     1231.149     1427.345     1925.362     77.77276     155.6076     311.7116      1.327     3.54      839.441      54.9497     178.5507        10     0.996     0.721 -64.52   0
       412    636.9973    444.1078 307.6691848  +6.4985892     11124.28     15201.84     16106.06     77.64842     155.6076     311.4945      1.415     2.81     841.3149      54.9497     1780.666        34     1.261     1.023 -77.36   0
       413    799.6935    440.6753 307.6017289  +6.5054398     18031.12     24558.71     25442.98     78.02084     156.1036     311.7426      1.432     2.86     842.9592      54.9497     2577.231        39     1.298     1.043 -80.53   2
       414    803.6335    435.9035 307.6002521  +6.5075410      1460.39     2087.012     2370.063     78.26813     155.7938     311.8355      1.501     3.56     842.7407      54.9497     207.3412        13     1.159     0.724 -68.53   3
       415    319.3302    441.0196 307.8012171  +6.4892288     2935.965     3934.158     3771.769     77.77276     155.7938     311.6806      1.385     2.96     837.9072      54.9497     466.6508        19     1.146     0.909 -64.74   0
       416    443.0288    440.5132 307.7498621  +6.4935832     826.1906     1205.456     1226.404     78.26813     155.6076     311.6186      1.696     5.69     838.9837      54.9497      107.567        11     1.116     0.816 -61.27   0
       417    828.9005    437.8634 307.5896925  +6.5075750     1500.516     2007.907     2016.004      77.8969     155.9797     311.7736      1.395     3.17     842.6555      54.9497     227.1678        14     1.155     0.737  83.39   0
       418    402.4105    437.7106 307.7668250  +6.4933795     1821.652     2491.686     3406.687      77.8969     155.6697     311.5565      1.457     3.08      838.465      54.9497     294.4913        15     1.088     0.791 -56.38   0
       419    984.8965    435.6016 307.5249784  +6.5137086     1991.126     2653.342     3133.583     77.64842     155.6697     311.4015      1.426     3.04     841.6796      54.9497     296.5433        16     1.168     0.799  88.65   0
       420    417.5520    437.6867 307.7605375  +6.4938966     548.8689     695.9618     546.9194     78.14458     155.7938     311.7736      1.291     3.44     838.5759      54.9497     112.7837         5     1.016     0.337 -19.44   0
       421    732.8531    434.3798 307.6296997  +6.5058073      658.445      876.202     905.1581     77.64842     155.9178     311.5565      1.290     2.60     842.3486      54.9497     113.5268         6     0.721     0.605  66.10   0
       422    391.3695    433.6135 307.7715479  +6.4947007     918.8696     1204.588      1647.88     77.77276     155.6697     311.6806      1.689     4.63      838.134      54.9497     124.3016        10     1.129     0.837  -9.79   0
       423    136.9990    432.5510 307.8772222  +6.4866049     5092.883     7231.252      8081.26     77.52388     155.5455     311.3083      1.534     3.09     839.3063      54.9497     744.2752        27     1.233     1.025 -64.29   0
       424    775.2956    431.6042 307.6121652  +6.5083700     2471.924     3495.532     3571.391      77.8969     155.6076     311.4945      1.518     2.86     842.4871      54.9497     424.6572        18     1.101     0.931 -44.45   0
       425    295.0016    429.6099 307.8117039  +6.4931227     1767.421     2409.092     2491.562     77.64842     155.6076     311.4945      1.564     3.21      837.225      54.9497     212.6705        16     1.034     0.963 -65.59   0
       426    373.1646    427.2902 307.7793207  +6.4967009     3601.522     5107.435     4524.731     78.26813     155.8558     311.7426      1.489     2.94     837.5343      54.9497     587.1847        22     1.187     0.977 -85.05   0
       427    301.5869    428.5777 307.8090038  +6.4937696     449.7115     543.3511     767.2697      77.8969     155.7318     311.6496      1.418     4.17      837.229      54.9497     74.42401         5     1.224     0.405  53.71   0
       428    729.0420    425.2223 307.6315889  +6.5094602     1848.309      2480.73     2854.458     77.77276     155.7938     311.5565      1.446     3.12     842.0995      54.9497     304.3553        14     1.151     0.713 -84.86   0
       429   1002.6838    424.1711 307.5179721  +6.5190195     709.4666     945.4829     1320.238     78.14458     155.6697     311.6186      1.435     3.81     841.3413      54.9497     102.8149         6     1.006     0.415  76.76   0
       430    260.8876    423.1840 307.8260873  +6.4946307     867.9083     1181.902     1044.539      77.8969     155.6697     311.6186      1.444     3.24     837.2628      54.9497     144.5091         7     0.829     0.656 -66.98   0
       431    471.4313    419.3574 307.7387759  +6.5032672     652.2904     856.5587      912.572     77.64842     155.8558     311.5876      1.402     4.05     838.0141      54.9497     106.2057         6     0.840     0.557 -46.84   0
       432    570.3663    418.0166 307.6977316  +6.5071315     1076.949     1545.823     2069.792     77.77276     155.6697     311.6186      1.419     3.31     838.4263      54.9497     149.6358         9     0.929     0.658  37.69   0
       433    492.7175    416.1002 307.7300447  +6.5053243     1541.392      1987.27     1983.354     78.14458     156.4128     311.8355      1.322     3.24     837.9798      54.9497     247.2637        14     1.114     0.803 -52.91   0
       434    855.3031    415.2293 307.5794831  +6.5177990     1735.799     2380.348     2474.029     78.26813     155.6697     311.7426      1.454     2.97     841.8391      54.9497     281.5713        14     1.063     0.814 -72.73   0
       435    840.9158    414.1802 307.5854937  +6.5177522     2282.088     3039.879     3093.128     77.77276     155.6076     311.7116      1.396     3.02     841.8309      54.9497     334.4397        18     1.200     0.846 -63.04   0
       436    640.2719    414.2950 307.6688230  +6.5110051     782.9426     828.1555     678.5682     78.02084     155.9797     311.7426      1.300     3.61     839.8815      54.9497     130.2818         8     0.972     0.561 -74.46   0
       437    738.1892    412.3891 307.6282191  +6.5150632     16660.98     22280.63     22979.55     77.77276     155.7318     311.7426      1.432     2.74     841.7988      54.9497      2667.94        35     1.240     1.049 -73.74   0
       438    659.3055    408.3304 307.6611176  +6.5141034     3011.463     4029.381     4939.016     78.02084     155.9797     311.7736      1.480     2.68     840.3701      54.9497     487.0765        20     1.123     0.937 -81.31   2
       439    634.3710    405.3672 307.6715727  +6.5144932     6092.014     8599.811     9259.239     77.64842     155.6697     311.4945      1.511     2.84     839.2336      54.9497     897.8001        25     1.245     0.986 -82.18   3
       440    630.6134    402.8733 307.6732169  +6.5153971     16106.82     22143.79     22802.38     77.64842     155.6697     311.5255      1.430     2.87     839.0286      54.9497     2387.709        36     1.318     1.023 -81.70   3
       441    732.0493    406.8290 307.6309552  +6.5171533     745.3935     1000.655     1525.965     77.77276     155.9797     311.6496      1.462     4.23     841.5637      54.9497     106.3726         7     0.867     0.668  64.92   0
       442    963.5070    402.2249 307.5349761  +6.5267740     4154.012     5809.918     6011.202     78.26813     155.6697     311.5876      1.502     2.98      841.033      54.9497      587.256        24     1.199     1.005  87.98   0
       443    426.9570    403.7025 307.7577719  +6.5082399     9397.997     9596.707     9619.162     78.14458     155.8558     311.9595      0.747     1.29     836.7001      54.9497     3640.228         9     0.588     0.552   9.81   0
       444    439.6576    400.3651 307.7526091  +6.5100429     648.5971     832.2263     1311.178     78.02084     155.9178     311.7736      1.589     3.93     836.5958      54.9497     87.72009         6     0.935     0.473 -87.46   0
       445    402.5534    398.2899 307.7680887  +6.5096566     32498.92     44700.09     46100.07     78.14458     155.7938     311.8665      1.466     2.83     836.2161      54.9497     4667.311        48     1.313     1.131 -70.62   0
       446    918.9984    397.8671 307.5536079  +6.5270897     1534.822     2365.269     547.5219     77.64842     155.4834     311.5255      1.568     3.74     841.0951      54.9497     255.0391        14     1.152     0.889  72.05   2
       447    148.7061    397.7930 307.8735298  +6.5013454     2519.905     3462.906     3785.144     77.77276     155.6076     311.5565      1.442     3.00      838.197      54.9497     371.5322        19     1.102     0.977  71.15   0
       448     81.8075    393.2855 307.9014642  +6.5009580     1803.442     2750.438     2879.863     77.77276     155.6076     311.5876      1.676     3.48      839.393      54.9497     284.8295        16     1.179     0.891 -74.35   0
       449    932.2642    392.6649 307.5482717  +6.5296793     5397.728     7342.005     8060.219     78.14458     155.9178     311.7426      1.463     3.02     840.8834      54.9497     804.9029        23     1.220     0.915 -76.11   0
       450    614.0705    393.8149 307.6803910  +6.5185833     759.1293     1140.051     1102.471     77.64842     155.8558     311.6496      1.659     3.86     838.0143      54.9497     139.3567         7     0.951     0.693 -83.33   0
       451    286.0021    391.0175 307.8167381  +6.5087510     5617.032     5702.434     5770.165     77.77276     155.4834     311.4945      0.451     2.38     835.9337      54.9497       3982.7         9     0.442     0.387  11.48   0
       452    260.1038    388.8309 307.8275674  +6.5087847      15523.4     21602.04     21861.47     78.26813     155.7318     311.8046      1.459     2.94     836.3896      54.9497     2494.652        36     1.275     1.059 -72.88   0
       453    755.1556    382.5059 307.6221720  +6.5279653     829.2354     1060.915     1096.562     78.02084     155.8558     311.8665      1.739     5.06     840.8773      54.9497     123.0775         8     1.227     0.591  87.44   0
       454     95.5777    382.9666 307.8960930  +6.5056803     752.4407     1047.093     1227.771     77.64842     155.7318     311.5255      1.534     4.49     839.0904      54.9497     118.2339         8     1.176     0.488 -85.96   0
       455    983.4333    380.8847 307.5274120  +6.5362470     960.1619     1171.747     1170.773     78.14458     155.7938     311.7116      1.359     4.58      840.332      54.9497     153.9916         9     1.076     0.628 -76.64   0
       456    372.9337    378.5502 307.7810529  +6.5168123     1645.769      2241.74      2261.26     78.02084     155.7938     311.7116      1.410     3.22     835.2636      54.9497     258.5701        14     1.123     0.788 -58.33   0
       457    206.0440    378.5518 307.8503645  +6.5112133     893.3499     1242.267      1401.81     78.14458     155.8558     311.6806      1.514     4.36     837.0923      54.9497     134.8466        10     1.024     0.656 -63.14   0
       458    160.2975    377.3237 307.8694046  +6.5101841     5488.773     7689.388     7850.971     77.77276     156.1655     311.7736      1.479     2.91     837.4143      54.9497     812.6981        26     1.205     0.990 -64.97   0
       459    400.3329    377.9872 307.7696923  +6.5179628     567.8622     703.5992     616.1873     77.64842     155.7318     311.6496      1.088     2.36     835.2208      54.9497     134.0698         5     0.837     0.471 -88.90   0
       460    265.2055    376.3570 307.8258678  +6.5141049     1520.312     1997.613     1721.409     77.52389     155.6076     311.4325      1.470     3.37     835.9283      54.9497     231.2266        14     1.098     0.825 -78.62   0
       461    458.0418    376.3657 307.7457789  +6.5205653     709.9201     989.1456     928.8746      77.8969     155.9178     311.5876      1.428     3.74     835.3381      54.9497      135.701         8     0.930     0.749  83.23   0
       462    182.3508    373.2965 307.8603812  +6.5125870     2726.374     3982.338     4367.942     78.02084     155.8558     311.8975      1.652     3.86     837.1478      54.9497     393.3493        18     1.311     0.801 -77.74   0
       463    846.2172    373.5932 307.5846480  +6.5346832     843.3956     1230.936     1448.263     77.77276     155.6697     311.5876      1.599     4.97     840.5749      54.9497     137.9948         9     1.039     0.727  80.90   0
       464    578.0776    372.3133 307.6960602  +6.5262554     1012.024     1172.931     1100.405     78.14458     156.2273     311.8355      1.161     3.34     836.8362      54.9497     195.4932         9     1.103     0.559  78.07   0
       465    405.8988    368.1432 307.7677111  +6.5222128     2306.703     3285.369     3349.694      77.8969     155.9178     311.9285      1.413     2.75     834.7155      54.9497     343.5601        20     1.241     0.900 -72.41   0
       466    293.6426    368.4517 307.8143231  +6.5183221     859.7964     1173.967      914.721     78.14458     155.9178     311.7736      1.500     3.98     835.0458      54.9497     136.8226         7     1.082     0.420 -61.36   0
       467     24.4167    368.4256 307.9261356  +6.5092898     856.9067     1129.393      1364.67      77.8969     155.7318     311.6806      1.491     3.42     839.4741      54.9497     137.2388         8     0.835     0.755 -66.48   0
       468    994.4236    367.0695 307.5233081  +6.5423160     971.7648     1420.947     1085.511     77.77276     155.7938     311.7116      1.698     4.27     839.9114      54.9497     130.7881        12     1.193     0.701 -70.62   0
       469      6.9773    366.7108 307.9334360  +6.5094110     979.7215     1445.739     1130.206     78.14458     155.7318      303.927      1.455     3.93     839.6414      54.9497      142.076         9     1.006     0.675  72.21  16
       470    339.7068    366.0389 307.7952728  +6.5208629     705.4877     1062.843      1075.85     78.26813     155.8558     311.8046      1.566     4.24     834.8201      54.9497     92.78699         7     0.770     0.666 -88.42   0
       471     55.8951    362.5250 307.9132614  +6.5127840     3478.382     5177.542     5236.967      77.8969     156.1036     311.7426      1.580     3.20     839.0742      54.9497     541.4973        24     1.391     0.922 -57.13   0
       472    630.8370    362.5608 307.6744740  +6.5320453     529.8528     654.4906      801.251      77.8969     155.7938     311.6186      1.306     3.60       837.29      54.9497     76.32129         5     1.034     0.362 -85.61   0
       473    459.7138    361.6116 307.7455794  +6.5267116     8270.726     11516.32     11593.14     77.77276     155.6697     311.5876      1.458     2.81     834.5189      54.9497     1155.256        32     1.272     1.048 -74.99   0
       474    792.4954    360.3996 307.6074023  +6.5383371     2305.255     3085.281      2929.12     77.64842     155.5455     311.3394      1.439     3.07     840.4853      54.9497     350.5979        18     1.189     0.860  89.88   0
       475    800.3158    358.9453 307.6042027  +6.5391984     14186.17      19467.4     19988.55     78.14458     155.9178     311.8975      1.424     2.83     840.5361      54.9497     2342.308        42     1.329     1.051 -70.60   0
       476    363.5831    357.5209 307.7856425  +6.5251794     1121.682     1743.031     1658.217     77.77276     155.6697     311.6496      1.613     2.84     834.4235      54.9497     165.2858         9     0.861     0.730 -71.66   0
       477    975.4827    350.3334 307.5317339  +6.5485938     608.4155     524.3099     696.3592     78.39149     156.1655     311.8046      1.355     4.16     839.3618      54.9497      116.658         5     1.201     0.564 -64.53   0
       478    925.3879    348.9932 307.5525860  +6.5474778     522.0238      575.572     656.7448     77.77276     155.7318     311.6496      1.307     4.75     839.3962      54.9497      94.0448         5     1.325     0.483  86.88   0
       479    208.3923    349.6803 307.8503601  +6.5232097     1027.513     1382.175     1253.521     77.77276     155.4834     311.5876      1.513     3.41     836.5284      54.9497     147.6744        11     1.022     0.759 -66.37   0
       480    414.6736    348.2062 307.7647358  +6.5307365     431.4799     922.8729     730.9634     77.77276     155.4834     311.6496      1.576     4.75     833.6883      54.9497     80.33008         6     1.433     0.446 -64.88   0
       481     14.2646    347.8322 307.9310457  +6.5174487     1088.538     2401.411     3848.782      77.8969     155.9178     311.7116      3.164     6.05     839.4058      54.9497      150.232        16     1.224     1.081 -42.11   0
       482    480.0111    345.7758 307.7376804  +6.5339280     2718.322     3581.258     3512.203     77.77276     155.7318     311.6496      1.413     2.81     833.9422      54.9497     465.1528        18     1.139     0.893 -69.09   0
       483    507.9017    345.3034 307.7261122  +6.5350567     3423.678     4598.426     5007.621     78.14458     156.4128     311.5876      1.422     2.68     834.7127      54.9497      555.015        20     1.145     0.946  86.66   0
       484    936.5614    345.3313 307.5480672  +6.5493618     829.2537     967.0929     1210.697     78.02084     155.9178     311.8665      1.161     3.01     839.2213      54.9497     157.8834         6     0.694     0.644 -18.80   0
       485    865.7051    341.8749 307.5776135  +6.5484264     36113.28     51885.66      54037.2      77.8969     156.1036     311.7426      1.518     3.11     839.3062      54.9497     4978.483        55     1.470     1.088 -80.65   0
       486    357.7834    337.5688 307.7887212  +6.5332209     1114.562     1741.127     1693.089     77.77276     155.6697     311.6496      1.407     3.14     833.5406      54.9497     199.7924         9     1.028     0.567 -64.33   0
       487     82.9670    338.2701 307.9028351  +6.5237060     720.7037     1142.815     1141.189     78.02084     155.9178     311.7736      1.876     3.36      838.176      54.9497     112.1551         7     0.719     0.686 -84.86   0
       488    637.4413    334.2081 307.6726804  +6.5439698     2945.299     4219.038     4330.409     77.52389     155.7318     311.4945      1.448     2.87     836.2817      54.9497     447.8048        19     1.122     0.908 -61.69   0
       489     45.6686    334.8584 307.9184404  +6.5238602     1223.051     1794.229      1532.88     78.26813     155.8558     311.7426      1.496     3.21     838.7002      54.9497     202.7823        11     1.057     0.728 -60.23   0
       490    168.6269    332.3348 307.8674589  +6.5290342     611.7723     700.3551     459.8396     77.77276     155.8558     311.6496      1.251     3.19     836.3972      54.9497     107.0483         5     0.730     0.456 -73.61   0
       491    880.2382    329.1532 307.5720021  +6.5541626     1306.124     2215.342      2374.31     78.02084     155.8558     311.5876      1.695     4.35     838.7956      54.9497      202.822        14     1.293     0.890 -82.07   0
       492    722.1564    327.8468 307.6377066  +6.5494263      89620.7     121165.2     125435.2     78.14458     155.8558     311.7116      1.427     2.81     838.2645      54.9497     15137.26        80     1.353     1.193 -78.02   0
       493    101.3002    327.5459 307.8955821  +6.5287489     1525.853     1862.413     1851.202      77.8969     155.9178     312.0214      1.287     3.05     837.5914      54.9497     239.3708        12     0.965     0.786 -70.15   0
       494    121.8597    323.4350 307.8871817  +6.5311367     6842.866      9577.91      9533.92     78.14458     155.9178     311.7116      1.463     2.73     837.0656      54.9497     991.2557        31     1.285     1.049 -82.67   0
       495    963.5317    324.9016 307.5375467  +6.5586938     960.6952     1321.172     1101.213     78.14458     156.0417     311.7736      1.509     2.91     838.1579      54.9497     147.9094         8     0.835     0.662 -47.01   0
       496    584.5262    324.4834 307.6949844  +6.5462147     3144.388     4000.769     4333.708     78.26814     156.2273     311.8046      1.352     2.80     835.2961      54.9497     499.4385        19     1.047     0.975 -70.47   0
       497    782.7782    322.9395 307.6126910  +6.5534761     534.8409     723.5297     935.5416     77.77276     155.8558     311.6806      1.265     2.90     839.0582      54.9497     95.97705         5     0.774     0.496 -35.33   0
       498    567.8697    320.7520 307.7020278  +6.5471979     8239.055     11238.82     11326.56     78.14458     155.8558     311.7736      1.410     2.80     835.1034      54.9497     1315.531        28     1.220     0.996 -70.07   0
       499    296.8038    318.4406 307.8146906  +6.5390718     3043.192     3979.749     3951.363     77.39915     155.6697     311.5255      1.402     2.73     833.3605      54.9497     438.6715        21     1.193     0.919 -57.28   0
       500    430.7749    315.9152 307.7591320  +6.5446051     29370.96     40113.27     41443.97     78.26813     155.6697     311.5876      1.429     2.76     832.5999      54.9497     4405.441        50     1.300     1.136 -79.49   0
       501    609.4077    315.3218 307.6849568  +6.5508286     749.1389     1103.867     1428.351     77.77276     155.4212     311.5255      1.560     4.61     835.1709      54.9497     111.3771         8     0.988     0.610  69.52   0
       502    538.5017    314.8391 307.7144240  +6.5486561     1668.075     2136.683     2183.932     78.14458     155.7938     311.9595      1.390     2.93     834.6533      54.9497      286.769        15     1.052     0.860  83.09   0
       503    410.7087    313.9292 307.7675330  +6.5447527     1335.249     1925.145     3058.963     78.02084     156.1036     311.7426      1.817     3.41     832.2551      54.9497     195.8165        14     1.121     0.794  87.99   0
       504    510.1155    311.3474 307.7263313  +6.5491474     1478.629     1806.235      1599.83     78.14458     155.8558     311.8975      1.321     2.88     834.0241      54.9497     233.7754        11     0.959     0.726  84.87   0
       505    825.3716    308.3774 307.5954860  +6.5609087     1032.752     1229.909     986.9048     77.64842     155.7318     311.5876      1.458     4.52     838.4453      54.9497     140.6075        12     1.359     0.597 -89.34   0
       506    519.8705    306.3090 307.7224485  +6.5515537     9766.245     13307.37     13462.95     78.02084     156.1036     311.7426      1.423     2.77     834.0707      54.9497     1481.491        32     1.290     1.012 -79.71   0
       507    407.7063    308.6999 307.7689556  +6.5468107     868.7424     1271.597     1755.477     78.14458     156.4128     311.5876      1.347     3.15     832.0469      54.9497     144.7441         8     0.966     0.589  82.99   0
       508    661.2662    308.3420 307.6636507  +6.5554434     623.1206     825.0891       784.96     78.26813     155.8558     311.7426      1.385     3.04     835.5477      54.9497     105.3253         6     0.712     0.634 -52.16   0
       509    789.0226    305.0678 307.6106949  +6.5610619     3470.477     4706.394     4575.274     77.77276     155.8558     311.7116      1.400     2.86     838.4368      54.9497     575.9771        20     1.119     0.951 -74.88   0
       510    944.5430    304.7952 307.5461053  +6.5663610     1049.145     1273.047     1343.956     77.52389     155.7938     311.4635      1.364     3.08     837.5611      54.9497     199.9198        10     0.917     0.806 -48.38   0
       511    736.4233    304.6088 307.6325582  +6.5594953      851.883      980.588     896.0353     77.77276     155.6697     311.5876      1.238     3.42     837.8128      54.9497     129.9993         8     0.922     0.629 -86.57   0
       512    346.1568    303.1930 307.7947046  +6.5470208     980.4225     1409.729     1762.794     77.64842     155.6697     311.4635      1.437     2.37     831.9902      54.9497     151.9648         8     0.776     0.646 -51.55   0
       513    104.7622    300.1441 307.8950668  +6.5401760     563.6049     627.6279     472.8618     78.14458     155.9797     311.7736      1.339     4.32     836.7609      54.9497     111.6103         5     0.890     0.596 -59.39   0
       514    181.8816    297.0255 307.8631418  +6.5440542     1285.491     1756.062     1944.941      77.8969     155.6697     311.7426      1.449     3.92     835.5054      54.9497     172.5477        11     1.068     0.817 -74.38   0
       515    282.0157    296.8843 307.8215571  +6.5474737     804.9473     1237.963     1051.997     77.77276     155.6697     311.6496      1.562     5.07     833.0236      54.9497     125.9695        10     0.977     0.751  86.81   0
       516    628.5499    295.2165 307.6776793  +6.5597679     542.7541     811.1755     967.0892     77.64842     155.9797     311.4635      1.749     4.66     834.7251      54.9497     90.34766         6     1.250     0.493 -86.49   0
       517      4.6629    294.4806 307.9368311  +6.5391477     584.1168     667.7559     537.9966     78.26813     155.9797     281.6171      1.190     4.16      838.851      54.9497     92.34332         6     1.044     0.474  55.97  16
       518    409.7585    290.5224 307.7687133  +6.5543828      8663.13     11895.04     12592.21     78.02084     155.9178     311.8046      1.461     2.78       831.27      54.9497     1228.383        31     1.237     1.031 -71.54   0
       519    698.3288    291.8025 307.6488100  +6.5635092     498.4919     662.3192     800.0014     77.64842     155.5455     311.5876      1.289     4.15      835.836      54.9497     73.50189         6     0.750     0.654  19.97   0
       520    265.5573    291.0346 307.8285896  +6.5493361     2404.991      3271.44     3333.258      77.8969     155.9178     311.5876      1.405     2.81     833.2666      54.9497     381.4728        19     1.161     0.868 -58.44   0
       521    763.1692    290.3867 307.6219246  +6.5662591     1103.035     1317.169     1520.698     77.64842     155.6697     311.6806      1.188     2.78     837.5644      54.9497     208.1851        10     0.936     0.685 -84.36   0
       522    777.6240    286.3966 307.6160539  +6.5683888     60603.07     81694.12     84130.11     77.77276     155.6076     311.5876      1.441     2.83     837.5539      54.9497     8437.735        62     1.342     1.104 -79.27   0
       523    449.2407    285.9289 307.7524684  +6.5576016     2775.205     3762.842     3186.415     78.02084     155.9178     311.8046      1.409     2.79     832.1575      54.9497     456.7449        20     1.143     0.903 -56.38   0
       524   1012.5137    283.3366 307.5185879  +6.5774833     1690.582     2430.907     2385.892     78.26813     156.0417     311.7736      1.535     3.39       834.84      54.9497     255.9801        18     1.198     0.962 -52.03   0
       525    953.3185    282.7574 307.5431959  +6.5757506     2397.698     3223.772     3245.025     78.14458     155.9178     311.7116      1.384     3.11     836.4177      54.9497     379.7574        18     1.184     0.850 -78.10   0
       526    595.3827    283.2926 307.6918553  +6.5635810     1389.273     1891.018     1967.622      77.8969     155.6697     311.6186      1.384     3.03     834.0978      54.9497     222.0365        11     1.025     0.689 -65.68   0
       527    486.3722    282.0479 307.7371758  +6.5604470     1362.963     1667.113     1690.095     77.77276     155.9797     311.6806      1.344     4.18     833.0381      54.9497     184.7123        12     1.165     0.706 -70.60   0
       528    435.7148    281.6841 307.7582289  +6.5589007     2192.351     3191.172     2792.795      77.8969     156.0417     311.8355      1.475     3.06     831.7009      54.9497     357.7283        19     1.159     0.977 -83.35   0
       529    315.6842    281.0338 307.8081057  +6.5551459     901.4254     1263.234      1392.56     78.14458     155.7938     311.7116      1.488     3.72     831.9412      54.9497     124.9528         7     0.752     0.658  75.70   0
       530    857.1984    275.6439 307.5833601  +6.5754826     1202.599     1798.384     1141.571     77.52389     155.6076     311.3704      1.626     4.11     836.8558      54.9497       183.96        15     1.199     0.848 -75.95   0
       531    486.2029    276.6154 307.7374283  +6.5626838     768.1711     972.0572     959.9064     77.77276     155.5455     311.5876      1.398     3.09     832.8484      54.9497     142.6965         7     0.861     0.631  72.25   0
       532    466.2027    273.0180 307.7458563  +6.5634991     1403.818     1876.585     2057.144     77.77276     155.4834     311.5255      1.328     2.70     832.3029      54.9497     253.7542        10     0.954     0.645  76.26   0
       533    212.2483    272.8772 307.8513415  +6.5550418     2648.123      3559.52     3904.098     78.02084     155.9797     311.7426      1.390     2.82     834.1869      54.9497     388.2449        17     1.101     0.863 -59.09   0
       534    776.0792    270.9975 307.6172106  +6.5746939     6863.943     9253.907     9402.371     77.52388     155.4212     311.5255      1.397     2.83     836.8106      54.9497     1157.715        24     1.150     0.959 -73.22   0
       535    366.7486    270.6663 307.7872443  +6.5611376      800.364     1148.882     1061.155     78.02084     155.8558     311.7426      1.591     5.71     831.1585      54.9497     110.0895        12     1.025     0.897  21.89   0
       536    247.7849    271.0454 307.8366432  +6.5569908     914.8767       1264.7     1042.104     77.64842     155.7318     311.5255      1.299     3.60     833.2994      54.9497     141.4447         6     0.888     0.482 -54.79   0
       537    108.4926    270.2595 307.8945235  +6.5526369     1284.744     1418.992     1786.993     78.02084     155.8558     311.8665      1.319     3.84     836.0126      54.9497     163.6281        12     1.019     0.822 -63.41   0
       538    792.5792    268.8454 307.6104288  +6.5761330     2898.788     3707.555     3613.199     77.77276     155.8558     311.5876      1.351     2.93     836.8743      54.9497     428.8953        19     1.108     0.900 -72.72   0
       539    494.8456    267.8845 307.7341313  +6.5665772     576.5912       691.26      499.896     78.14458     155.9178     311.7736      1.275     4.01     832.5497      54.9497      105.585         6     0.808     0.571  62.23   0
       540    381.9331    263.7583 307.7811692  +6.5644981     1986.492     3576.825     4339.097     78.14458     155.8558     311.8046      1.970     5.33     831.1264      54.9497     259.0574        24     1.611     1.046  -9.82   0
       541     95.7045    264.0614 307.9000436  +6.5547655     1317.151      1763.88     1687.357      77.8969     155.9797     311.8046      1.355     3.29     836.0411      54.9497     202.9236        13     1.175     0.689 -66.36   0
       542    508.6710    259.8011 307.7286598  +6.5703767     2417.586      3292.03     3209.675     77.52388     155.4834     311.5565      1.399     2.75     832.2678      54.9497     393.7419        18     1.150     0.866 -86.62   0
       543    271.2558    255.3283 307.8274229  +6.5642662     6602.691     9076.571     9577.546     78.02084     155.8558     311.7116      1.450     2.76     832.5311      54.9497     1011.544        29     1.206     1.042 -75.38   0
       544      1.9691    248.0301 307.9395154  +6.5582304     66962.22     87082.96     89221.59     74.47256     132.7556     244.5206      1.373     3.28     837.6987      54.9497     10790.11        51     1.379     1.004 -84.23  24
       545    790.6789    248.8941 307.6118854  +6.5843053     843.8411      1088.76     954.3844      77.8969     156.1036     311.7736      1.444     3.33     835.8624      54.9497     144.6536         9     0.942     0.916 -43.55   0
       546    405.5053    246.0737 307.7719720  +6.5725880     2181.479     3075.519     3210.387     78.02084     156.1036     311.7426      1.485     3.12      831.024      54.9497     347.1163        19     1.200     0.934 -88.96   0
       547    247.8495    248.1462 307.8373862  +6.5664453     658.2876     1018.686     659.0728     78.26813     155.9178     311.7736      1.485     3.69     832.8113      54.9497     126.1533         5     0.906     0.432 -44.86   0
       548    992.3758    245.1671 307.5282267  +6.5925689      1250.08     1776.033     1634.256     77.52388     155.7318     311.5565      1.467     3.74     833.6745      54.9497     183.3199        14     1.111     0.927 -75.59   0
       549    211.3081    243.5335 307.8527190  +6.5671226     649.6199     968.6905      753.069     78.02084     156.1036     311.7426      1.712     3.60     833.4493      54.9497     112.0388         5     0.781     0.704  85.50   0
       550    327.7063    241.9534 307.8044252  +6.5716807     1278.911     1875.925     2255.075     78.02084     155.8558     311.8665      1.545     3.28     831.5031      54.9497     197.5657        11     0.953     0.819 -84.29   0
       551    174.9681    242.1320 307.8678600  +6.5664808     2127.877     2967.266     2621.873     78.02084     155.9178     311.7116      1.400     3.12     834.3075      54.9497     348.4728        15     1.180     0.775 -76.92   0
       552    584.7456    237.6673 307.6978024  +6.5820588     2451.689     3399.302     3610.035     78.14458     155.8558     311.6496      1.444     2.80     832.3068      54.9497     415.4374        17     1.117     0.900 -82.69   0
       553    928.3757    236.4770 307.5551023  +6.5940237     1758.639     2718.075     2304.038     77.77276     155.7938     311.7116      1.693     5.13     834.8416      54.9497     256.4727        21     1.480     1.075  33.38   0
       554    748.4735    235.1437 307.6298769  +6.5885724     5643.074     7426.387     7594.897     78.02084     155.7938     311.7116      1.379     2.88     834.9185      54.9497     873.7447        23     1.167     0.930 -70.76   0
       555    689.2759    234.9892 307.6544720  +6.5866588     2485.402     3304.539     2990.011     77.77276     155.5455     311.5565      1.378     2.87     834.0685      54.9497     397.3821        15     1.051     0.818 -83.14   0
       556    986.1884    234.7467 307.5311447  +6.5966644     850.2953     1433.416     1106.246     77.52388     155.8558     311.4635      1.704     4.36     833.3718      54.9497      137.488        12     1.032     0.969 -63.09   0
       557    321.5678    230.6817 307.8073536  +6.5761276      504.548     610.7459     686.9557     78.02084     155.8558     311.6806      1.013     3.42     831.5211      54.9497     80.29773         5     1.076     0.314 -68.12   0
       558    403.9034    229.1568 307.7732052  +6.5795173     921.5804     1066.004     1089.502     78.14458     155.8558     311.8975      1.234     2.79     830.9678      54.9497     157.5447         9     0.915     0.641 -73.51   0
       559    944.3051    227.2661 307.5487928  +6.5983569     1170.925     1455.831     1682.961     78.14458     156.1036     311.7736      1.355     3.11     834.0439      54.9497     209.7984        10     0.997     0.661 -58.02   0
       560    247.8705    220.5283 307.8383061  +6.5778461     2649.729     3437.249     3201.029     78.26813     156.0417     311.6806      1.390     2.84     832.2934      54.9497     403.2338        16     1.088     0.816 -87.86   0
       561    890.7067    219.4156 307.5713198  +6.5998109     1987.717     2572.247     2287.549      77.8969     155.7318     311.6186      1.422     3.25     834.2847      54.9497     295.5667        14     1.022     0.835 -80.78   0
       562    781.1227    218.8216 307.6168607  +6.5964000     1807.598     2338.144     2541.235     77.77276     155.7318     311.6806      1.331     2.73     834.4269      54.9497     318.1754        11     0.930     0.708 -77.40   0
       563    375.6532    214.8230 307.7854209  +6.5844872     572.5576     729.3519     784.5126     77.64842     155.9178     311.5565      1.408     3.45     831.0268      54.9497     76.28912         5     0.773     0.445  74.45   0
       564    269.2206    214.1480 307.8296526  +6.5811962     579.0874     764.9736     1028.295     77.64842     155.9797     311.5565      1.314     2.92     832.0395      54.9497     102.9197         6     0.747     0.557  42.61   0
       565    481.8808    210.2809 307.7414487  +6.5899210     25962.92     35536.52     37103.79     78.14458     156.1655     311.8975      1.427     2.78      830.693      54.9497     3950.222        45     1.291     1.096 -72.42   0
       566    807.9783    209.3919 307.6060202  +6.6011889     14517.46     20246.34     21576.85     77.77276     155.7318     311.5255      1.491     2.91      834.165      54.9497     2258.276        42     1.346     1.161 -49.74   0
       567    487.5530    204.7567 307.7392778  +6.5923912     1735.123     2518.458     3203.451     78.14458     155.8558     311.6806      1.590     2.99     830.5983      54.9497     269.8067        16     1.091     0.871 -50.71   0
       568    746.3600    204.9846 307.6317639  +6.6009512     825.5131     1060.349     1137.323     77.64842     155.7318     311.5255      1.481     4.67     833.8544      54.9497     100.2877         9     0.988     0.663 -38.90   0
       569    170.0805    203.6508 307.8711849  +6.5822007     2691.878     3540.768     3513.664     78.14458     155.9797     311.7426      1.400     2.94     833.2964      54.9497     406.9016        15     1.043     0.830 -83.91   0
       570    144.8169    202.4126 307.8817202  +6.5818630     1334.576     2021.889     2277.188     77.77276     155.6076     311.6496      1.659     4.16     833.7783      54.9497     190.7673        13     1.135     0.848 -70.57   0
       571    196.6535    201.5791 307.8602171  +6.5839483     775.2356     942.8715     1257.023     77.64842     155.9178     311.5565      1.360     3.98     832.7843      54.9497     115.2905         8     0.898     0.714 -47.52   0
       572    944.2729    199.7199 307.5497260  +6.6097268     1813.152     2388.808     2256.444     78.39149     156.1655     311.7736      1.396     3.12     832.8954      54.9497     288.5669        14     0.988     0.906  81.21   0
       573    342.7699    211.6157 307.7991875  +6.5847087     706.6534     988.2557     458.3896     77.77276     155.6697     311.6806      1.416     3.53      831.233      54.9497     126.6105         6     0.913     0.418  86.82   0
       574      7.9452    197.0085 307.9387529  +6.5794916     5532.259     7527.443     7681.055     77.52388     155.8558     309.7214      1.409     2.86     836.2417      54.9497     884.8617        24     1.176     0.986 -69.60  16
       575    605.9846    196.0231 307.6903754  +6.5999594     5279.379     7099.588      7004.24      77.8969     155.7318     311.6496      1.404     2.72     831.4254      54.9497     852.7292        24     1.214     0.953 -74.29   0
       576    568.6661    196.0062 307.7058778  +6.5987181     2425.288     3429.481     3574.259     77.64842     155.6697     311.5565      1.483     3.20      830.723      54.9497     353.3674        16     1.112     0.869 -79.84   0
       577    326.2053    196.8267 307.8065648  +6.5902578       1280.5     1684.554     1086.446     77.64842     155.7318     311.5876      1.361     2.93     831.4086      54.9497     203.0634        10     0.917     0.709 -67.30   0
       578    410.5793    195.1733 307.7715731  +6.5937688     1780.231     2355.164     2199.915     77.77276     155.7318     311.6806      1.407     2.83     830.7768      54.9497     318.7466        15     1.025     0.897  62.79   0
       579    966.9291    193.0509 307.5405370  +6.6132346     2969.463     4297.867     4045.271     78.02084     155.9178     311.7736      1.473     2.91     832.3171      54.9497     474.5611        22     1.242     0.930 -83.19   0
       580    913.0130    192.5945 307.5629496  +6.6116262     12447.33     16737.05     17091.24     77.77276     155.6697     311.6186      1.428     2.85     832.9862      54.9497     2074.879        29     1.226     0.993 -80.12   0
       581    340.5950    192.9397 307.8007183  +6.5923448      1167.22     1823.258     1934.337     77.64842     155.7938     311.5255      1.904     4.07     831.2242      54.9497     151.8128        12     1.151     0.786 -68.17   0
       582    588.0767    192.2791 307.6979397  +6.6009059     972.6492     1258.027     1497.006     78.39149     156.1655     311.8355      1.390     3.68     830.9689      54.9497     188.1263         9     1.025     0.646 -77.48   0
       583    232.2819    192.6429 307.8457188  +6.5888332     841.6879     1018.241      655.971     78.14458     155.9178     311.7116      1.239     2.72      832.178      54.9497     151.7479         8     0.910     0.605  89.78   0
       584    999.6741    190.3996 307.5270228  +6.6154199     10578.61     14769.04     15593.25     77.39915     155.2968     311.5565      1.487     2.91     831.8493      54.9497     1464.432        35     1.317     1.050 -81.36   0
       585    711.1414    190.3582 307.6468832  +6.6058125     3338.192      4534.34     4906.124     78.14458     155.9178     311.8046      1.455     2.81     832.8687      54.9497     553.3469        21     1.205     0.875 -74.16   0
       586     39.1153    189.2521 307.9260676  +6.5837418     28804.82     39916.46     41792.02     78.14458     155.8558     311.8355      1.464     2.75     835.6352      54.9497     4570.743        52     1.333     1.154 -74.22   0
       587    285.2653    190.3239 307.8237889  +6.5915686     1396.245      1860.63     1780.193     78.26813     155.9178     311.6806      1.409     3.50     831.8683      54.9497     205.5105        12     1.092     0.727 -61.10   0
       588    519.5615    185.2001 307.7266378  +6.6015355     2359.394     3298.392     3138.908     77.14907     155.6697     311.4945      1.443     2.81      830.239      54.9497     326.8499        21     1.162     1.007 -86.05   0
       589    851.5704    182.0223 307.5888268  +6.6139414     2000.533     2921.541     2771.289     77.52388     155.6697     311.5565      1.445     3.01     833.2294      54.9497     356.3175        15     1.166     0.784 -82.49   0
       590    763.1950    178.5490 307.6256550  +6.6124258     45843.07     61471.46     63286.47     77.52389     155.7318     311.3704      1.422     2.73      833.092      54.9497     7838.793        53     1.323     1.081 -78.81   0
       591    903.8328    181.0789 307.5671479  +6.6160737     2175.436      2782.13      2722.34     78.02084     155.9178     311.7426      1.391     3.02     832.5928      54.9497     319.7883        16     1.139     0.812 -62.89   0
       592    531.5836    181.2099 307.7217777  +6.6035849     2931.842     4115.576     4194.521      77.8969     155.6697     311.6186      1.459     2.79     830.1633      54.9497     420.4677        20     1.137     0.921 -89.94   0
       593    366.1894    178.0656 307.7905864  +6.5993427     6524.365     12325.45     13397.53     77.64842     155.7318     311.5876      1.979     5.54     830.9695      54.9497     846.3956        39     1.918     1.010 -78.40   0
       594    996.9198    177.2682 307.5286053  +6.6207488     3022.782      4058.79     3730.111     78.26813     156.1655     311.7116      1.415     2.99     831.5986      54.9497     479.8856        19     1.140     0.932 -64.17   0
       595    931.1001    175.6057 307.5560035  +6.6192420     8342.433     11359.64      12062.6      77.8969     155.5455     311.4635      1.429     2.86     831.9572      54.9497     1375.016        28     1.242     0.980 -83.35   0
       596    474.5687    174.6474 307.7456815  +6.6043851     5701.156     7925.299     8063.296     77.77276     155.9178     311.6496      1.456     2.73     830.2551      54.9497     891.1232        27     1.228     0.998 -79.94   0
       597    248.9445    171.6046 307.8395051  +6.5980767     814.1879     1163.024     1055.535     77.52388     155.7318     311.4635      1.368     2.85     831.9271      54.9497     136.2111         8     0.887     0.659  76.06   0
       598    131.9161    166.0235 307.8883037  +6.5964499     5384.655      7369.28     7326.104     78.02084     155.6697     311.6806      1.407     2.90     833.2269      54.9497     861.1205        21     1.140     0.925 -75.47   0
       599    951.6350    165.1859 307.5478209  +6.6242276     879.9938     1163.807     1760.082     77.77276     155.6697     311.5876      1.418     3.06     831.4056      54.9497     138.3657        10     0.965     0.713 -54.81   0
       600    277.5289    163.8956 307.8278908  +6.6022181     7436.884     10330.19     11009.51     78.02084     155.9797     311.7426      1.479     2.82     831.8533      54.9497     1188.156        29     1.226     1.022 -71.59   0
       601    628.5571    162.4365 307.6821240  +6.6145783      562.317     1518.526     2055.831      77.8969     155.8558     311.6186      3.009     7.21     830.4078      54.9497     127.3759        12     2.413     0.603 -89.14   0
       602    302.2495    162.7760 307.8176599  +6.6035096     38405.25     53316.91     55615.22     77.77276     155.9797     311.6496      1.461     2.80     831.6791      54.9497     6203.693        53     1.329     1.137 -74.76   0
       603    731.6166    162.0489 307.6393251  +6.6181823     919.1717      1012.23     405.6433     77.64842     155.9797     311.4945      1.124     2.52     832.4264      54.9497      171.347         7     0.770     0.607 -72.78   0
       604    426.3313    158.2565 307.7662691  +6.6095352     57080.78     77940.14      80445.3     78.26813     155.8558     311.6806      1.447     2.83     830.4714      54.9497     8779.849        63     1.346     1.139 -72.77   0
       605    182.2856    159.5235 307.8676001  +6.6008252     4719.874     6554.203     6990.622     78.14458     156.2273     311.8046      1.511     2.84     831.8299      54.9497     716.6908        25     1.247     0.965 -73.93   0
       606    443.5447    158.6104 307.7591069  +6.6099658     1726.891     2529.065     2559.608     77.52389     155.8558     311.4325      1.611     2.90     830.3043      54.9497     247.7218        15     1.032     0.854 -57.21   0
       607    713.2551    156.4186 307.6471412  +6.6198931     1224.522     1857.452      1473.91     77.64842     155.9178     311.5565      1.563     4.14     831.7016      54.9497      178.933        16     1.306     0.983 -84.27   0
       608    330.3246    155.9482 307.8062272  +6.6072697     21036.84     28996.07     29861.12     78.14458     155.9797     311.7426      1.448     2.78      831.356      54.9497     3419.171        43     1.281     1.107 -70.24   0
       609    765.6207    154.4196 307.6254546  +6.6224671      38172.8     50979.04     52650.11      77.8969     155.8558     311.6806      1.407     2.74     832.1469      54.9497     5324.921        51     1.278     1.114 -77.23   0
       610    337.8549    155.3580 307.8031190  +6.6077659     2329.749     3809.509     4616.341     78.02084     155.9178     311.7736      1.939     5.73     831.2701      54.9497     364.7279        24     1.859     0.800 -72.94   0
       611    814.0385    154.8597 307.6053263  +6.6239016     1455.016     1841.585     2819.656     78.14458     155.9797     311.7736      1.461     3.50     832.1605      54.9497      210.342        12     1.108     0.677 -79.50   0
       612    563.8989    156.5771 307.7091798  +6.6148344     509.4589     729.3571     940.9102     78.26813     155.6697     311.5565      1.174     3.45     829.8588      54.9497      94.7702         5     0.782     0.440  20.42   0
       613     52.8476    154.9170 307.9215205  +6.5983761     696.2345     995.2793     720.6937     78.14458     155.9178     311.7426      1.490     3.18     834.8533      54.9497     110.9432         8     0.837     0.646 -49.87   0
       614     82.4141    151.7133 307.9093473  +6.6006927     10269.23     14226.81     14039.37     77.77276     155.7318     311.6496      1.468     2.82     834.3658      54.9497     1617.531        34     1.265     1.056 -71.88   0
       615    116.1137    149.6938 307.8954174  +6.6026593     1627.819     2015.173     1667.676     78.14458      156.351     311.8355      1.342     2.92     833.3203      54.9497     227.6467        11     0.956     0.717 -72.32   0
       616   1023.5768    148.6960 307.5184848  +6.6334310     943.6961     1225.793     1457.664     69.22791      125.266     236.1584      1.302     4.69     830.5584      54.9497     200.0079         9     1.235     0.593 -77.56  24
       617    992.2269    147.4969 307.5315485  +6.6328819     562.1486     787.8625     781.1909     78.26813     155.6697     311.6806      1.590     4.49     830.4978      54.9497     100.3121         6     1.203     0.476 -42.93   0
       618    750.0379    142.4698 307.6323278  +6.6268796     564.5005     663.3168     637.8635     78.02084     155.9178     311.8355      1.460     4.01     831.5444      54.9497     134.2402         5     1.006     0.514 -73.99   0
       619    599.3013    138.9694 307.6950635  +6.6232869     969.0511     1348.229     1629.537     78.14458     155.6697     311.8355      1.469     2.34      829.283      54.9497     188.5099         7     0.737     0.616 -82.25   0
       620     15.6804    136.9383 307.9375646  +6.6045468     1022.555       1357.3     1006.985     78.26813     155.9178     311.7426      1.436     3.25     835.3776      54.9497     154.1313         9     0.999     0.615  89.83   0
       621   1023.8624    135.1281 307.5188189  +6.6390413     927.5759     1251.595     1259.629     65.49857     120.8694     231.3219      1.105     2.52     829.7527      54.9497     274.1311         7     1.007     0.340 -86.84  24
       622    608.1644    132.8576 307.6915864  +6.6261061     1269.893     2007.689     2583.705     78.02084     155.9178     311.7736      1.808     3.29     829.0741      54.9497     218.9008        14     1.116     0.812 -84.20   0
       623    616.4694    130.6398 307.6882107  +6.6272994     2351.914     3111.984     3594.521     78.02084     155.9178     311.8355      1.425     3.04     829.1257      54.9497     400.7729        17     1.241     0.826 -63.56   0
       624    360.5754    130.6778 307.7945101  +6.6187152     1111.154     1505.711     1592.917     77.77276     155.7938     311.7116      1.559     3.55     831.2996      54.9497     159.8103        10     1.013     0.732 -66.94   0
       625    301.1450    129.0144 307.8192534  +6.6174086     34272.57      47795.8      49826.1     77.52388     155.8558     311.4635      1.447     2.80     831.7709      54.9497     5732.786        51     1.320     1.140 -78.20   0
       626     46.4640    127.5365 307.9250946  +6.6094632     5094.478     7015.627     7518.554     78.14458     155.9178     311.7736      1.507     2.95     834.4732      54.9497     773.6528        24     1.236     0.956 -76.20   0
       627    732.8627    125.6365 307.6400261  +6.6332545     9264.349     12400.07     12615.65     78.14458     155.9797     311.7426      1.409     2.75     830.7418      54.9497     1450.766        30     1.191     1.021 -86.78   0
       628    210.0385    126.9070 307.8571694  +6.6152205     998.8291     1472.469     1648.042     78.26813     155.8558     311.8046      1.671     3.91     831.4443      54.9497     137.6177        10     0.923     0.743  79.70   0
       629    286.9258    124.0135 307.8253281  +6.6189958     938.4009     1168.795     1266.792     77.64842     155.6697     311.5565      1.311     2.82     831.8389      54.9497     139.2491         9     0.799     0.731 -87.82   0
       630    143.7150    122.7445 307.8848596  +6.6147107     5612.727     7855.377     7741.948     78.14458     155.9178     311.8665      1.471     2.83     831.4496      54.9497      839.873        28     1.228     1.076 -70.21   0
       631    605.5596    120.3191 307.6930887  +6.6311947     855.9912     1192.125      1390.48     78.14458     155.9178     311.6806      1.747     4.43     828.5756      54.9497     149.4808         9     1.043     0.730 -62.01   0
       632    482.7351    119.9698 307.7441236  +6.6272285      1680.18     2092.979     2319.108      77.8969     156.0417     311.6806      1.341     3.18     828.5175      54.9497     279.5422        13     1.058     0.802 -76.77   0
       633    671.3378    119.6759 307.6657845  +6.6336594     958.7098     1217.211     1103.739     78.39149     155.9178     311.7426      1.500     3.35     829.8511      54.9497     174.0369        11     1.070     0.707 -65.07   0
       634    414.3387    118.6469 307.7725806  +6.6254834     4191.352     6561.531     6781.448     78.02084     155.8558     311.8046      1.695     3.65     830.5927      54.9497     640.5922        31     1.499     1.093 -83.32   0
       635    378.6673    117.5368 307.7874361  +6.6247461     3605.412     4968.803     4921.431     78.14458     155.9178     311.7736      1.464     2.88     831.1572      54.9497     548.1151        24     1.280     0.975  85.65   0
       636    590.7407    117.5475 307.6993376  +6.6318432     863.0098     1111.365     1252.294     78.14458     155.8558     311.7426      1.405     3.59     828.4799      54.9497     135.4495         8     0.981     0.551 -71.36   0
       637    133.1248    117.4354 307.8894374  +6.6165463       2019.3     2652.136     2737.012     78.02084     155.9797     311.7426      1.388     2.63     831.5115      54.9497     308.4759        15     0.998     0.849 -89.16   0
       638    769.2740    115.4810 307.6252396  +6.6386626     691.5818     818.9318     570.0777     78.39149     156.1655     311.8046      1.340     4.29     830.0128      54.9497     100.1387         7     0.898     0.627 -74.70   0
       639    694.5178    115.5420 307.6562934  +6.6361405     816.8132     1212.344     1255.713     78.26814     155.9178     311.8046      1.573     3.59     829.9679      54.9497     126.8707         7     0.860     0.661 -79.56   0
       640     71.3704    113.4158 307.9152247  +6.6161294     632.2054     727.4501      188.291     77.77276     155.6697     311.6806      1.413     3.19     833.1725      54.9497     132.2863         5     0.935     0.478  85.24   0
       641    855.0477    111.4782 307.5897403  +6.6431774     487.7685     784.9138     443.5206     78.14458     155.9797     311.6806      1.490     4.35     829.2778      54.9497     84.81702         5     1.178     0.457  63.46   0
       642    751.2267    111.9712 307.6328545  +6.6395088     786.0496     1153.657     843.1193     77.64842     155.7318     311.5876      1.404     3.28     829.9868      54.9497     161.3273         9     1.043     0.673  26.74   0
       643    230.6172    106.5974 307.8493042  +6.6242947     6421.753     8562.205      8289.88     77.77276     155.4834     311.5255      1.438     2.80     831.4131      54.9497     965.8816        29     1.153     1.083 -79.98   0
       644    869.3375    106.6671 307.5839646  +6.6456400     519.1145      858.984     1012.374     78.14458     155.8558     311.7426      1.952     3.68     828.9523      54.9497     108.1368         5     0.955     0.417 -75.01   0
       645    840.7095    105.3183 307.5959029  +6.6452418     1197.996     1724.355     1297.223      77.8969     156.1655     311.8355      1.526     4.84     828.9653      54.9497     185.8372        14     1.280     0.821  84.40   0
       646    692.3586    105.3621 307.6575312  +6.6402704     7206.869     9431.234     9731.573      77.8969     155.9797     311.6186      1.383     2.78     829.6002      54.9497     1156.501        27     1.193     0.978 -88.61   0
       647    113.3472    106.3253 307.8980268  +6.6204675     2430.111     3282.609     3033.891     78.14458     155.9797     311.7426      1.504     3.09     831.4552      54.9497     379.1589        18     1.126     0.954 -68.91   0
       648    644.5107    102.6122 307.6775007  +6.6398064     10867.79     14792.71     15683.36      77.8969     155.6697     311.6186      1.458     2.80     828.8086      54.9497     1692.818        34     1.295     1.018 -78.48   2
       649    648.0717     94.1407 307.6763051  +6.6434223     61188.18     83019.09     85794.39     78.26813     155.9178     311.7116      1.404     2.79     828.6204      54.9497     10056.46        67     1.343     1.150 -79.59   2
       650     23.5473    102.7362 307.9354496  +6.6189290     824.2509     1908.448     2705.354     78.14458     155.8558     311.7116      2.609     5.75       835.11      54.9497     112.2404        11     1.451     0.960 -52.30   0
       651    279.1991    102.6303 307.8292566  +6.6275629     797.8498     1209.883      1393.98     77.52389     155.7318     311.5565      1.630     3.53     831.7693      54.9497     162.5403         7     0.901     0.558 -81.75   0
       652    582.5544    101.7585 307.7032676  +6.6380868     686.5673     1055.267     689.6992     78.02084     155.9178     311.5876      1.609     4.02     827.8762      54.9497      115.393         7     0.965     0.478 -80.76   0
       653     43.2094    101.6829 307.9273177  +6.6200252     948.1777     1515.232     1324.141     77.77276     155.6076     311.5876      1.675     4.34     834.1713      54.9497     125.7798        12     1.023     0.873  86.96   0
       654    371.7175     98.3434 307.7909677  +6.6324357     3967.656     5993.746     6604.442     78.14458     155.9178     311.8355      1.663     3.52     831.4509      54.9497     640.1884        27     1.503     0.953 -65.99   0
       655    553.4775     97.7332 307.7154818  +6.6387755     2126.674     2903.548     3248.126     78.26813     155.9797     311.7116      1.483     3.09     827.7138      54.9497     351.0829        15     1.082     0.823 -73.07   0
       656   1017.8948     97.4110 307.5225568  +6.6544120     843.0745     1170.722     1067.698     77.77276     155.6076     304.7524      1.569     3.16     827.6125      54.9497     140.0767         8     0.867     0.646 -66.46  16
       657    327.1474     87.9264 307.8098327  +6.6352410     4082.088     5776.602     6026.235     78.14458     155.9797     311.7736      1.453     2.75      831.968      54.9497     695.5679        24     1.169     1.023 -83.86   0
       658    522.8920     84.8410 307.7286201  +6.6430736      640.502      733.215      807.562     78.14458     155.8558     311.8355      1.317     4.30     827.5088      54.9497     92.59235         7     1.154     0.456 -56.30   0
       659    605.4509   1015.4606 307.6631591  +6.2616834     163316.5       245287     257908.6     78.14458     155.8558     311.7426      1.663     3.19     859.5731      54.9497     20115.63       106     1.537     1.359 -68.63  19
       660    698.5195     81.3522 307.6557757  +6.6503873      1714.85     2242.153     2571.957     78.14458     155.9178     311.7736      1.454     3.60     828.7089      54.9497     240.6824        13     1.068     0.790 -74.99   0
       661    712.4722     78.0628 307.6500893  +6.6522113     3584.315     4818.241     4704.259     78.26813     155.9178     311.8046      1.390     2.93     828.6127      54.9497     559.1917        20     1.171     0.886 -79.92   0
       662    281.2147     79.2324 307.8292060  +6.6372887     485.8519     693.5449     909.3559     77.77276     155.6697     311.6496      1.335     3.80     831.9542      54.9497     80.47327         5     0.905     0.459  45.46   0
       663     84.2365     76.3730 307.9111281  +6.6318521     588.5477     903.6285      927.736     77.64842     155.7318     311.5565      1.378     3.71     831.0256      54.9497     111.0721         5     0.898     0.441  47.50   0
       664    727.0736     82.4520 307.6438764  +6.6508873     1155.004     1318.841     1419.858     78.14458     155.9797     311.7736      1.333     2.97     828.7896      54.9497     207.3563        12     1.043     0.724 -86.67   0
       665    454.1351     69.1389 307.7577104  +6.6472527     4782.431     6547.885     6565.292     78.14458     155.8558     311.7736      1.419     2.82     827.9664      54.9497     774.5339        25     1.176     1.019 -65.22   0
       666    926.8917     64.4866 307.5614635  +6.6649709     4236.578     5765.386     6277.016      77.8969      156.351     311.8355      1.444     2.97      827.678      54.9497     610.9317        27     1.270     1.076 -66.15   0
       667    606.8704     64.7332 307.6944069  +6.6541836     835.2812     1284.873     1610.945     78.14458     155.9797     311.7426      1.518     4.01     827.4818      54.9497     134.1259         9     1.096     0.665 -77.00   0
       668    618.8735     63.0711 307.6894760  +6.6552711     2094.951     2771.871     2523.591     78.39149     156.0417     311.7736      1.346     2.62      827.543      54.9497     389.4011        15     1.059     0.794 -81.26   0
       669    360.4414     62.8470 307.7968444  +6.6467097     445.9866     542.3176       203.99     78.02084     155.9178     311.6186      1.578     4.86     831.8843      54.9497     80.10339         5     1.058     0.632 -28.42   0
       670    417.5491     61.1397 307.7731777  +6.6493288     2086.631     2841.134     2337.498     78.14458     155.8558     311.7426      1.430     2.85     828.4089      54.9497     322.6561        18     1.096     0.976 -88.66   0
       671    264.5940     62.1651 307.8366843  +6.6437758     999.5439     1267.644       2186.3     77.39915     155.6697     311.5255      1.311     3.33      831.744      54.9497     179.0014         7     0.756     0.635 -74.62   0
       672    165.4154     57.7747 307.8780322  +6.6422575     3689.047     5024.325     5248.526      77.8969     155.7938     311.6806      1.400     2.84     829.4455      54.9497      587.951        21     1.220     0.863 -82.00   0
       673     47.3862     55.7843 307.9271294  +6.6391111     13884.64     19758.61     21088.39      77.8969     155.6076     311.6806      1.524     2.84     831.8181      54.9497     2164.461        43     1.379     1.135 -82.91   0
       674    313.6862     56.4523 307.8164825  +6.6477812     1528.118     2149.506     2983.835     78.14458     155.7938     311.8355      1.690     3.39     832.3857      54.9497     214.7942        14     1.022     0.912  31.90   0
       675    574.3991     55.2990 307.7082129  +6.6569917     925.1304     1204.787     997.5146     77.64842     155.5455     311.4325      1.336     3.40     827.2435      54.9497     142.7844         8     0.929     0.620 -89.01   0
       676    782.4339     54.7404 307.6218046  +6.6641750     742.6792     1139.062     1766.577     78.02084     155.9797     311.6806      1.596     3.62     827.6675      54.9497     138.8502         6     0.983     0.384 -69.71   0
       677    176.6489     53.9902 307.8734931  +6.6441971      534.467     792.7883     618.6207     77.64842     155.7318     311.4325      1.555     4.40     829.6078      54.9497      89.3783         6     0.849     0.648  57.22   0
       678    915.9212     51.7711 307.5664460  +6.6698540     672.7339     827.3936     770.0198     78.02084     155.9178     311.7426      1.389     2.72     827.4499      54.9497     129.5262         5     0.802     0.459  52.98   0
       679    849.1403     50.2778 307.5942405  +6.6682433      7112.23     9535.889     10342.24     78.26813     155.9178     311.7116      1.429     2.94     827.4265      54.9497     1078.665        25     1.200     0.986 -79.29   0
       680    794.2056     50.6520 307.6170508  +6.6662556     3764.968     5053.873     5078.828     77.64842     155.7318     311.4015      1.402     3.09     827.5164      54.9497     630.4628        21     1.167     0.927 -75.06   0
       681    439.0912     51.2365 307.7645610  +6.6541385      1225.35     1696.302     1257.897     78.26813     155.8558     311.7736      1.375     3.85     827.5669      54.9497     192.5611        11     1.152     0.678 -62.32   0
       682    908.8167     65.3803 307.5689429  +6.6639994     2332.832     3023.254     3050.864      77.8969     155.7318     311.6496      1.402     3.33      827.697      54.9497     329.4352        15     1.107     0.814 -86.34   0
       683    556.5970     48.8394 307.7158252  +6.6590624     1395.106     1945.964     2340.934     77.27421     155.6697     311.4635      1.401     4.10     827.0812      54.9497     204.5898        14     1.204     0.803  78.46   0
       684    118.8068     51.0343 307.8976208  +6.6434734     614.8798      912.871     1196.981     77.52388     155.6697     311.5255      1.482     3.42     829.3034      54.9497     101.6899         6     0.907     0.452 -52.81   0
       685    587.0087     54.9733 307.7029853  +6.6575480     729.5881      930.911     688.3896     77.77276     155.7318     311.5876      1.434     4.58     827.3103      54.9497     122.9412         7     0.872     0.683  66.32   0
       686     72.3482     48.6745 307.9169996  +6.6428854     1112.164     1475.292     1461.342     78.14458     155.9797     311.7426      1.414     3.02     830.3815      54.9497     205.1171        12     1.040     0.777  73.24   0
       687     87.6874     47.4892 307.9106675  +6.6438905      3656.84     5225.464     5340.696      77.8969      156.351     311.8355      1.502     2.85     829.6031      54.9497     523.5205        23     1.251     0.941 -70.17   0
       688    448.7346     47.2453 307.7606888  +6.6561090     1080.652      1570.76     1661.405     78.14458     155.8558     311.7426      1.430     3.57     827.2966      54.9497     171.4666         9     0.886     0.813  52.27   0
       689    611.6478     44.0990 307.6931137  +6.6628608      1358.28     1649.144     1265.855     78.14458     155.7938     311.9285      1.325     3.08     827.3385      54.9497      209.594        12     1.057     0.712 -67.90   0
       690     30.1130     42.9476 307.9347374  +6.6438285     2814.811     3783.754     4292.297     78.14458     155.7938     311.8665      1.412     2.99     831.8801      54.9497     425.6415        20     1.197     0.880 -77.18   0
       691    788.8130     38.0081 307.6197141  +6.6712948      2091.97     2840.275     3180.586     77.77276     155.7318     311.6186      1.399     2.87     827.1635      54.9497     357.6161        15     1.027     0.864  83.68   0
       692    429.1776     38.0828 307.7691210  +6.6592358     1189.126     1810.821     2229.558      77.8969     155.6076     311.6496      1.515     4.15      827.041      54.9497     206.3085        14     1.156     0.968  41.05   0
       693    102.4593     38.7594 307.9048252  +6.6479905     822.7416       1092.3     658.1577     78.14458     155.9178     311.8046      1.348     4.19     828.8861      54.9497     130.8868         6     1.005     0.498  88.19   0
       694    126.6383     37.2806 307.8948307  +6.6494137     1048.945     1373.078     1781.256     78.14458     155.9797     311.6806      1.450     3.70     828.7878      54.9497     144.3754        11     1.044     0.749 -67.76   0
       695    115.3789     31.8397 307.8996912  +6.6512811     10408.17     14991.78     15748.46     77.77276     155.7318     311.5255      1.530     2.96     828.6112      54.9497     1607.885        39     1.369     1.078 -75.70   0
       696    444.5849     31.7202 307.7629339  +6.6623784     2925.801     4036.437     4350.626     77.77276     155.6697     311.5565      1.401     2.76     826.7513      54.9497     440.4385        17     1.077     0.849 -78.40   0
       697    265.3802     31.6184 307.8373849  +6.6564110     670.1783     912.7283     1483.032      77.8969     155.8558     311.6806      1.854     4.79     831.8363      54.9497     103.8572         6     0.945     0.690 -82.38   0
       698    282.1204     25.9241 307.8306220  +6.6593233     1624.189     2351.251     3209.647     78.39149     156.1655     311.8665      1.564     3.39     832.5082      54.9497     247.2398        12     1.078     0.731 -89.51   0
       699    658.2398     23.8742 307.6744346  +6.6727672     21257.39     28628.91     29692.07     78.02084     155.9178     311.7736      1.400     2.74     826.4706      54.9497     3587.583        41     1.243     1.075 -77.54   0
       700    966.9776     24.0085 307.5461613  +6.6830158     491.9038     880.6609     1604.963     77.77276     155.7318     311.5565      1.894     3.68     825.1469      54.9497     77.00262         5     1.001     0.388 -59.14   0
       701    558.0336     19.9235 307.7161980  +6.6710464     5903.701     7966.144     8155.359     78.02084     155.9178     311.7116      1.397     2.88     826.7286      54.9497     980.4721        23     1.128     0.977 -68.94   0
       702    276.1042     20.2729 307.8333113  +6.6614541     2234.092     3113.959     3564.203     78.02084     156.0417     311.7116      1.416     2.91     832.3235      54.9497     353.1605        17     1.156     0.830 -67.22   0
       703     25.4675     18.1217 307.9375039  +6.6539194     1362.423     1998.917     1259.179     78.26813     155.9797     311.7116      1.580     3.50     830.7233      54.9497     175.3566        14     1.079     0.858  22.29   0
       704    607.2397   1008.2688 307.6626572  +6.2647119     75601.41       115485       122942     78.02084     155.9178     311.8355      1.649     3.18     859.4141      54.9497      10150.6        75     1.498     1.297 -66.35   3
       705    239.3334   1018.1509 307.8150483  +6.2483152     3887.405     5841.868     6422.139     78.02084     155.7938     303.0993      1.615     3.43     856.7093      54.9497     478.7081        25     1.357     1.006 -57.43  16
       706    781.0572   1017.9110 307.5901784  +6.2665356     877.1419     1204.937     994.9069     78.02084     155.8558     305.0377      1.512     3.70     856.9648      54.9497     133.9383         9     1.042     0.670  72.08  16
       707    422.7619   1017.7338 307.7389202  +6.2546340     711.8159     1069.185     1159.619     78.02084     155.8558     306.2705      1.830     3.02     859.7213      54.9497     142.7511         7     0.949     0.613 -81.72  16
       708    343.9108     16.4077 307.8052720  +6.6653244     1191.575     1661.205     2082.691     77.64842     155.6076     311.4945      1.390     3.16     832.9078      54.9497     184.7014        10     0.872     0.797 -82.26   0
       709    516.3716   1016.1599 307.7001142  +6.2584163     415.5058     509.0767     250.7828     77.77276     155.6697     311.6186      1.314     3.78     859.3799      54.9497     82.47705         5     1.533     0.268  49.09  16
       710    576.5834     15.2317 307.7086487  +6.6736038     706.4374     868.2166     934.7331     77.77276     155.6697     311.6186      1.274     3.08       826.85      54.9497     147.6221         6     0.805     0.492  88.02   0
       711    548.9552     15.1815 307.7201286  +6.6727000     713.0126     751.0833     721.9787     77.77276     155.7938     311.4945      1.236     3.74     826.5801      54.9497      116.166         8     0.827     0.754 -20.16   0
       712    987.3752   1015.0651 307.5046236  +6.2745869     505.4181     1053.817     1348.328     77.77276     155.9178     311.6186      2.304     3.90     854.9929      54.9497     76.56219         5     0.898     0.484 -88.70   0
       713    816.4058   1012.3744 307.5756890  +6.2700003     6526.028     10649.69     11486.91     77.64842     155.7318     311.5876      1.787     3.52     856.4166      54.9497     829.7795        36     1.393     1.263 -52.60   0
       714    914.0344   1009.2110 307.5352655  +6.2745607     1309.785     2084.786     2128.567     77.64842     155.7318     311.5565      1.819     3.66     854.6087      54.9497     173.1285        14     1.021     0.948 -62.89   0
       715    236.8879   1007.7367 307.8164132  +6.2525320     2283.547     3512.449     3695.727     78.02084     156.1036     311.7426      1.677     3.46     856.3754      54.9497     336.3649        16     1.137     0.855 -57.21   0
       716    772.3784   1000.1637 307.5943741  +6.2735721     1155.679     1950.639     2846.352     77.77276     155.6697     311.4945      2.485     4.28     856.8049      54.9497     183.2605        15     1.320     0.806  74.08   2
       717    740.2185   1004.8290 307.6075689  +6.2705731     7081.953     11177.88     12055.72     77.77276     155.7318     311.6806      1.669     3.37     857.2525      54.9497     975.6777        37     1.414     1.183 -67.58   0
