#   1 NUMBER                 Running object number                                     
#   2 X_IMAGE                Object position along x                                    [pixel]
#   3 Y_IMAGE                Object position along y                                    [pixel]
#   4 ALPHA_J2000            Right ascension of barycenter (J2000)                      [deg]
#   5 DELTA_J2000            Declination of barycenter (J2000)                          [deg]
#   6 FLUX_APER              Flux vector within fixed circular aperture(s)              [count]
#   9 FLUXERR_APER           RMS error vector for aperture flux(es)                     [count]
#  12 FLUX_RADIUS            Fraction-of-light radii                                    [pixel]
#  13 FWHM_IMAGE             FWHM assuming a gaussian core                              [pixel]
#  14 BACKGROUND             Background at centroid position                            [count]
#  15 THRESHOLD              Detection threshold above background                       [count]
#  16 FLUX_MAX               Peak flux above background                                 [count]
#  17 ISOAREA_IMAGE          Isophotal area above Analysis threshold                    [pixel**2]
#  18 A_IMAGE                Profile RMS along major axis                               [pixel]
#  19 B_IMAGE                Profile RMS along minor axis                               [pixel]
#  20 THETA_IMAGE            Position angle (CCW/x)                                     [deg]
#  21 FLAGS                  Extraction flags                                          
         1    172.9945     17.0147 307.8650633  +6.6681967     12217.35     16810.44     16856.76     77.65952      155.381     311.1339      1.441     3.22     834.4279     54.86969     1822.387        33     1.325     0.980 -69.40   0
         2    517.1892     15.3373 307.7221237  +6.6804532     3399.065     4680.857     4627.602     77.53536      155.505     311.1029      1.436     2.96     826.0857     54.86969     500.5753        19     1.229     0.853 -66.42   0
         3    918.6497     14.9204 307.5553415  +6.6940612     4559.614     5834.001     5986.099      78.0308     155.7526     311.2887      1.306     2.86     821.8074     54.86969     766.7278        18     1.163     0.751 -64.91   0
         4    719.4193     13.5220 307.6381646  +6.6879779     2355.718     3149.573     2934.146     77.53536      155.381     311.2577      1.333     3.02     823.4643     54.86969     358.7249        17     1.136     0.798 -76.60   0
         5    455.3936     13.6274 307.7478551  +6.6790861     2007.477      2658.63     2951.321     77.53536      155.505     311.1029      1.376     3.32     827.6788     54.86969     278.8514        15     1.110     0.859  89.45   0
         6    983.3745     11.1511 307.5285758  +6.6977784     2154.139     3041.417      2935.26     77.65952     155.7526     311.1958      1.476     3.67      817.584     54.86969     339.2358        17     1.343     0.738 -74.12   0
         7    702.8424      7.6379 307.6452499  +6.6898524     8563.592     11291.08     11629.81     77.78347     155.6908     307.9593      1.380     2.81     823.6526     54.86969      1437.72        27     1.228     0.912 -70.56  16
         8    623.0588      6.8758 307.6784235  +6.6874954     4267.688     5852.035     6144.809     78.15417     155.7526     302.9125      1.421     3.10     824.5815     54.86969     643.2135        24     1.244     0.901 -68.29  16
         9    325.4202      6.1735 307.8021051  +6.6777988     1093.657      1868.91     2232.892     77.53536      155.505     296.8729      1.818     5.48     834.1724     54.86969     185.0898        14     1.449     0.756 -58.97  16
        10    423.2056      3.0578 307.7615846  +6.6823695     7206.863     9791.647     9844.908     77.53536      145.718     260.1356      1.416     2.87     829.4274     54.86969      1142.07        26     1.192     0.985 -68.27  24
        11    378.7495      5.0121 307.7799883  +6.6800699     771.1858     1060.992     947.0443       77.411     155.5669     284.9169      1.394     2.98     832.1049     54.86969     134.2714         6     0.873     0.466 -52.63  16
        12     24.1277      2.6641 307.9273938  +6.6691072      9756.45     12974.95     13135.55      78.0308     141.5596     254.9357      1.419     3.17     833.6561     54.86969     1398.279        27     1.224     0.976 -57.09  24
        13    669.9155      2.0020 307.6591199  +6.6910770     988.4659     1407.839      1567.92     74.88055     133.2148     244.7164      1.418     3.30     824.2971     54.86969     151.8284         9     0.917     0.687 -71.49  24
        14    318.7059      1.2317 307.8050615  +6.6796134      584.151     982.4576     1524.701     66.71577     122.0428     232.8544      1.712     4.12     834.3294     54.86969     144.7783         7     1.321     0.367  -9.45  24
        15    509.7926   1000.4485 307.6920049  +6.2734704     1176.401     1753.598     1748.223     77.53536      155.505     310.9171      1.596     3.80     857.5323     54.86969     171.6097        12     1.141     0.754 -80.16   0
        16    711.3914   1023.1913 307.6075489  +6.2708295     6591.128     7716.016      7862.61      72.9251     130.5853     241.7058      1.178     2.63     855.8359     54.86969     1094.496        18     1.039     0.803  -8.69  24
        17    703.8575   1022.7818 307.6106903  +6.2707466     1336.616     1757.564     2132.875     76.53486     136.2891      248.079      1.359     2.75     855.8262     54.86969     211.2135        12     0.913     0.826  17.72  24
        18    578.5327   1023.5874 307.6626899  +6.2662195     1611.791     2537.897     3278.414     68.70773     125.0066     235.5693      1.805     3.55     857.7043     54.86969     407.5309        14     1.451     0.622  -3.06  24
        19    567.4088   1022.6227 307.6673402  +6.2662453     4519.724     5781.434     5946.951     77.28645     137.7655     250.3598      1.374     2.89     857.7445     54.86969     663.2991        21     1.122     0.931 -41.06  24
        20    426.3188   1023.2318 307.7258899  +6.2612651     3473.435      4067.79     4436.415     72.79288     129.9937     241.1072      1.132     2.62      857.148     54.86969     779.2408        15     1.061     0.742 -38.26  24
        21    289.7730    997.7271 307.7834332  +6.2672128     16844.76     23811.57     25377.94     77.78348     155.6289     311.2268      1.523     3.20     856.8878     54.86969     2461.548        54     1.691     1.105 -52.80   0
        22    744.1195    998.6147 307.5947877  +6.2820714     8936.351     12699.74     13551.52     77.65952      155.443     311.1339      1.515     3.28     855.0689     54.86969     1294.419        33     1.341     1.033 -72.38   0
        23    805.3817    997.9318 307.5693777  +6.2844011      1296.59     1748.975     1775.047     77.65952     155.5669     311.2268      1.429     3.52     852.7634     54.86969     194.0984        12     1.019     0.868 -78.23   0
        24    414.3632    998.0777 307.7317006  +6.2712497     1091.301     1567.205     1569.111     77.90723     155.7526     311.2887      1.509     3.44     856.8578     54.86969     142.8289        12     0.920     0.901 -33.22   0
        25    115.9564    998.3378 307.8555667  +6.2611183     617.2529     675.2656      574.609      78.0308     155.6289     311.3815      1.362     4.39     854.1545     54.86969     82.75311         6     0.830     0.661 -27.78   0
        26    261.0901    995.3295 307.7954210  +6.2672393     1161.398      1491.74     1302.416     77.90723     155.9381     311.2887      1.343     3.69     856.3525     54.86969     199.0161         9     0.963     0.623 -77.89   0
        27    905.4266    992.0074 307.5280424  +6.2901886     9338.673     14068.42     14616.69     77.53536      155.505     311.1029      1.607     3.29     852.7355     54.86969     1211.849        36     1.381     1.125 -68.21   0
        28     65.0072    993.7746 307.8768705  +6.2612879     391.0649     357.1368     214.5554     77.53536     155.5669     311.1339      1.036     3.83     853.4326     54.86969     75.50134         5     0.828     0.509 -57.20   0
        29    536.6931    991.3310 307.6811444  +6.2781363     9509.339     12744.47      14018.2     77.90723     155.8145     311.2887      1.443     3.06     857.4055     54.86969     1504.068        30     1.302     0.938 -61.29   0
        30    879.0255    988.2246 307.5391298  +6.2908691     13211.95     19812.69     20687.97     77.53536      155.505     311.1649      1.590     3.30     852.7059     54.86969     1767.929        44     1.452     1.190 -59.55   0
        31   1000.7513    987.6813 307.4886124  +6.2951556     4920.439     7865.948     8100.733      78.0308     155.6908     311.3196      1.725     3.54     847.9213     54.86969     583.3853        34     1.487     1.155 -67.36   0
        32    591.9456    988.7972 307.6582921  +6.2810331     1430.545     2092.591     1986.518       77.411      155.505      310.948      1.598     3.22     856.8172     54.86969     282.9986        14     1.201     0.770 -61.74   0
        33    523.1442    987.1982 307.6869082  +6.2793887     4750.677     6761.034     7448.643       77.411      155.381      310.979      1.536     3.09     857.3492     54.86969     773.8212        33     1.424     1.243   9.83   0
        34     57.5582    985.5278 307.8802415  +6.2644420     983.2603      1583.01     1947.447     77.90723     155.6908     311.3196      1.797     4.71     853.2971     54.86969     168.4785        14     1.231     0.985 -38.51   0
        35    788.1251    985.0613 307.5769738  +6.2891385     584.3563     892.9164     1060.586     78.27734     155.6908     311.2887      1.715     5.01     853.2269     54.86969     105.2203         6     1.221     0.582 -69.96   0
        36    476.3022    983.7879 307.7064690  +6.2792268     2632.999      3593.88     3199.464     77.78348      155.443      311.072      1.417     3.14     857.2643     54.86969     402.0086        16     1.213     0.727 -68.33   0
        37    910.7616    975.8215 307.5263703  +6.2970498      46873.8     70340.26     73082.05     77.65952      155.443      311.072      1.594     3.23     852.2429     54.86969     6172.027        65     1.482     1.219 -74.10   0
        38    632.8163    986.4164 307.6414048  +6.2833845     1646.089     2281.137     2322.601     77.78348      155.381     311.2268      1.420     2.97     856.0577     54.86969     262.3936        12     1.021     0.702 -60.81   0
        39    315.9227    976.8885 307.7732807  +6.2766947     622.6749     842.7213     469.3595      78.0308     155.9381     311.3506      1.407     4.82     856.5243     54.86969     99.32422         7     1.069     0.616 -27.59   0
        40    218.2054    973.9663 307.8139446  +6.2746187     2018.371       2951.6     3065.451     77.28645      155.505      311.072      1.553     3.10     855.3708     54.86969     333.0739        18     1.241     0.850 -63.88   0
        41    616.8497    972.3476 307.6485065  +6.2886588     1081.937     1445.582     1277.954     78.15417     155.5669     311.2887      1.525     3.98     856.0204     54.86969     140.8243        11     1.018     0.761 -55.41   0
        42    106.0545    972.9932 307.8605338  +6.2712492     666.6645     826.6143     539.4609     77.53536      155.443       311.01      1.506     3.75     853.6329     54.86969      108.622         7     0.907     0.502 -44.65   0
        43    756.9435    967.5074 307.5905086  +6.2953441     7606.713     10751.17        11689     77.90723     155.6289     311.4434      1.531     3.43     854.0815     54.86969     1131.773        30     1.542     0.934 -72.44   0
        44    808.6931    969.5012 307.5689573  +6.2962505     2629.508      3430.35      3598.51      78.0308     156.2467     311.2268      1.413     3.02     852.7542     54.86969     380.9293        18     1.189     0.816 -63.57   0
        45    543.7130    966.8651 307.6790536  +6.2884731     1184.093     1594.483      1228.97      78.0308     155.8763     311.3196      1.408     4.83     857.0673     54.86969     194.9057        10     1.117     0.640 -71.15   0
        46    226.3582    966.4293 307.8108146  +6.2780045     1611.859     2276.298     2072.438     77.65952     155.5669     311.1649      1.543     3.84     855.3837     54.86969     213.2147        15     1.264     0.739 -68.98   0
        47    190.7458    966.5641 307.8255938  +6.2767519     899.9763     1372.176     1555.952     77.90723     155.6908     311.3196      1.616     3.34     854.8715     54.86969     141.8231         6     0.686     0.667 -47.71   0
        48    945.1234    962.5673 307.5125489  +6.3036693     7184.512      10804.2     11761.28     77.90723     155.6908     311.2268      1.634     3.25     850.7496     54.86969     1012.628        38     1.483     1.120 -81.22   0
        49     51.3139    964.4410 307.8835467  +6.2729380     3114.351     4376.025     4684.968      78.0308     155.6289     311.3196      1.581     3.42     853.0754     54.86969     452.6739        22     1.303     0.908 -63.00   0
        50    201.3184    958.5009 307.8214771  +6.2804364     706.4068     880.5615      1232.95      78.0308     156.1233     311.3815      1.490     4.33     854.9045     54.86969     97.01556         7     1.361     0.392 -78.89   0
        51    919.0108    954.2684 307.5236683  +6.3062243      2245.69     3209.639     1991.614     77.53536      155.505     311.1339      1.519     3.54     851.3829     54.86969     288.3983        20     1.158     1.050  70.18   0
        52    627.3369    956.2332 307.6446947  +6.2956633     900.2922     1222.348     1077.227     77.90723     155.7526     311.2577      1.372     2.32     855.4772     54.86969     167.4924         7     0.791     0.558 -61.62   0
        53    639.6847    950.0538 307.6397762  +6.2986280     5376.891     7284.873     7085.033      78.0308     155.6908     311.4434      1.403     2.90      855.174     54.86969     821.3113        25     1.305     0.877 -66.99   0
        54    251.8270    950.2499 307.8007879  +6.2855404     4999.573     6746.127     7006.697     77.65952     155.8145     311.2268      1.421     3.21     855.4854     54.86969      840.698        23     1.290     0.851 -65.11   0
        55    778.4266    950.5896 307.5821577  +6.3030475     1479.903     2069.626     2374.537     77.65952      155.505     311.1649      1.620     4.13     853.3198     54.86969      199.533        14     1.167     0.812 -61.94   0
        56    988.9042    949.6315 307.4948059  +6.3104710     727.7104     1169.209     1246.282     78.15417      155.505     311.3815      1.769     4.80     848.5954     54.86969      102.864         8     1.163     0.562 -54.76   0
        57    461.8813    948.4466 307.7136461  +6.2933352     1324.047     1634.588     1797.288      78.0308     155.6908     311.3196      1.342     4.05      856.714     54.86969      185.882        11     1.157     0.655 -76.56   0
        58     20.4890    947.6800 307.8969097  +6.2788203     2395.438     3278.047      2830.62     77.78348     155.9381     311.3815      1.428     2.93     852.8242     54.86969     378.1983        19     1.215     0.927 -73.93   0
        59    871.3190    946.5238 307.5437283  +6.3078297     917.4542     1330.625     1172.009     78.27734     155.9381     311.3815      1.375     3.77     852.4636     54.86969     130.9607        10     0.960     0.796 -71.57   0
        60    963.1977    944.6677 307.5056450  +6.3116630     717.4551     1080.588     1037.072       77.411      155.319     311.1029      1.505     3.98     849.5329     54.86969     104.5711         6     0.735     0.646  71.04   0
        61    287.8821    943.8456 307.7860362  +6.2893958      1005.69     1704.072     1917.107      78.0308     155.6908     311.2887      1.935     4.71     855.7922     54.86969      152.327        11     1.215     0.716 -62.30   0
        62    942.8727    943.8536 307.5141107  +6.3113210     747.2448     1008.454     1239.717     77.90723     155.5669     311.2577      1.665     5.03     850.2316     54.86969     113.7471         8     1.101     0.726 -22.34   0
        63    564.4447    942.7044 307.6712599  +6.2991432     1923.124     2480.597      2491.15      78.0308     155.5669     311.4124      1.461     3.30     856.3271     54.86969     301.4176        17     1.160     0.846 -71.03   0
        64    995.6531    942.2837 307.4922502  +6.3137301     854.3574     1549.033     1900.343      78.0308     155.6908     311.4124      2.100     6.40     848.3324     54.86969     111.3011        12     1.549     0.744 -69.14   0
        65    603.5405    938.9180 307.6551563  +6.3020159     1641.108     2332.169     2405.319     78.15417     155.7526     311.3196      1.401     3.18      855.377     54.86969     233.1292        14     1.145     0.696 -66.57   0
        66     53.2395    939.0264 307.8836069  +6.2834957     939.1974     1267.989     1457.349     77.65952      155.505     311.1339      1.346     3.37      852.903     54.86969     145.6509        10     1.010     0.692 -82.58   0
        67    283.4280    936.7507 307.7881247  +6.2921755     1780.589      2688.51     3241.208     77.65952     155.7526     311.2268      1.571     3.67     855.6005     54.86969     282.3015        16     1.250     0.783 -78.03   0
        68    750.4575    932.9269 307.5943628  +6.3094052     1021.467     1394.662     1499.218     78.15417     155.6908     311.2577      1.315     4.01     853.6877     54.86969     165.2708         8     1.094     0.455 -78.19   0
        69    887.8522    929.4050 307.5374384  +6.3154501      7787.38     11007.96     11154.57       77.411      155.443     310.9171      1.498     3.12     851.6921     54.86969     1100.057        30     1.318     1.016 -71.89   0
        70    125.6713    931.1077 307.8538061  +6.2892025     559.8447     1053.722      1316.48     77.90723     155.8145     311.3196      1.789     2.83      853.323     54.86969     114.3972         5     0.742     0.434 -72.60   0
        71    423.6491    926.5661 307.7302555  +6.3010871     2528.158     3351.167     3650.779     77.90723     155.6908     311.2268      1.372     3.01     856.3458     54.86969     421.8665        16     1.143     0.804 -79.47   0
        72    325.3756    924.8577 307.7711116  +6.2984946     11040.79     15190.34     15836.67     77.65952     155.6908     311.1339      1.411     3.00     855.7559     54.86969     1637.891        32     1.356     0.910 -68.97   0
        73    245.5202    923.8190 307.8042983  +6.2962412      8145.47     11218.31     11584.66     77.65952      155.381     311.2268      1.443     3.17     855.0753     54.86969     1122.686        27     1.281     0.921 -67.59   0
        74    573.6198    918.4800 307.6682659  +6.3094524     1511.105     1939.085     2209.638     77.78348      155.381     311.2268      1.363     2.69     855.5074     54.86969      246.954        12     0.983     0.767 -75.38   0
        75    757.7871    918.0538 307.5918194  +6.3157913     898.1894     1226.974     1055.269       77.411     155.6289      311.041      1.410     3.98     853.3024     54.86969     120.6182        10     0.938     0.743   0.74   0
        76    903.3811    914.7263 307.5314835  +6.3220293      1181.64     1675.297     1189.476     77.65952     155.6289     311.1958      1.553     5.47      850.769     54.86969     169.0658        14     1.400     0.725 -59.48   0
        77    135.8658    914.4002 307.8501386  +6.2964435     647.1132     729.0757      915.088     77.28645      155.319       311.01      1.382     4.07     853.2397     54.86969     101.3035         6     1.029     0.460 -62.39   0
        78    207.4940    913.4993 307.8204332  +6.2992241     584.2667     868.9678     941.2533      78.0308      156.185     311.1339      1.262     3.65     854.4898     54.86969     100.7132         6     0.950     0.403 -69.88   0
        79    860.0085    913.4357 307.5495343  +6.3211139     765.7785     1137.564     1700.617     77.53536      155.505      311.072      1.863     3.55     851.9509     54.86969     125.3721         6     0.796     0.666  26.14   0
        80    402.3819    912.4240 307.7395614  +6.3062127     535.4841     771.0309     1002.786     77.65952     155.5669     311.2268      1.225     3.91     855.9072     54.86969     94.45056         6     0.901     0.486  89.84   0
        81    971.0214    909.8669 307.5035632  +6.3262932      823.459     1186.625     1257.406     77.65952     155.6908     311.2577      1.582     4.71     848.6336     54.86969     117.1024         7     0.925     0.681 -59.54   0
        82    833.1165    908.4016 307.5608683  +6.3222942     657.3625     1013.137     998.7446     77.28645      155.257       311.01      1.760     5.16     852.0403     54.86969     90.36981         8     1.277     0.590 -80.24   0
        83    739.9152    907.6398 307.5995892  +6.3194936     1903.359     2551.179     3127.249      78.0308     155.6289     311.2577      1.457     3.26     853.4523     54.86969     312.7033        14     1.163     0.723 -71.94   0
        84    563.6232    908.2842 307.6727593  +6.3133273     700.4495     804.7469      587.671     77.90723      155.443     311.1958      1.318     3.75     855.4306     54.86969     141.6582         6     1.008     0.401 -72.92   0
        85    524.9112    903.4457 307.6889942  +6.3140281     1330.949      1868.78     1986.746      78.0308     155.5669     311.3506      1.524     4.58     855.7335     54.86969     209.7992        14     1.371     0.709 -82.55   0
        86    604.2188    904.0947 307.6560462  +6.3164167     961.5065     1037.983     952.2836     77.90723      155.443     311.1029      1.076     2.61     854.4302     54.86969     208.2447         8     0.876     0.578 -82.25   0
        87    971.3087    903.2656 307.5036652  +6.3290284     1362.804     2043.329     2297.086     77.90723     155.8763     311.2887      1.616     2.77     848.4939     54.86969     207.8102        13     0.958     0.820  52.80   0
        88    615.4930    904.1559 307.6513633  +6.3167689     800.2951     883.4933     512.5144      78.0308     155.6289     311.4124      1.249     4.71     854.2751     54.86969     112.6581         8     0.851     0.778  75.05   0
        89    658.3376    900.9371 307.6336836  +6.3195320      2926.57     4029.723     3913.587      78.0308     155.6908     311.3196      1.413     3.07     853.8727     54.86969     410.9899        18     1.209     0.783 -62.00   0
        90    948.7663    898.9247 307.5131700  +6.3300686     821.5771     1333.252     1660.106     77.90723     155.6908     311.2577      1.640     5.52     849.1019     54.86969        100.3        10     1.224     0.702 -75.22   0
        91     55.0999    896.9237 307.8842586  +6.3009413     3342.831     4790.508     4862.231     77.53536     155.8145     311.2887      1.477     3.13     852.4138     54.86969      530.402        23     1.335     0.892 -68.95   0
        92    936.5271    896.4250 307.5183354  +6.3306922     931.3222     1305.384     1263.246     77.65952     155.5669     311.2268      1.626     4.58     849.4343     54.86969      156.027        11     1.016     0.868 -49.15   0
        93    819.3809    897.1259 307.5669496  +6.3264909     892.9997      1139.74     1298.047     77.65952     155.6289     311.2268      1.332     3.24     851.9181     54.86969     142.3234        10     0.929     0.730  -8.61   0
        94    555.9420    896.8282 307.6763338  +6.3178000     616.5175     905.7712     1049.359     77.65952     155.7526     311.1958      1.589     5.09     855.2632     54.86969     112.1503         8     1.109     0.906   3.32   0
        95    198.6816    895.8837 307.8246866  +6.3062008     2536.371     3480.194     3271.261     77.78347     155.9381     311.3506      1.378     3.06     854.2133     54.86969     396.7894        19     1.168     0.919 -65.18   0
        96     72.5791    896.2050 307.8770266  +6.3018264      2175.52     3047.718     3421.587     77.65952      155.443     311.1029      1.555     2.93     852.4675     54.86969     337.7679        16     1.158     0.783 -54.49   0
        97    232.6205    892.7607 307.8107022  +6.3086310     923.0771      1332.74     1176.826     77.65952      155.505      311.041      1.557     5.98     854.8693     54.86969     130.0183        12     1.278     0.989 -36.87   0
        98    337.5360    892.2156 307.7671642  +6.3123801     1085.188     1353.767     1762.803     77.53536     155.5669     311.1649      1.434     2.81     855.3433     54.86969     178.1589         9     0.880     0.690 -65.92   0
        99    653.1154    889.9758 307.6362203  +6.3238831     8143.553     11092.68     11078.85     77.90723      155.443     311.1958      1.410     3.01     853.6269     54.86969     1341.735        29     1.281     0.917 -71.45   0
       100    790.7387    890.6991 307.5790572  +6.3281873     911.8067     1044.894     1081.559     77.78348     155.6289     311.4124      1.363     4.45      852.258     54.86969     125.1873         8     0.991     0.573 -65.66   0
       101    890.9360    886.3412 307.5376026  +6.3333339     3137.099     4390.548     4688.448     78.15417     155.6289     311.3196      1.479     3.37     850.2809     54.86969     445.2213        22     1.462     0.869 -67.10   0
       102     13.1174    888.3384 307.9019777  +6.3030723     1416.998     1894.088     1967.847     78.15417     155.6908     311.2577      1.419     3.54     852.1226     54.86969     239.8881        11     1.021     0.772 -78.38   0
       103    442.3804    887.2367 307.7238043  +6.3179538     557.6763     794.0159     489.3913     77.65952      155.505      311.072      1.425     2.96     855.3575     54.86969     125.9547         5     1.041     0.485 -88.71   0
       104     26.0228    886.8949 307.8966689  +6.3041029     1262.186     1783.746      1959.02      78.0308      155.505     311.1339      1.544     4.21     852.1616     54.86969     191.5255        14     1.228     0.797 -56.03   0
       105    765.4080    886.7707 307.5897061  +6.3289626     565.2304     682.7352     772.2084     77.65952      155.505      311.072      1.137     3.01     852.6617     54.86969     101.9156         5     0.728     0.449 -69.65   0
       106    336.1188    883.1160 307.7680594  +6.3160895     19148.84     25836.13     27258.95     77.78347     155.9381     311.3506      1.405     2.99     855.2003     54.86969      3188.42        39     1.321     1.008 -71.88   0
       107     70.7468    884.2350 307.8781921  +6.3067068     1417.086     1877.649     2099.523     77.90723     155.6908     311.2887      1.394     3.48     852.3127     54.86969     227.4725        10     1.046     0.613 -72.90   0
       108    206.9623    882.5754 307.8216983  +6.3119739     1484.807     2170.323     2247.181     77.65952      155.505     311.1029      1.442     3.60     854.3342     54.86969     232.5702        15     1.227     0.769 -75.40   0
       109    386.4305    882.2903 307.7471996  +6.3181191     744.5904     969.6129     921.1026     78.15417      155.505     311.2577      1.348     3.29     855.2081     54.86969     129.1492         6     0.841     0.510 -47.32   0
       110    665.5068    874.7817 307.6315865  +6.3305712     552.7131     783.0848     1330.995     77.90723      155.443     311.1649      1.843     2.81     853.1537     54.86969     109.9274         5     0.734     0.461 -70.27   1
       111    413.8890    873.9370 307.7360813  +6.3224894     1237.967     1494.099     1747.348     77.90723     155.8145     311.3196      1.290     3.54     855.0164     54.86969     207.0477        12     1.191     0.626 -71.81   0
       112     99.4621    873.7230 307.8666264  +6.3120133     2062.228     2861.384      3171.17     78.27734     155.7526     311.2887      1.558     3.01     852.3383     54.86969     322.1677        17     1.116     0.885 -79.92   0
       113    445.4046    872.6056 307.7230417  +6.3240962     416.5529      611.191     926.3514       77.411      155.381     311.1649      1.413     4.21     854.9979     54.86969     67.15747         5     1.223     0.413 -53.47   0
       114    667.6816    869.9672 307.6308454  +6.3326319     831.1323     1292.497     1705.451     77.90723     155.6289     311.2887      1.472     3.74     853.0138     54.86969     154.3687         6     0.947     0.451  82.00   0
       115    494.8217    870.6295 307.7025915  +6.3265690     920.7863     1224.705     1715.887       77.411      155.505     311.1649      1.383     3.77     854.8895     54.86969     146.4324         9     0.941     0.650 -61.92   0
       116    881.2288    868.0374 307.5422471  +6.3405673     2317.774     3171.042     3281.009     77.65952      155.443     311.1649      1.401     2.99     849.8467     54.86969     329.4175        16     1.122     0.793 -57.55   0
       117    851.9343    867.4550 307.5544296  +6.3398294     2361.012     3187.844     3264.132      78.0308     155.6289     311.2887      1.437     3.28     850.3161     54.86969     386.0551        19     1.254     0.856 -74.63   0
       118    815.3352    866.9666 307.5696418  +6.3388083     3465.602     4949.944     5208.141     77.90723     155.6908     311.2577      1.496     3.14     851.2794     54.86969     535.2498        20     1.261     0.841 -82.20   0
       119     83.0136    867.1840 307.8736761  +6.3141595     2797.246     3770.345       3903.3     77.78347      155.381     311.2268      1.451     3.03     852.1664     54.86969     458.5784        21     1.274     0.909 -67.35   0
       120    551.1989    858.3615 307.6795978  +6.3335235     389319.1     524416.2     544369.8      77.1617      155.505      311.041      1.448     3.61     854.1721     54.86969     63770.02       159     1.512     1.172 -69.95   4
       121    395.4175    860.9885 307.7441866  +6.3272159     8933.398     12198.87     12977.12     77.65952      155.381     311.1958      1.436     2.92     854.7154     54.86969     1277.267        29     1.243     0.967 -63.06   0
       122    638.9080    861.1133 307.6430896  +6.3353246       1314.5     1761.985     2253.806     77.90723     156.1233     311.3815      1.369     3.41     853.0018     54.86969     220.6948        11     1.130     0.635 -67.86   0
       123    452.2230    861.8627 307.7205729  +6.3287604     462.5342     766.7445     949.7098     77.65952     155.6908     311.1958      1.833     5.44     854.7094     54.86969     77.40991         5     1.235     0.677 -69.55   0
       124    338.6198    859.3167 307.7678239  +6.3259998     14738.91      20085.3     21155.72     77.65952      155.381     311.2577      1.452     2.97     854.8073     54.86969      2332.81        38     1.338     0.998 -67.05   0
       125    657.0067    855.5911 307.6357609  +6.3382104      4173.89     5517.077     6279.438       77.411      155.505     311.1339      1.409     3.01     852.7396     54.86969     695.1812        22     1.213     0.848 -67.67   0
       126    889.5600    854.5280 307.5392412  +6.3464234     6188.791      8491.18      8712.51     77.90723     155.6908     311.3506      1.482     2.99     849.3006     54.86969     855.9843        27     1.244     0.961 -67.98   0
       127    728.8919    852.0809 307.6060326  +6.3420647     1047.693     1417.826     1394.637     77.78347     155.9381     311.3506      1.444     3.54      852.223     54.86969      148.633         9     0.818     0.741 -41.20   0
       128    631.8961    849.6389 307.6463868  +6.3398275     3952.893      5248.24      5552.85      78.0308     155.5669     311.4124      1.395     3.05     852.8895     54.86969     640.2898        19     1.169     0.815 -66.73   0
       129   1022.7504    848.8558 307.4841300  +6.3532098     5081.059     6872.962      7087.21     77.03674     136.6421     248.8158      1.468     3.40     845.3143     54.86969     706.5141        22     1.264     0.937 -74.26  24
       130    820.2982    848.8522 307.5681893  +6.3464534      1932.15     2905.185     2619.158     77.90723     155.6908     311.4743      1.554     3.52     850.5725     54.86969      267.515        16     1.235     0.775 -71.87   0
       131    741.1908    850.2324 307.6009883  +6.3432392     508.3405     795.7859     668.7241     77.53536      155.443     311.1339      1.502     3.40     852.0303     54.86969     86.09387         5     0.958     0.349 -46.02   0
       132    174.8054    849.3309 307.8361715  +6.3246186     685.6387     785.7053     672.9346     77.53536      155.319     311.1339      1.191     4.39     853.1244     54.86969      106.866         8     1.068     0.513 -57.17   0
       133    622.1993    848.5086 307.6504508  +6.3399695     1117.495     1470.288     1665.663     77.28645     155.1949      311.041      1.382     4.47     852.9962     54.86969     139.7678        12     1.174     0.691 -73.80   3
       134    624.8452    844.1783 307.6494979  +6.3418461     2500.734     3350.405     3793.311     77.65952     155.6289     311.1339      1.364     3.02     852.8963     54.86969     450.3825        17     1.169     0.809 -63.43   3
       135    947.4428    847.4384 307.5154458  +6.3512829     1000.568     1248.856     1360.021     77.78348     155.6908     311.1649      1.249     2.58     847.9778     54.86969     162.8636         8     0.950     0.495 -86.86   0
       136    330.8039    865.2199 307.7708697  +6.3233000     768.7504      999.327     1556.485     77.65952      155.319     311.1029      1.284     3.87     854.9332     54.86969     127.2106         6     0.801     0.536 -54.42   0
       137    318.6485    843.1481 307.7766609  +6.3320049      1228.26     1848.406     1698.041     78.15417     155.5669     311.2887      1.552     4.65     854.6316     54.86969     198.1415        14     1.393     0.793 -63.49   0
       138    908.5080    842.2999 307.5317841  +6.3521050     3750.482     5202.144     5372.068      78.0308      156.185     311.2577      1.485     2.89     848.6425     54.86969     522.7559        23     1.191     0.944 -55.13   0
       139    366.5018    838.3268 307.7569559  +6.3356020     3093.493     4061.881     4199.792     77.65952     155.8145     311.2577      1.377     2.79     854.2311     54.86969     479.7151        18     1.110     0.831 -73.82   0
       140    502.8516    828.0641 307.7006912  +6.3444128     3562.219     4676.382     4277.747      78.0308     155.6289     311.2577      1.372     3.07     853.7479     54.86969     584.0983        22     1.237     0.909 -60.01   0
       141    335.0240    829.8865 307.7703096  +6.3380302     585.4415      856.948     996.6122      78.0308      155.505     311.1339      1.657     3.72     854.2984     54.86969     100.3286         5     0.800     0.499  64.38   0
       142    847.4056    827.1674 307.5576621  +6.3563126     1234.296     1793.633     2161.635       77.411      155.505     311.1029      1.782     4.41     849.0806     54.86969     166.4969        11     1.274     0.651 -74.85   0
       143    567.8503    825.6425 307.6737856  +6.3475906     825.6375     1146.168     604.0897     78.15417     155.6908     311.2887      1.420     2.73     853.2462     54.86969     169.9125         7     0.933     0.599 -83.02   0
       144    549.5980    824.1705 307.6814135  +6.3475869     6878.803     9156.109     9654.398     77.53536      155.505     311.1029      1.409     3.01     853.3038     54.86969     1078.303        25     1.291     0.864 -60.68   0
       145    261.1023    824.6906 307.8011757  +6.3376927     889.4874     1463.828     1300.957      78.0308     156.1233     311.2887      1.791     4.79      854.411     54.86969     126.0457        13     1.209     0.837 -79.58   0
       146    556.4982    823.6824 307.6785649  +6.3480196     1354.328     1654.046     1774.962      78.0308     156.0616     311.3815      1.226     3.03     853.2711     54.86969     230.1953         9     1.070     0.491 -84.37   0
       147    467.4174    823.0156 307.7155732  +6.3453093       1768.3     2198.321     2179.755     77.78347      155.381     311.2268      1.315     2.87     853.7209     54.86969     285.6562        12     1.004     0.741 -59.63   0
       148    108.9728    822.1780 307.8644207  +6.3336148     1507.147      2120.01     1819.092     77.53536      155.505     311.2577      1.429     3.56     851.9001     54.86969     283.1421        13     1.151     0.764 -75.35   0
       149    885.3770    822.1348 307.5420648  +6.3596587     1722.246     2452.718     2522.653     77.65952     155.6908     311.1958      1.501     3.17     848.1767     54.86969     242.3378        15     1.063     0.845 -67.87   0
       150    685.0706    821.1738 307.6252660  +6.3533601     951.0042     1493.396     1113.249     77.65952     155.5669     311.2268      1.564     5.00     851.3725     54.86969     123.3459        10     0.989     0.715 -86.04   0
       151    520.3083    818.0607 307.6937801  +6.3491281     22707.15     30310.06     31373.69     77.90723     155.7526     311.3815      1.379     3.02     853.3623     54.86969     3591.942        39     1.312     0.975 -65.68   0
       152    361.4152    819.7608 307.7596939  +6.3430969     760.1865     1127.717     1116.046     77.78348      155.505      311.041      1.455     3.26     853.8531     54.86969     127.1652         5     0.731     0.452 -70.08   0
       153    933.9764    816.2845 307.5220819  +6.3636968     4322.999     6195.182     5873.673     77.90723      155.443     311.1958      1.485     3.08     847.3069     54.86969     665.2412        25     1.336     0.905 -66.87   0
       154    166.9005    817.7227 307.8405214  +6.3374030     647.5643     967.3918     422.2183     77.65952     155.8763     311.3196      1.650     4.63     852.5495     54.86969     103.2071         6     0.809     0.753 -16.34   0
       155    406.0921    813.8240 307.7413447  +6.3470474     655.5427     686.4839     518.5513     78.15417      155.505     311.1339      1.407     4.34      853.298     54.86969     130.3506         6     0.998     0.538 -67.79   0
       156     53.9029    813.9152 307.8875634  +6.3351728     737.4178     923.5456     901.1088      78.0308     156.0616     311.3506      1.470     4.52     851.4412     54.86969     119.4822         7     0.943     0.616 -69.57   0
       157     30.6323    808.3578 307.8974125  +6.3366837     1620.881     2056.194     2246.042     77.65952     155.6908     311.1339      1.304     3.14     851.2415     54.86969     260.9871        12     1.154     0.631 -60.05   0
       158    575.3837    807.8558 307.6712564  +6.3551868     593.1649     855.2128     808.4385       77.411     155.6289      311.041      1.527     3.43     852.8813     54.86969     88.33112         5     0.782     0.434 -70.29   0
       159    312.9043    806.6948 307.7802758  +6.3468629     3803.617     5038.463     5243.047      78.0308     156.3083     311.1958      1.381     3.05      854.188     54.86969     616.0389        19     1.239     0.787 -64.22   0
       160    778.4736    802.6409 307.5871070  +6.3641359     64230.51     85645.53     88532.21     77.90723     155.7526     311.3196      1.431     2.92     849.6806     54.86969     9782.226        65     1.390     1.050 -70.73   0
       161     12.9213    804.8886 307.9048830  +6.3375195     2340.127     3368.101     3273.024     77.78347     155.9381     311.4124      1.429     3.74     851.1021     54.86969     398.9998        18     1.290     0.777 -63.20   0
       162    717.1356    804.3913 307.6125165  +6.3613621     797.7001      1141.81     1787.657     77.53536      155.443     311.1649      1.429     4.87      850.209     54.86969     109.8999         8     1.104     0.608 -85.36   0
       163    235.2633    779.0706 307.8134440  +6.3556598     755714.9      1559408      1707684      78.0308     155.6908     311.3196      2.162     5.07     853.2437     54.86969        62179       607     2.826     2.032 -84.83   4
       164    421.8633    801.2667 307.7352199  +6.3527612       1015.3      1191.98     1416.752      78.0308     155.6908     311.2887      1.187     2.59     852.8264     54.86969      239.645         9     1.013     0.532 -67.69   0
       165    706.7394    797.2307 307.6170738  +6.3639709     25189.77     34451.24     37400.75     77.78348     155.6908     311.2577      1.432     2.97     850.1257     54.86969     4244.521        46     1.350     1.051 -69.47   3
       166    700.4396    793.7141 307.6198078  +6.3652121     104582.1     137393.5     142792.1      78.0308     155.6908     311.2887      1.396     2.87     850.1513     54.86969     15492.15        79     1.408     1.063 -68.94   2
       167    903.7454    797.9272 307.5352501  +6.3702672     9764.426     13408.58     14091.17     77.90723     155.5669     311.2268      1.433     2.96     847.1531     54.86969      1440.99        33     1.337     0.965 -70.88   0
       168    523.4003    797.5069 307.6931885  +6.3577181     550.6688     633.8165     566.4222     77.53536      155.257      310.948      1.188     5.24     852.7456     54.86969     93.46277         7     0.917     0.845  72.21   0
       169    345.3140    794.5505 307.7672293  +6.3529652     24302.94     32255.15     33741.53      78.0308     155.6289     311.3506      1.406     2.90     853.3547     54.86969     3611.205        40     1.311     0.991 -70.37   0
       170    394.4955    794.8756 307.7467984  +6.3544817      1697.43     2155.131     1715.927     77.65952     155.8763     311.3506      1.280     3.03     852.7689     54.86969     255.5267        15     1.155     0.737 -67.93   0
       171    634.0572    794.1287 307.6473566  +6.3628194     1065.361     1388.029     1233.875     78.15417     155.6908     311.2577      1.382     4.53     851.7087     54.86969     154.7396        10     0.971     0.699 -71.35   0
       172    407.1723    792.4389 307.7416171  +6.3559132     26353.25     35252.21     36628.22     77.65952      155.505     311.1649      1.423     3.03     852.4865     54.86969     4232.333        48     1.343     1.050 -62.82   0
       173    944.4049    791.4358 307.5185850  +6.3743048     2334.062     3497.609     3293.453      77.1617      155.443      311.072      1.621     3.32     846.2001     54.86969     344.1578        19     1.272     0.852 -81.52   0
       174    900.7444    789.3683 307.5367833  +6.3737010     7918.255     10594.21     11030.68     77.90723     155.6908     311.2268      1.424     3.00     847.0261     54.86969     1211.736        30     1.339     0.973 -72.40   0
       175    873.3705    789.9831 307.5481289  +6.3725330     878.7377     1095.346     1282.485     77.65952      155.443     311.2268      1.360     3.88     847.4611     54.86969     149.6557         6     0.989     0.438 -76.67   0
       176    641.1665    788.3408 307.6445994  +6.3654471     7668.316     10021.58     10348.01     77.90723     155.7526     311.2268      1.390     2.98      851.219     54.86969     1263.266        27     1.210     0.935 -70.60   0
       177    130.8452    788.4940 307.8564786  +6.3482580     647.7169     834.8068     1097.012     77.90723     155.6289     311.4124      1.337     3.75     851.6357     54.86969     115.9166         6     0.996     0.467 -58.66   0
       178    429.8175    786.3002 307.7324218  +6.3592074     1867.438     2521.121     2655.991      78.0308     155.5669      311.072      1.401     2.97     852.1779     54.86969     368.4514        14     1.164     0.715 -79.71   0
       179    155.1262    785.7075 307.8464917  +6.3502252     960.8366     1160.226     822.2037      78.0308     155.8145     311.3196      1.279     3.00      851.921     54.86969     175.7044         8     0.972     0.541 -52.69   0
       180    728.9882    782.7994 307.6083208  +6.3706736     509.9662     838.5634     646.8259     77.65952      155.381     311.1029      1.509     3.90      849.173     54.86969     89.16656         5     0.849     0.513 -49.04   0
       181   1023.6704    781.4092 307.4860078  +6.3810890     671.6428     844.2123     1153.161     67.29092     123.2213     234.0512      1.281     3.96     843.7659     54.86969     124.8678         6     0.956     0.468 -87.30  24
       182    594.3940    780.3392 307.6642892  +6.3671848     1073.281     1428.502     1102.533       77.411      155.505      311.072      1.306     3.32     851.5196     54.86969     154.3652        11     0.965     0.747 -76.23   0
       183    145.4952    779.1356 307.8507125  +6.3526147     1172.285     1697.697     1859.816     77.90723     155.8145     311.3196      1.397     4.02     851.6597     54.86969     172.0281        11     1.260     0.581 -71.57   0
       184    869.3535    780.2258 307.5501243  +6.3764276     646.6308     794.0328      1017.08     77.65952     155.7526     311.1649      1.215     4.08     847.4344     54.86969     98.43304         6     0.730     0.653 -17.26   0
       185    676.3186    778.5415 307.6303333  +6.3706697     2937.616     3897.571     3871.484      78.0308     155.7526     311.2887      1.398     2.93     850.0722     54.86969     455.0723        18     1.159     0.823 -70.86   0
       186    120.2324    778.8726 307.8612101  +6.3518733      1095.02     1423.004      1727.01     77.90723     155.6908     311.3196      1.419     4.11     851.2801     54.86969     212.2562        11     1.308     0.624 -66.99   0
       187    410.1173    775.0576 307.7409803  +6.3631884      62656.2     84479.52     87886.12      78.0308     155.6908     311.3506      1.417     2.97     851.6708     54.86969     10268.77        73     1.396     1.120 -63.15   0
       188    952.8745    776.8035 307.5155588  +6.3806290     811.9022     962.4357     1404.264     77.53536     155.1949     311.1958      1.297     2.43     845.6439     54.86969     133.8922         8     0.803     0.621 -43.96   0
       189    527.8802    774.1157 307.6921160  +6.3675261     8402.805     11348.39     11609.35     77.90723     155.9998     311.3815      1.410     3.05     851.5529     54.86969     1378.383        27     1.279     0.911 -64.37   0
       190   1021.9152    773.8610 307.4869896  +6.3841471     541.8907     491.0071     968.3818     78.15417     145.9823     260.8383      1.103     3.87     843.8091     54.86969     88.40997         5     0.808     0.531 -61.03  16
       191    444.6659    772.7125 307.7267146  +6.3653157     5222.429      7230.92     7828.368      78.0308     155.8763     311.3196      1.443     2.98     851.6326     54.86969     841.0653        24     1.220     0.928 -66.29   0
       192    773.0813    770.7631 307.5904167  +6.3771177      13475.6     17968.92     18901.64      78.0308     155.7526     311.2577      1.401     2.89     848.4974     54.86969     2137.241        33     1.289     0.935 -66.39   0
       193      2.6065    767.1556 307.9104424  +6.3527508     1362.444     1807.509     1920.846     77.53536     140.9457     253.7995      1.414     3.32      850.275     54.86969     212.8516        14     1.012     0.966  63.50  24
       194    794.9980    765.1407 307.5815052  +6.3801718       1443.7     2057.738     2043.894       77.411      155.381       311.01      1.504     3.89     848.2341     54.86969     251.4224        11     1.072     0.708  84.07   0
       195    441.2287    766.0637 307.7283659  +6.3679455      2576.66     3586.504     4089.982     77.78347     155.6908     311.2268      1.437     3.25     851.2761     54.86969     454.3143        17     1.243     0.755 -66.31   0
       196    138.9701    762.9320 307.8539693  +6.3590852     3560.591     4820.202     5088.278     77.78348     155.6908     311.2577      1.410     3.06     851.2617     54.86969      554.382        21     1.247     0.860 -63.36   0
       197    130.7921    762.6573 307.8573740  +6.3589235     13240.46     18179.85     19236.98       77.411     155.5669      311.072      1.437     3.00     851.1119     54.86969     2145.589        36     1.346     1.012 -63.14   2
       198    123.0692    759.8279 307.8606761  +6.3598318     3303.226     5026.601     5743.695     77.78347     155.6908     311.1958      1.624     3.18      850.894     54.86969     516.3096        24     1.279     1.029 -74.40   3
       199    962.8533    764.0483 307.5118430  +6.3862286     717.0281     1153.655     1981.808     78.15417     155.6908     311.2887      2.197     3.67     845.1503     54.86969     117.8563         7     1.106     0.736 -39.65   1
       200    918.5894    759.4335 307.5303777  +6.3866567     7281.703     9963.575     10652.96     77.53536      155.505     311.1339      1.448     2.86     846.0417     54.86969     1179.094        30     1.290     0.998 -67.25   0
       201    967.7394    759.4344 307.5099688  +6.3882966     1627.014     2391.684     3007.718      78.0308     155.6908     311.2577      1.662     3.44      844.954     54.86969     241.7506        15     1.093     0.864 -73.48   0
       202    674.0398    756.9105 307.6320068  +6.3795247     1928.232     2589.593     2572.024      78.0308     155.6908     311.3196      1.417     3.35      849.309     54.86969      335.088        14     1.237     0.670 -68.35   0
       203    560.9691    756.0489 307.6789853  +6.3760944     2753.538     3426.236     3520.831     77.65952     155.6908     311.1958      1.333     2.83     850.4332     54.86969     493.2637        17     1.085     0.853 -76.13   0
       204    408.9943    755.5956 307.7421027  +6.3711862     1369.818     1964.789     2302.596       77.411      155.381     311.1649      1.494     3.03     850.8062     54.86969     225.1773        11     1.012     0.669 -65.60   0
       205    692.4171    754.2935 307.6244641  +6.3812201       748.77     764.7632     1205.116     77.78348      155.505     311.1649      1.197     4.08     848.8355     54.86969      129.189         7     0.989     0.482 -83.01   0
       206    123.2129    753.5471 307.8608288  +6.3624298     2182.112     2939.216     2843.293       77.411     155.6289      311.041      1.421     3.09     850.7577     54.86969     334.6269        16     1.130     0.831 -60.91   0
       207    942.1699    750.8867 307.5208729  +6.3909727     3447.782     4645.188         4265     78.15417      155.443     311.1958      1.425     3.04     845.3318     54.86969      521.434        23     1.234     0.967 -62.17   0
       208    912.7798    751.3638 307.5330607  +6.3897947     3573.537     4843.449     4970.994     77.53536      155.505      311.072      1.443     3.22      846.012     54.86969     582.4224        19     1.270     0.783 -66.06   0
       209    973.0819    750.5876 307.5080470  +6.3921278     2159.261     2871.681     3018.409     77.65952      155.381     311.1339      1.411     2.85     844.7266     54.86969     354.3458        16     1.090     0.858 -84.87   0
       210    665.0961    750.3355 307.6359416  +6.3819401     1811.066     2373.423     2296.499     77.90723     155.8145     311.3196      1.353     3.22     849.1276     54.86969     321.2652        13     1.119     0.694 -70.78   0
       211    812.4589    748.8907 307.5748006  +6.3874649     1227.126     1552.408     1419.701     77.90723     155.6908     311.4124      1.319     3.04     847.5703     54.86969      180.097        10     0.934     0.704 -54.05   0
       212    887.4917    746.9233 307.5437103  +6.3907838      877.033     1319.101     1876.851     77.78347     155.9381     311.2887      1.549     4.08     846.6486     54.86969     169.3842         9     1.168     0.561 -63.48   0
       213    237.6331    745.6000 307.8135904  +6.3695588     2032.119     3164.324     3775.666     77.03674      155.443       311.01      1.633     3.54     852.4302     54.86969     335.2548        19     1.333     0.892 -71.52   0
       214    930.2754    741.4794 307.5261275  +6.3944599       1207.4     1748.604     1516.063     78.27734     155.9381     311.3815      1.491     4.24     845.3015     54.86969     227.3986        11     1.132     0.748 -60.90   0
       215    257.9112    741.3683 307.8053137  +6.3719874     852.1185      1127.82     1064.119     78.15417      155.505     311.2887      1.384     4.38     852.4022     54.86969     126.6955         9     1.001     0.633 -58.32   0
       216    957.1459    738.7221 307.5150621  +6.3964952     2905.726     3892.311     3897.028     78.15417     155.6908     311.2887      1.490     3.23     844.8087     54.86969     445.4952        19     1.236     0.871 -70.42   0
       217    904.2546    739.4103 307.5370018  +6.3944456     1382.123     1989.509     1962.509       77.411     155.6289      310.979      1.462     4.85     846.0217     54.86969     204.1971        13     1.384     0.670 -81.19   0
       218    153.2086    740.3613 307.8488205  +6.3688830     1004.466     1329.511     291.4554     77.28645      155.443       311.01      1.423     3.53     851.1541     54.86969     170.7267        12     1.015     0.880 -54.65   0
       219    676.9802    737.7480 307.6314302  +6.3875350     1133.824     1667.901     2208.609     77.53536     155.7526     311.1029      1.748     2.96     848.5543     54.86969     219.7463        11     1.072     0.631 -73.58   0
       220    467.9026    733.3619 307.7183924  +6.3823421     624.5825     868.5218      1175.87      78.0308     155.5669     311.4434      1.452     4.20     849.7788     54.86969     100.0417         6     0.934     0.597  68.62   0
       221    998.9975    731.9607 307.4979102  +6.4006833     1862.803      2596.95     2436.304     77.16169      155.443       311.01      1.414     3.00     844.0405     54.86969     303.1811        14     1.125     0.731 -69.88   0
       222    397.1827    733.3750 307.7477563  +6.3799644     639.0255      956.681     1060.833     77.78347      155.505     311.2268      1.490     4.04      849.997     54.86969     135.3116         6     0.769     0.637 -80.42   0
       223    893.5533    731.2775 307.5417182  +6.3974463     618.2156     805.8201     1246.772     77.90723     155.7526     311.2887      1.521     5.20     846.1913     54.86969     94.85236         8     1.204     0.634 -73.92   0
       224    800.3666    730.7014 307.5804326  +6.3945710     1360.517     1863.135     1739.295      78.0308     155.5669     311.4124      1.420     3.29      847.057     54.86969     216.8784        13     1.055     0.825  87.95   0
       225    625.2562    731.8932 307.6531045  +6.3882211     702.7599     889.8367     1236.418     77.90723     155.6908     311.4743      1.381     3.36     848.5186     54.86969      106.331         7     0.755     0.654 -87.89   0
       226    886.6374    727.9727 307.5447009  +6.3985799      1768.29     2731.444     2596.781     77.65952      155.443     311.1029      1.523     4.13     846.3455     54.86969     268.7102        16     1.345     0.876 -73.76   0
       227    861.1342    723.0554 307.5554560  +6.3997584      1143.29      1225.01     1421.819     78.15417     155.6289     311.2887      1.287     3.16     846.8777     54.86969     177.3686         8     0.841     0.623 -52.82   0
       228    843.4001    719.3137 307.5629456  +6.4007109     1748.508     2022.127     1937.793     77.28645     155.1949      310.948      1.279     2.94     846.7892     54.86969     277.6096        11     0.943     0.733 -73.22   0
       229     42.5371    717.9741 307.8955282  +6.3744013     2791.942     3803.587     4630.668     77.65952     155.6908     311.2268      1.382     3.02     849.6157     54.86969     426.2385        19     1.207     0.822 -63.92   0
       230    106.4126    716.3558 307.8690618  +6.3772198     857.0916     1698.314     1811.654     77.53536      155.505      311.041      2.040     6.88     849.7753     54.86969     123.0366        13     1.718     0.772  76.04   0
       231    560.5363    713.1575 307.6806089  +6.3937892     592.8261     826.5403     445.3983      78.0308     155.6289     311.3196      1.352     3.44      848.636     54.86969     91.10895         5     0.801     0.428 -67.75   0
       232    655.1853    706.6417 307.6415263  +6.3996491     7360.146      9846.72     10290.74     77.53536      155.505      311.041      1.411     3.00     847.7089     54.86969     1161.797        25     1.210     0.879 -65.72   0
       233    601.9991    705.7782 307.6636404  +6.3982249     1657.448     2591.688     2785.107     77.65952      155.381       311.01      1.779     3.33     848.0386     54.86969     279.2925        15     1.274     0.776 -68.82   0
       234    523.4772    706.3969 307.6962247  +6.3953387       681.51     820.8423     474.7477     77.53536     155.1949     311.1029      0.963     2.63     848.6334     54.86969     163.9438         5     0.953     0.321 -64.74   0
       235    512.9933    706.3139 307.7005807  +6.3950216     955.9602     1320.589     1439.708     77.53536      155.381      311.041      1.513     4.73     848.6789     54.86969     135.7076         9     1.090     0.583 -55.53   0
       236    118.2116    702.4589 307.8646327  +6.3833545     4294.029     6265.096     6019.309       77.411     155.5669       311.01      1.545     3.16     849.7448     54.86969     675.1423        25     1.338     0.926 -71.65   0
       237    992.2387    701.8934 307.5017246  +6.4128725     2940.891     4008.688     4039.479     78.15417     155.6289     311.3815      1.468     3.05     843.7535     54.86969     456.2386        21     1.238     0.901 -71.89   0
       238    629.0455    702.3331 307.6525256  +6.4005530     2593.118      3454.67     3766.687      78.0308     155.6289     311.3196      1.421     3.10     847.7457     54.86969     428.4789        14     1.093     0.741 -69.77   0
       239    240.2926    702.4993 307.8139417  +6.3874434     831.2982     1067.974     1025.934      78.0308      156.185     311.2268      1.505     5.10     850.3804     54.86969     106.1467        10     1.129     0.653 -74.01   0
       240    304.9040    702.3510 307.7871188  +6.3896755     723.9142     621.9349     294.1767     77.90723     155.5669     311.4434      1.240     2.77     850.3842     54.86969     116.3486         5     0.790     0.463 -56.32   0
       241    772.0535    698.7602 307.5932624  +6.4068128     23737.15     31596.28     32920.71     77.90723     155.6908     311.2577      1.387     2.89     846.5493     54.86969      3850.18        44     1.318     0.992 -68.25   0
       242    454.2778    700.3073 307.7251637  +6.3955329     651.4075     874.9303     852.8833     77.78348     155.8763     311.3196      1.393     5.33     848.9929     54.86969     103.7079         8     0.921     0.870  22.98   0
       243    902.1227    698.4860 307.5392601  +6.4112718     4263.206     5772.386     6107.319      78.0308     155.9998     311.3815      1.451     2.89     845.4476     54.86969     702.0668        21     1.215     0.834 -63.72   0
       244    471.1630    698.8361 307.7182020  +6.3967067     1596.122     2165.278     2020.691     77.78347     155.5669      311.072      1.531     3.44     848.7239     54.86969     236.4844        14     1.205     0.744 -69.77   0
       245    499.6831    698.7186 307.7063635  +6.3977114     1045.402     1312.916     1535.918     77.78348     155.9381     311.3815      1.419     3.10     848.4855     54.86969     184.7936        11     0.998     0.762 -45.33   0
       246    273.4931    698.2047 307.8003012  +6.3903323      707.044      1038.24     770.1656     77.65952      155.381       311.01      1.401     4.10     850.3014     54.86969     118.3325         7     1.010     0.476 -80.17   0
       247    316.9856    698.2288 307.7822413  +6.3917833     647.3209     933.9092      869.809     77.65952      155.505     311.1958      1.302     2.65      850.088     54.86969     140.7142         5     0.781     0.477 -58.86   0
       248    961.3433    694.8956 307.5147888  +6.4147311     511.6094     450.0944     603.1414     77.90723     155.6908     311.5052      1.285     3.84     844.2095     54.86969      90.9184         5     0.893     0.472  86.46   0
       249    245.5459    692.2885 307.8121053  +6.3918358     7186.812     9465.287     9784.086      78.0308     155.5669     311.4124      1.420     3.05     849.8809     54.86969     1048.853        25     1.275     0.886 -71.35   0
       250     80.6145    694.2291 307.8805216  +6.3854869     542.5762     661.1782     740.4988     77.65952      155.505     311.1958      1.180     3.48     849.5492     54.86969     85.20087         5     0.805     0.435 -71.24   0
       251    652.6188    691.5456 307.6430998  +6.4057962     8279.617      11236.1     12145.04     77.53536     155.6908     311.1029      1.429     2.82     847.2734     54.86969     1424.578        30     1.271     0.966 -58.70   0
       252    635.0580    692.5529 307.6503580  +6.4047924     1015.665     1218.973     1023.774      78.0308     155.6908     311.4124      1.203     3.42     847.4628     54.86969     168.7029         8     0.843     0.644 -75.41   0
       253    347.8776    691.6544 307.7696360  +6.3955351     806.7908     1126.962     1006.207     78.15417     155.6908     311.2887      1.550     3.31     849.6527     54.86969     132.4193         9     0.901     0.866  46.53   0
       254    912.5469    684.2291 307.5354097  +6.4175065     1449.872     1799.083     1640.899     77.78348     155.8145     311.1958      1.345     2.85     845.0005     54.86969     244.2044        11     1.032     0.670 -76.25   0
       255     12.8011    684.1421 307.9090196  +6.3873680     552.3785     797.7149     962.2062       77.411      155.319      310.979      1.556     4.67     849.4977     54.86969      99.4256         6     1.107     0.559 -63.23   0
       256    724.3578    680.0792 307.6136958  +6.4129310     4293.529     6226.456     6737.264     77.90723     155.6908     311.2887      1.520     2.97     846.5763     54.86969     664.9435        26     1.448     0.862 -79.94   0
       257    679.4848    680.2981 307.6323221  +6.4113393     1154.094      1690.28     2098.681      78.0308     156.1233     311.3506      1.431     3.34     846.6773     54.86969     210.2231        10     1.112     0.602 -69.27   0
       258    990.7000    676.6085 307.5032112  +6.4232612     10472.63     14121.19     14174.83     77.78348      155.319     311.1339      1.417     2.97     843.4396     54.86969     1678.143        31     1.262     0.994 -65.19   0
       259    929.1648    677.0224 307.5287507  +6.4210369     2940.276     3856.962      4074.31     77.53536      155.443      311.072      1.371     2.88     844.5898     54.86969     503.0636        17     1.107     0.821 -73.47   0
       260      9.9914    676.2296 307.9104540  +6.3905401     2239.846     3330.177     3459.699     77.53536      155.505     311.1029      1.508     3.54     849.4749     54.86969     305.5754        17     1.147     0.905 -70.39   0
       261    543.4362    674.5798 307.6890084  +6.4091444     685.2787     841.7844     839.9305     77.53536      155.505      311.072      1.343     3.72     847.3453     54.86969     101.2605         6     0.924     0.431 -72.52   0
       262    529.1893    672.4231 307.6949970  +6.4095575     2435.697     3274.066         3090     77.65952      155.505     311.1649      1.436     3.32       847.34     54.86969     358.2705        16     1.122     0.805 -61.78   0
       263     67.9880    671.2564 307.8865414  +6.3945466     28886.96     40133.67     41833.46       77.411     155.6289      310.979      1.456     3.15      849.409     54.86969     4724.437        47     1.381     1.032 -68.67   0
       264    266.8150    672.2377 307.8039509  +6.4008291     561.0021     809.0356     482.0763     77.78347      155.505      311.041      1.562     3.94     848.9307     54.86969     88.02893         6     0.798     0.558 -50.48   0
       265    498.1077    669.5574 307.7080000  +6.4096988      1734.55     2095.967     1829.141      78.0308     155.6908     311.3815      1.382     3.13     847.4846     54.86969     294.5897        13     1.011     0.819 -83.12   0
       266    918.9993    668.7856 307.5332484  +6.4240984     1076.012     1128.751      1261.51     77.65952      155.381      311.072      1.236     3.58     844.6122     54.86969     181.8817        10     1.021     0.727 -60.29   0
       267    538.2749    666.1302 307.6914361  +6.4124602     1119.439     1822.189     1730.988     78.15417     155.8145     311.2577      1.652     4.71     847.1806     54.86969      166.101        12     1.283     0.625 -60.83   0
       268    714.0342    663.6375 307.6185355  +6.4193743     4235.952     5490.045     5519.683     77.78347      155.505      311.072      1.354     2.72     846.2376     54.86969     748.2249        20     1.177     0.810 -64.61   0
       269    736.0045    661.9123 307.6094701  +6.4208215     4919.145     6648.475     7156.455     77.53536      155.381      310.979      1.405     2.92      846.189     54.86969     821.2008        22     1.192     0.856 -68.16   0
       270    567.5233    659.8260 307.6795030  +6.4160432     3854.092     5011.092     4978.909     77.78348     155.6908     311.2577      1.367     2.97     847.0209     54.86969     582.6474        20     1.165     0.880 -62.16   0
       271    403.5112    660.2396 307.7475946  +6.4103731     1683.804     2271.585      2531.89      78.0308     155.6289     311.3196      1.550     3.74     848.7411     54.86969     256.6469        13     1.183     0.690 -68.28   0
       272   1008.9467    658.0144 307.4962572  +6.4315473     5622.813      7746.64     7828.691       77.411     155.6289      311.041      1.411     3.07     842.5084     54.86969       860.26        23     1.223     0.886 -74.02   0
       273    311.7537    658.6863 307.7857483  +6.4079339     1636.595     2129.701     2013.602      78.0308     155.5669     311.2887      1.358     3.33     848.5504     54.86969     235.7601        13     1.178     0.675 -78.02   0
       274    228.1909    659.1600 307.8204304  +6.4049304     2082.771     2987.137     3009.488       77.411      155.505      311.041      1.484     3.40     848.4196     54.86969     297.2318        15     1.098     0.844 -69.10   0
       275    974.3180    656.9824 307.5106722  +6.4308182     9243.939      12600.1     12864.47     77.65952      155.381     311.2268      1.421     2.93      843.175     54.86969     1363.591        33     1.325     0.978 -66.95   0
       276    528.3274    656.8322 307.6958800  +6.4159659     637.1404     1095.831     1449.584     77.90723     155.6908     311.3196      1.843     4.02     847.0592     54.86969     109.8014         6     1.167     0.397 -56.99   0
       277   1023.4394    655.6738 307.4903173  +6.4329971     797.0863     819.4672     1097.869     70.64353     127.0704     237.8486      1.175     3.64     842.1541     54.86969     165.2183         9     1.067     0.614 -77.06  24
       278    694.2108    655.3169 307.6270470  +6.4221466     1123.691      1512.65     1377.342     77.65952      155.443     311.1339      1.465     3.08     846.0189     54.86969     179.5983        11     1.082     0.767 -67.15   0
       279     85.5047    653.3080 307.8798753  +6.4025467     869.2403     1149.124     1071.647      78.0308     156.2467     311.2577      1.320     2.77     848.7669     54.86969     193.6116         7     0.924     0.480 -79.72   0
       280    419.5547    651.2247 307.7412366  +6.4146335      3199.42      4529.38     5029.748     77.53536     155.6908     311.1649      1.518     2.98     848.3984     54.86969     514.8868        20     1.273     0.834 -70.72   0
       281    132.7415    650.2056 307.8603664  +6.4054174     27615.94     38086.59     38682.25     77.53536     155.5669       311.01      1.435     3.06     848.4216     54.86969     4337.234        47     1.376     1.034 -66.28   0
       282    801.0164    650.6802 307.5828504  +6.4276329     1173.653     1359.688     1507.287     77.65952      155.443     311.1339      1.244     2.58     845.3513     54.86969     216.3146         9     0.903     0.602 -73.78   0
       283    352.5571    644.9493 307.7692686  +6.4149758      809.297      1138.29     961.2449     78.15417     155.6908     311.3196      1.557     4.56     847.7242     54.86969     136.4012         8     1.168     0.506 -67.12   0
       284    969.2714    639.8796 307.5133414  +6.4377115     7773.627     11414.88     12136.44     78.27734     155.9381     311.2577      1.558     3.03     842.7191     54.86969      1118.09        35     1.336     1.123 -85.06   0
       285   1023.6167    635.2634 307.4909277  +6.4414304      56829.3     69754.27     71971.34     68.14454      124.311      234.873      1.147     3.33     841.3503     54.86969     14102.34        42     1.460     0.651 -87.72  24
       286    562.7621    635.1315 307.6823115  +6.4260797     55437.52     74511.44      77355.2     77.90723     155.6908     311.3815      1.423     2.97     846.5895     54.86969     8877.655        59     1.389     1.039 -65.70   0
       287     13.8560    638.8383 307.9101151  +6.4061080     1408.915     1799.073     1561.764      78.0308     155.7526     311.2887      1.279     3.51     849.1185     54.86969     223.7962        12     1.147     0.656 -70.52   0
       288    927.1752    636.8464 307.5309247  +6.4375589     774.8142     812.8793      488.186     77.65952     155.6908     311.1649      1.319     3.17     843.5114     54.86969     127.7838         6     0.794     0.637 -69.17   0
       289    206.0042    636.0000 307.8304255  +6.4137467     677.5115     1039.954      834.817     77.28645     155.1949       311.01      1.703     3.71     847.7844     54.86969     122.3583         7     0.972     0.638 -62.45   2
       290    521.9421    635.3660 307.6992545  +6.4246149     846.6216     1283.001     1733.794     77.90723     155.6908     311.2577      1.529     3.82     846.6312     54.86969     144.1937         9     1.093     0.544 -63.05   0
       291    787.4461    634.7363 307.5890213  +6.4337624     632.1719      656.106     347.7523     77.90723     155.6289     311.3196      1.026     3.44     845.1521     54.86969     140.1023         5     0.789     0.433 -68.24   0
       292    170.3696    631.7136 307.8453671  +6.4143181     2954.896     4202.732     4246.134     78.15417      155.443     311.1958      1.485     3.23     847.7126     54.86969     481.1362        20     1.320     0.820 -69.15   0
       293    973.6809    631.6323 307.5117868  +6.4412639     612.4625     749.4678     973.8926     77.90723     155.6908     311.2577      1.336     4.54     842.3465     54.86969      95.1969         7     0.901     0.649 -71.92   0
       294    493.0341    632.0522 307.7113704  +6.4250140     733.5647     981.1676     1066.501     77.90723     155.6908     311.1958      1.462     3.90     846.5192     54.86969     120.1613         6     0.939     0.464 -55.72   0
       295     62.9988    625.7335 307.8901532  +6.4131737     1566.928     2109.709     2289.617       77.411      155.319      311.072      1.449     3.44     848.1938     54.86969     244.1597        14     1.181     0.741  89.36   0
       296    460.0326    618.8943 307.7255179  +6.4293400     69878.75     95970.49     99607.52     78.15417     155.5669     311.3815      1.447     3.11     846.5142     54.86969     10761.71        66     1.413     1.085 -70.04   0
       297      3.4685    620.5162 307.9150485  +6.4133227     1906.466      2594.18     2932.007     78.27734      149.954     266.2125      1.450     3.27     849.1309     54.86969     304.2325        17     1.275     0.763 -64.58  16
       298    645.9398    616.1672 307.6484090  +6.4366955     1084.752     1434.173     1572.814     77.78347     155.7526     311.2268      1.459     3.55     845.4611     54.86969     176.9183        12     1.129     0.664 -79.29   0
       299    304.0673    616.4190 307.7903667  +6.4251270     897.5076     693.4754     793.8689     77.65952     155.6289     311.1958      0.736     1.16     846.9313     54.86969     368.6414         5     0.534     0.424  51.00   0
       300    134.4664    613.7625 307.8608824  +6.4205218     1813.443      2269.45     1840.609     77.90723     155.6289     311.3815      1.369     3.30     847.1602     54.86969     254.9447        13     1.102     0.738 -70.59   0
       301    606.0461    610.8222 307.6651555  +6.4375666     1045.656     1621.876      1180.39     77.65952     155.6908     311.1339      1.607     4.28     845.9031     54.86969     162.4555        11     1.131     0.799 -55.23   0
       302    413.9507    611.6556 307.7448979  +6.4307829     1025.897      1490.14     1471.278      78.0308     155.6908     311.3506      1.584     3.49     847.0016     54.86969     174.3621        11     0.910     0.860  85.19   0
       303    305.4236    608.3273 307.7900767  +6.4285134     2450.672     3333.244      3276.14     77.65952      155.505     311.2268      1.557     3.65     846.6001     54.86969     339.1694        18     1.341     0.808 -74.16   0
       304      6.6171    609.2977 307.9141209  +6.4180605     719.9961     825.5906     1509.682      78.0308      155.505      300.774      1.223     2.93     848.9654     54.86969     130.3429         5     0.732     0.441 -69.56  16
       305    457.5760    606.5786 307.7269531  +6.4343426     957.8672      1378.87     1593.937     77.65952      155.505     311.2577      1.438     3.64     846.1673     54.86969     138.3623         8     0.855     0.753 -66.92   0
       306    732.0595    602.4779 307.6131060  +6.4452295     6207.723     8095.414     8259.455     78.15417     155.6908     311.2577      1.389     3.02       844.68     54.86969     1050.983        27     1.285     0.896 -65.16   0
       307    528.0222    597.4603 307.6980064  +6.4404694     1473.262     2345.973     2919.348     77.65952     155.6289     311.2268      1.710     6.54     845.6735     54.86969     233.5085        18     2.002     0.649 -82.45   0
       308    785.6511    597.7237 307.5910102  +6.4489846     16218.19     21642.36     22569.14      78.0308     155.7526     311.2887      1.400     2.94     844.3107     54.86969     2721.547        38     1.306     0.963 -69.58   0
       309   1002.9031    598.2718 307.5007697  +6.4560133     1268.504     1644.233     1154.493     77.90723     155.8145     311.2577      1.438     3.25     840.4655     54.86969     206.6563        11     1.000     0.720 -82.58   0
       310   1023.8738    597.1632 307.4920979  +6.4571704     494.2324     664.9348      767.058      64.8113     120.4537     230.7347      1.243     3.21     839.8856     54.86969     133.3381         5     1.050     0.298  81.59  24
       311    609.4899    595.7446 307.6642328  +6.4439073     3456.326     4517.556     4733.003     77.90723      155.505     311.4124      1.361     2.81     845.4907     54.86969     540.9339        17     1.158     0.775 -68.33   0
       312     30.6942    596.6013 307.9045531  +6.4241135      821.244     1028.334     1054.631     77.53536      155.319      310.948      1.369     4.38      848.103     54.86969     126.3142         9     1.024     0.780   7.05   0
       313    926.6898    591.8176 307.5326369  +6.4561349      1348.63     1809.158     2093.585     77.78347      155.443     311.1958      1.416     2.65     842.2131     54.86969     227.3195        12     0.911     0.821 -57.03   0
       314    368.0188    589.2596 307.7647269  +6.4384881     1085.812     1448.343     1211.267     77.65952     155.5669     311.1029      1.411     3.84     845.2078     54.86969     158.5342        12     1.135     0.695 -77.19   0
       315    222.0442    589.0670 307.8253507  +6.4336635     1408.095     2167.174     2145.557      78.0308     155.6289     311.3196      1.595     3.52     846.2275     54.86969     210.6006        13     1.179     0.756 -74.83   0
       316    185.5040    589.7068 307.8405024  +6.4321706     730.2266     1339.549     2309.618      78.0308      156.185     311.2268      1.734     4.20     846.5238     54.86969     124.6475         7     1.023     0.491  83.84   0
       317    352.1943    589.1946 307.7713005  +6.4379837     561.2523     912.0497     979.6425       77.411      155.505     311.1029      1.240     3.03     845.1012     54.86969     115.1587         5     0.913     0.344 -46.34   0
       318    861.6740    580.9892 307.5600008  +6.4584347     3097.415     4313.129     4549.185     77.53536      155.319     311.1649      1.464     3.15     842.6221     54.86969     457.1866        17     1.207     0.764 -75.37   0
       319    157.1646    580.9481 307.8525664  +6.4348337     911.6881     1091.215     1001.631     77.90723     155.6908     311.2268      1.213     3.90     846.5784     54.86969     148.3852         8     0.964     0.622 -23.20   0
       320    820.4161    578.4845 307.5772190  +6.4580903      2822.99     3598.317      3740.16     77.65952      155.443     311.1958      1.328     3.12     843.3348     54.86969     445.6581        15     1.140     0.727 -71.04   0
       321    791.3571    574.3752 307.5894250  +6.4588157     2877.539      3908.95     4804.833     77.65952     155.6289     311.1339      1.476     3.04     843.5949     54.86969     441.1816        19     1.248     0.794 -60.75   0
       322    734.0023    574.4838 307.6132402  +6.4568530     785.1743     1200.791     2370.724       77.411      155.319      310.979      1.717     4.69     843.7879     54.86969     133.9431         8     1.188     0.524 -65.41   0
       323    801.0149    569.5958 307.5855748  +6.4611119     183449.4     243298.9     252908.6     77.65952      155.319     311.1339      1.436     2.93     843.4482     54.86969     30555.67       122     1.493     1.133 -72.15   0
       324    608.5474    571.7162 307.6654330  +6.4537967     445.2953     475.0135     352.0565      78.0308     155.6908     311.3815      0.932     2.81      844.845     54.86969     110.3351         5     0.732     0.446 -67.57   0
       325    182.6089    567.8243 307.8424442  +6.4411080     64333.89     90754.23     95503.66     77.65952      155.505     311.1649      1.501     3.10     846.0357     54.86969     9678.691        78     1.508     1.136 -67.49   0
       326    852.4891    571.1089 307.5641470  +6.4622073     617.5838     926.6696     1385.345      78.0308      156.185     311.3815      1.356     3.03     842.6592     54.86969     107.0568         6     0.774     0.499  87.00   0
       327    248.4645    573.2518 307.8149137  +6.4410814     8826.658     12267.96     13162.77      78.0308     155.6289     311.2577      1.481     3.05      845.402     54.86969     1282.923        34     1.305     1.047 -66.28   0
       328    106.6580    564.0490 307.8741109  +6.4401112     6974.686     9766.007     10265.19      78.0308     155.6908     311.3506      1.473     2.99     846.5093     54.86969     1003.646        27     1.258     1.013 -57.22   0
       329    972.0145    561.3470 307.5148358  +6.4702288     1558.572     2178.069     1737.076       77.411     155.6289      311.041      1.394     3.10     840.0101     54.86969     293.0929        13     1.116     0.691 -76.10   0
       330    992.7282    560.3732 307.5062660  +6.4713220     697.5422     913.8628     1001.814     77.65952     155.5669     311.1958      1.396     3.22     839.3239     54.86969     142.5593         6     0.904     0.442 -86.64   0
       331    221.0140    559.6849 307.8267711  +6.4457600     933.8834     1332.802     1768.714     77.65952      155.443     311.1958      1.675     5.43     845.1469     54.86969     138.6804        11     1.223     0.701 -56.51   0
       332    837.5761    556.9091 307.5708171  +6.4675721      5173.71     6833.579     7237.784      78.0308      155.505     311.1339      1.346     2.95     842.6237     54.86969     810.5942        22     1.194     0.867 -70.26   0
       333    356.0385    555.0077 307.7708576  +6.4522278     19118.12     26673.33     27664.04     77.28645      155.443       311.01      1.462     3.14     843.9348     54.86969     3000.528        43     1.369     1.044 -71.78   0
       334    446.4899    554.9009 307.7332989  +6.4553076     784.8328     902.5805     875.7385      78.0308     156.1233     311.2577      1.189     3.30     844.0302     54.86969     136.0454         6     0.781     0.493 -82.07   0
       335    157.7064    553.8253 307.8532584  +6.4460502     2040.114     2884.509       3346.2     78.15417      155.443     311.1339      1.383     3.04     846.1815     54.86969     329.4735        16     1.233     0.808 -89.21   0
       336    791.5388    550.3475 307.5901568  +6.4687426     6810.826     8774.022     8900.203      78.0308     155.6289     311.2577      1.363     3.05     842.9013     54.86969     1060.035        24     1.277     0.844 -75.46   0
       337    233.0393    551.9023 307.8220404  +6.4493775     1016.845     1540.184     1997.927      78.0308     155.5669     311.5052      1.686     3.59     844.6652     54.86969      160.351        11     1.084     0.674 -64.38   0
       338     95.1556    551.3191 307.8793179  +6.4449798     1109.661      1462.59      1839.29      78.0308     155.6908     311.2577      1.422     3.64     846.4298     54.86969     168.6411        12     1.087     0.745 -59.02   0
       339    522.3945    549.8778 307.7019463  +6.4599269     7263.125      10111.5        10450     77.65952     155.1949      311.072      1.438     3.03     843.9683     54.86969     1065.012        29     1.287     0.970 -67.74   0
       340    380.6855    546.6131 307.7609055  +6.4565212      1550.89      2170.71     2293.515     77.65952     155.5669     311.1649      1.471     3.62     843.2921     54.86969     241.4618        12     1.141     0.681 -58.42   0
       341    169.4048    542.9923 307.8487667  +6.4509163     7497.847     10617.08        11384       77.411      155.443     311.1339      1.488     3.08     845.7674     54.86969     1107.915        31     1.393     0.954 -66.97   0
       342    567.1212    542.9165 307.6836062  +6.4643000     2686.806     4388.465      4673.08     78.15417     155.9998     311.4124      1.726     3.86     843.5194     54.86969     367.3059        25     1.426     0.999 -45.02   0
       343    850.6452    542.9592 307.5658580  +6.4737685     637.0286     692.5388     461.7148     77.90723     155.6908     311.1339      1.154     4.06     842.2309     54.86969     118.7772         6     1.138     0.431  78.67   0
       344    808.1701    542.6068 307.5835099  +6.4724947     1537.807     2034.742     1857.636     77.53536      155.505      311.072      1.353     3.77      842.625     54.86969     256.5728        14     1.174     0.777 -55.85   0
       345    485.3855    543.8621 307.7175183  +6.4611699     611.8998      843.824     851.6917     77.53536     155.6289     311.1029      1.468     3.43      844.606     54.86969     89.52899         5     0.795     0.428 -69.76   0
       346    264.6140    539.4534 307.8093489  +6.4555787     97376.02     135429.6       140785       77.411     155.6289      311.041      1.503     3.01     843.7639     54.86969     14485.45        84     1.487     1.140 -67.52   0
       347     40.9922    541.6466 307.9021369  +6.4471495     5481.464     7813.996     7876.976     77.53536     155.5669     310.9171      1.487     3.11     846.5532     54.86969     887.6912        30     1.317     1.008 -79.35   0
       348    553.9584    536.8440 307.6892771  +6.4663662     1048.797     1368.436     1667.732     77.78347     155.6908     311.1649      1.399     3.13     843.2637     54.86969     169.5053         8     0.841     0.629 -52.14   0
       349    491.3743    530.3210 307.7154875  +6.4669616     44140.18     67223.28     70643.31     77.78348     155.5669     311.2268      1.670     3.23     844.0254     54.86969     6593.202        72     1.516     1.321 -53.07   0
       350    248.2776    534.5325 307.8162991  +6.4570614     1664.716     2304.374     2424.395     78.15417     155.7526     311.2577      1.518     3.25     843.8771     54.86969     256.4701        13     1.103     0.726 -57.68   0
       351    964.1518    533.2498 307.5190436  +6.4815676     1959.796     2745.271     2706.797      78.0308     155.5669     311.2887      1.466     3.21     839.3748     54.86969     305.7896        14     1.027     0.961  73.88   0
       352    787.7476    532.0163 307.5923472  +6.4761847     18468.67     24667.43     25392.28     77.53536     155.7526       311.01      1.374     3.03     842.4093     54.86969     3005.342        38     1.302     0.956 -67.33   0
       353    641.7695    528.9409 307.6530756  +6.4725706     985.2128     1465.703     1444.833     77.78347     155.6908     311.2577      1.389     3.58     843.1849     54.86969     140.6422        10     1.057     0.631 -68.93   0
       354    203.8416    526.6566 307.8350183  +6.4588192     2096.248     3197.762     3398.094     77.90723     155.6908     311.3196      1.496     3.08     844.4253     54.86969      329.357        20     1.411     0.777 -58.76   0
       355     39.4609    526.8004 307.9032753  +6.4532274     1377.281     1942.146     1883.016     77.28645      155.443      310.979      1.521     3.63     846.2807     54.86969     229.5345        16     1.317     0.793 -72.94   0
       356    713.6478    524.4963 307.6233740  +6.4768114     1500.389     2327.687     2570.302     77.90723     155.5669     311.4434      1.781     4.25     842.3456     54.86969     252.7552        16     1.473     0.745  85.30   0
       357    651.3247    525.3378 307.6492286  +6.4743782     3279.647     4272.854     5038.795     78.27734     155.6908     311.2887      1.407     3.02      842.916     54.86969     468.5295        20     1.176     0.895 -75.04   0
       358    252.0866    526.6619 307.8149832  +6.4604390     525.1141     789.4102     1222.723      78.0308     155.8763     311.2887      1.827     3.84     843.5745     54.86969     93.13013         5     0.851     0.498 -52.33   0
       359    661.4874    525.2256 307.6450118  +6.4747647     1686.793     2346.337     2393.248     78.15417      155.505     311.1649      1.456     3.56     842.7531     54.86969     260.8329        14     1.186     0.790 -59.19   0
       360     89.8471    526.2357 307.8823709  +6.4551573     660.8511     909.9949     373.3485     77.65952     155.6289     311.2268      1.490     3.69     846.1017     54.86969     110.7847         7     0.883     0.568  33.94   0
       361     70.5829    522.6637 307.8904915  +6.4559835     813.8959     1153.342     1725.391     77.53536     155.6289     311.1339      1.634     3.50     846.1119     54.86969     140.9304         9     0.991     0.653  87.88   0
       362    389.0070    520.9378 307.7583159  +6.4674014     1812.777     2615.986       2613.2       77.411      155.505      311.072      1.558     3.28     842.6526     54.86969     286.6779        15     1.144     0.809 -68.99   0
       363    320.5266    519.2670 307.7868112  +6.4657918      4507.92     6176.096       6058.3     78.15417     155.8145     311.2577      1.499     3.07     842.8181     54.86969     667.1981        27     1.394     0.960 -72.04   0
       364    135.7289    517.7793 307.8636037  +6.4601930     28731.68      40190.3     41645.44     77.65952     155.5669     311.2577      1.485     3.04     845.3781     54.86969     4232.272        50     1.411     1.060 -70.55   0
       365    863.7225    518.0973 307.5612616  +6.4844707     1751.074     2469.311     2642.758     77.65952     155.8763     311.3506      1.379     3.52     841.5007     54.86969     321.0548        14     1.221     0.714 -82.35   0
       366    500.5000    518.6758 307.7120901  +6.4720757     2269.115     3110.257     2907.681     77.53536     155.8145     311.1958      1.367     2.90     843.5385     54.86969     364.7275        16     1.136     0.771 -69.86   0
       367    100.8102    516.0226 307.8781638  +6.4597430     2885.383     4127.369     3466.186     77.65952      155.443     311.1339      1.485     3.29       845.87     54.86969     479.6919        20     1.232     0.857 -59.38   0
       368    337.5575    514.5523 307.7798976  +6.4683104     1120.126     1775.622     1837.956      78.0308     155.6289     311.2268      1.929     3.94     842.7313     54.86969     192.2952        11     1.240     0.636 -71.50   0
       369    961.3455    512.5602 307.5209030  +6.4900166     6013.618     7993.077     8521.304     77.90723     155.7526     311.2887      1.420     2.96     838.8653     54.86969     884.2856        26     1.252     0.925 -65.73   0
       370     35.5660    509.4556 307.9054798  +6.4602573     495.1521      540.148     436.7785     77.90723     155.6908     311.2887      1.293     3.95     845.9493     54.86969     70.34436         5     1.071     0.417 -74.21   0
       371    534.5943    504.9642 307.6983928  +6.4788799     1574.855      2247.49     2505.773     77.16169      155.443      311.072      1.476     4.09     842.8458     54.86969     229.0319        14     1.139     0.772 -74.68   0
       372      1.3631    501.8761 307.9199397  +6.4622343     9563.604      12004.3     12319.61     68.14453     124.1559     234.6268      1.102     2.83      845.868     54.86969     2733.658        24     1.321     0.664  85.56  24
       373    432.7385    498.9904 307.7408947  +6.4779307     47173.23     65899.35     67765.05       77.411     155.5669      311.041      1.460     3.01     842.4603     54.86969     6984.618        61     1.405     1.093 -67.78   0
       374    640.7435    498.7282 307.6545184  +6.4850107     13640.18     18304.19     18773.52     78.15417     155.6289     311.2577      1.409     3.07     842.2866     54.86969     2279.068        36     1.335     0.957 -65.80   0
       375    409.7220    501.0317 307.7503846  +6.4763155     461.2975     670.0594     590.6021     77.90723     155.6908     311.2577      1.432     3.49     842.2722     54.86969     90.28387         5     0.806     0.484 -36.53   0
       376    280.5864    499.2102 307.8040749  +6.4727310     1072.765     1379.214     984.7891     77.65952      155.381     311.1958      1.306     3.35     842.2147     54.86969     183.2546        10     1.052     0.623 -51.88   0
       377   1007.1910    498.2813 307.5023412  +6.4974419     453.0256     507.5798       844.92     77.65952      155.319     311.1649      1.184     4.51     837.0804     54.86969     81.40143         5     1.333     0.434 -59.59   0
       378    197.8130    496.5681 307.8385387  +6.4710392     17207.79     27523.13     28889.85     77.53536      155.443     311.2268      1.714     3.18      843.577     54.86969     2861.146        47     1.467     1.203 -84.31   0
       379    163.5318    497.5812 307.8527408  +6.4694678     1903.001     2556.234     3168.945     77.65952     155.5669     311.2268      1.479     3.55     844.1885     54.86969     259.9866        17     1.300     0.751 -63.04   0
       380    974.7491    496.9890 307.5158585  +6.4968931     1289.848     1570.553     1941.913       77.411     155.5669       311.01      1.319     2.98      837.977     54.86969     220.6877        10     1.002     0.684 -70.37   0
       381    902.9943    496.2861 307.5456835  +6.4947881     731.8116      963.568     803.4391     77.53536      155.381       311.01      1.400     3.46     839.9548     54.86969     143.0288         7     0.961     0.696 -76.39   0
       382    814.8749    496.6704 307.5822684  +6.4916855     1085.625     1384.252     1177.826     78.27734     155.8145     311.2887      1.340     3.88     841.3466     54.86969     167.9135         9     0.949     0.647 -69.34   0
       383    562.4710    495.3813 307.6871382  +6.4837708     3154.609     4114.682     3987.663     77.65952     155.5669     311.2268      1.399     3.26     842.6833     54.86969     442.3793        18     1.188     0.799 -72.36   0
       384    936.4068    492.7018 307.5319268  +6.4973836     5693.315     7241.917     7985.356     77.78348      155.319      311.072      1.345     3.05     838.9712     54.86969     849.5559        21     1.205     0.831 -72.48   0
       385    609.5168    491.0939 307.6677440  +6.4871171     7269.333     10006.87     10235.84     77.78347     155.9998     311.4124      1.451     3.15     842.6968     54.86969     1042.564        27     1.306     0.912 -71.60   0
       386     97.1076    491.6825 307.8805248  +6.4696677     1279.079     1874.898     1923.135     77.78347     155.9998     311.3815      1.505     3.51     845.5803     54.86969     188.1567        12     1.083     0.774 -68.46   0
       387    718.1458    487.7065 307.6227430  +6.4921520        545.1     1071.413     1623.833     77.90723     155.6289     311.5052      2.237     5.97     841.2313     54.86969     91.15747         8     1.340     0.747  78.64   0
       388    959.0670    484.9061 307.5227770  +6.5013588     3945.751     5241.155     4934.837     77.90723     155.8763     311.2887      1.384     3.13     838.0726     54.86969      626.832        20     1.180     0.841 -63.49   0
       389    521.7463    482.3100 307.7044917  +6.4878028     8386.399     11203.91     11530.04      78.0308      155.505     311.4124      1.441     3.12     842.4839     54.86969     1303.614        26     1.259     0.911 -66.26   0
       390    367.7730    482.4717 307.7684319  +6.4825704     2940.494     3911.565      3959.64     77.65952     155.5669     311.1958      1.412     3.40     841.8775     54.86969     465.2418        16     1.146     0.781 -58.93   0
       391     90.7789    481.9341 307.8834828  +6.4734795     708.9358     861.6693     595.1216     77.65952     155.6908     311.1958      1.287     4.42     845.4339     54.86969     105.5491         9     1.025     0.616 -36.04   0
       392    878.2383    478.1989 307.5565724  +6.5014294      3546.06      4697.18     5449.792     77.16169      155.505      311.041      1.390     3.20      840.118     54.86969      589.644        19     1.205     0.808 -67.29   0
       393    397.3544    483.7968 307.7561021  +6.4830164     802.2421     1145.209     1424.599       77.411      155.381      310.948      1.427     3.34     842.0399     54.86969      142.846         8     1.014     0.501 -38.02   0
       394    226.4190    477.2476 307.8273119  +6.4799780     654.5026     825.8647     785.6639     77.53536     155.6908      311.072      1.328     4.07     842.5646     54.86969     105.8047         7     0.994     0.475 -81.26   0
       395    885.6302    472.6054 307.5536902  +6.5039858     2579.497     3308.145     3373.918     77.53536      155.505      311.072      1.378     2.86     839.7286     54.86969     497.9886        16     1.122     0.760 -67.66   0
       396    925.0548    471.9463 307.5373381  +6.5055744     1401.744     1831.028     1672.799     78.27734     155.6289     311.2887      1.418     3.59     838.6345     54.86969     221.2183        13     1.230     0.676 -65.59   0
       397    105.0716    470.9511 307.8779189  +6.4784952     626.1859      1058.82     1213.827      78.0308     155.6908     311.3196      1.585     3.91     844.7773     54.86969     145.7966         7     1.182     0.521 -72.47   0
       398    736.2023    469.6528 307.6158508  +6.5002102     564.8319     568.2816     646.0224       77.411      155.443     310.8861      1.343     3.74     840.6096     54.86969     89.65265         5     1.019     0.395  85.42   0
       399    709.6050    468.5395 307.6269346  +6.4997801     3234.455     4529.519     4821.447     77.53536     155.5669      311.072      1.467     2.97     840.6188     54.86969     549.0786        21     1.273     0.838 -69.43   0
       400    263.2705    470.0806 307.8122499  +6.4841759     568.8517     732.0464     411.1497     78.27734     155.9998     311.3196      1.308     3.39      841.504     54.86969     86.74176         5     0.989     0.337 -46.34   0
       401     71.4616    467.5094 307.8919930  +6.4787846     2114.972     2968.703     3194.669      78.0308     155.8145     311.3506      1.587     3.41     844.9417     54.86969     290.0277        18     1.261     0.848 -70.59   0
       402    420.7188    466.8593 307.7469701  +6.4907937     1273.457     1602.094     1229.773     78.15417     155.7526     311.2887      1.336     3.28     841.1309     54.86969      192.373        11     1.054     0.669 -64.11   0
       403    380.5468    466.6721 307.7636601  +6.4895226      4149.51     5765.444     5860.095     77.90723     155.6289     311.2577      1.475     3.14     840.9688     54.86969     607.0838        21     1.298     0.822 -72.08   0
       404    608.2242    463.2816 307.6692171  +6.4985571     11330.88     15465.78     16246.62     77.78348      155.443     311.2268      1.452     3.01     841.5534     54.86969     1734.211        33     1.338     0.951 -63.49   0
       405    770.9650    459.9323 307.6017397  +6.5053864      18489.2     24799.92     25708.41     77.90723     155.7526     311.3815      1.397     2.94     840.1918     54.86969     3014.849        40     1.320     0.975 -68.81   2
       406    775.0365    455.0206 307.6002137  +6.5075505     1552.343     2091.522     2611.085     77.65952      155.443      311.041      1.413     2.84     839.9888     54.86969     273.5461        12     1.060     0.653 -76.45   3
       407    290.6948    460.1729 307.8011952  +6.4891882     3051.112      4450.64     4555.461     78.15417      155.443     311.1649      1.519     3.13     840.3118     54.86969      437.917        20     1.240     0.861 -64.59   0
       408    414.5522    459.5709 307.7497769  +6.4935960      766.585     996.9111      809.144     77.65952     155.7526     311.1958      1.447     4.98     840.5843     54.86969      114.856         9     1.218     0.575 -61.10   0
       409    800.0965    456.9590 307.5897404  +6.5075880     1447.885     2033.461     1657.345      78.0308     155.5669     311.4434      1.374     3.36     840.0314     54.86969     253.9415        11     1.108     0.649 -52.89   0
       410    373.8413    456.6924 307.7667816  +6.4934179     1707.408      2243.63      2390.66      78.0308     155.6289     311.3815      1.443     3.81     840.2753     54.86969     249.9647        13     1.164     0.714 -75.17   0
       411    900.8132    457.0926 307.5479049  +6.5108980     551.0189     803.9259     1025.308     77.78347      155.443     311.1029      1.343     4.05     838.8212     54.86969     104.0034         6     0.823     0.568 -56.88   0
       412    956.1828    454.8726 307.5249824  +6.5136631     2305.583     3232.335     3180.461     77.53536     155.6289     311.1958      1.394     3.34     837.2216     54.86969     347.0272        18     1.259     0.795 -77.21   0
       413    362.2654    452.8866 307.7717176  +6.4946006     897.9143     1273.759     1457.237      78.0308     155.8763     311.3196      1.473     4.41     839.9849     54.86969     122.5826        10     1.232     0.580 -71.56   0
       414    116.7139    452.2442 307.8737168  +6.4866106      537.326     959.5381     1358.941      78.0308     155.5669     311.2887      1.830     4.07     843.7249     54.86969     96.94769         5     1.104     0.690 -75.56   0
       415    108.3506    451.6483 307.8772101  +6.4865751     4939.976     6834.513     6855.903      78.0308     155.5669     311.2577      1.482     3.08     843.9258     54.86969     756.6647        23     1.269     0.920 -72.77   0
       416    746.3596    450.8763 307.6122634  +6.5083026     2599.612         3466     3105.415     77.90723     155.6908     311.3506      1.357     3.22     839.8834     54.86969     386.8423        17     1.149     0.867 -78.66   0
       417   1010.2044    449.6009 307.5027219  +6.5176423     4552.066     7034.366     7163.569       77.411      155.257      311.041      1.671     3.58     835.3502     54.86969     520.8393        30     1.316     1.197  24.67   0
       418    266.1417    448.7407 307.8117783  +6.4930832     1586.821     1982.776     1608.116      78.0308     155.6289     311.3196      1.361     3.32     840.5355     54.86969     242.2206        12     1.087     0.667 -71.28   0
       419    344.2992    446.5311 307.7793936  +6.4966213     3706.208     5063.454     5405.093      78.0308     155.8145     311.2887      1.520     3.23     839.5813     54.86969     487.3705        20     1.212     0.895 -79.23   0
       420    700.2684    444.2152 307.6316304  +6.5095109     1610.541     2279.129     2242.988     77.53536     155.5669     311.1958      1.461     3.68     839.8421     54.86969     241.6201        12     1.269     0.592 -74.28   0
       421    974.0795    443.0124 307.5179470  +6.5191574     684.5271     654.2755     975.6755     77.65952      155.381     311.1339      1.137     4.75     836.2575     54.86969     98.82263         7     1.025     0.624 -58.20   0
       422    403.6213    442.5000 307.7548924  +6.5002773     554.7638     835.8025     668.6231      78.0308      155.443      311.072      1.437     5.06     839.3617     54.86969      87.8299         6     1.164     0.622 -44.83   0
       423    231.9037    442.2817 307.8262156  +6.4945990     875.3355     1382.211     782.5739     77.90723     155.9998     311.3815      1.683     3.80     841.6013     54.86969     142.9076         9     0.942     0.658  76.35   0
       424    541.6686    436.9060 307.6977473  +6.5072172     1031.053     1492.406     1350.991     77.90723     155.8145     311.3196      1.443     3.73     840.2414     54.86969     167.3711         9     1.070     0.595  86.16   0
       425    690.6096    436.2980 307.6359084  +6.5124565     595.4562     768.2751     602.1202     77.78348      155.319     311.1029      1.429     3.06     839.6479     54.86969     118.1731         5     0.901     0.486 -86.60   0
       426    826.5585    434.4096 307.5795074  +6.5177829     1662.084     2294.436     2179.041       77.411      155.505      311.041      1.433     3.74     839.0104     54.86969     247.6904        14     1.174     0.806 -79.34   0
       427    464.0822    435.1346 307.7300304  +6.5053471     1509.083     2059.855     2011.895     78.27734     155.9381     311.3506      1.445     3.24     839.7102     54.86969     272.9517        16     1.178     0.874 -53.94   0
       428    812.1158    433.3840 307.5855404  +6.5177236     2313.017     3162.877     3078.761     77.65952      155.443     311.1958      1.457     3.14     839.0121     54.86969     385.3701        16     1.197     0.760 -60.57   0
       429    709.4337    431.5715 307.6282491  +6.5150380     17120.86      22781.7      23465.7     77.53536      155.443      311.072      1.402     2.96     839.3953     54.86969     2485.535        35     1.294     0.953 -71.21   0
       430    630.3145    427.4208 307.6612496  +6.5141033     2893.882      4005.44     4715.631     77.78348      155.443     311.2268      1.605     3.08     839.6694     54.86969     459.4606        22     1.353     1.135   4.79   0
       431    611.8942    433.4954 307.6686956  +6.5109783     744.9714     1133.625      1365.44      78.0308     156.3083     311.2268      1.718     3.96     840.0281     54.86969     138.6505         8     1.051     0.591 -55.42   0
       432    605.6989    424.5684 307.6715692  +6.5144567     6127.437     8802.076      9524.99      78.0308     155.5669     311.4124      1.529     3.05     839.6427     54.86969     931.9019        24     1.339     0.901 -72.43   3
       433    601.9167    422.0330 307.6732255  +6.5153768     16462.44     22390.71     23913.23      78.0308      155.505     311.2268      1.426     2.99     839.4919     54.86969     2627.626        34     1.277     1.003 -72.40   3
       434    934.7876    421.4369 307.5349906  +6.5267543     4359.412     5849.474     5584.365     77.53536      155.505       311.01      1.395     2.87     836.9142     54.86969     771.8546        25     1.301     0.885 -77.08   0
       435    373.8347    417.3635 307.7681114  +6.5096558     32312.63     44992.62     46436.18     77.78347      155.443      311.041      1.482     3.12     837.5963     54.86969     5026.345        49     1.376     1.073 -69.22   0
       436    410.7062    418.9395 307.7527447  +6.5102428     604.6578     786.3939     674.2774     77.90723     155.6908     311.3196      1.384     3.40     837.6641     54.86969     115.3338         5     0.996     0.335 -47.66   0
       437    890.4737    417.1577 307.5535399  +6.5270415     1688.046     2501.519     3512.631     77.90723     155.7526     311.3196      1.689     3.12     837.7969     54.86969      240.947        14     1.050     0.798 -83.88   2
       438    119.9418    416.7457 307.8735771  +6.5013756     2734.033      3828.87     3825.954     78.15417     155.6908     311.2887      1.483     3.02     842.3258     54.86969     410.0956        18     1.192     0.845 -60.40   0
       439    585.4291    412.9005 307.6803808  +6.5185951     603.2062     713.3965     348.0406      78.0308      155.443     311.3196      1.187     4.63     838.9791     54.86969     124.4285         7     1.174     0.519 -50.51   0
       440    903.5380    411.8841 307.5482907  +6.5296552     5732.964     7608.408     7803.826     78.15417     155.7526     311.3196      1.328     2.85      837.327     54.86969     928.7444        22     1.195     0.867 -72.36   0
       441     53.1698    412.2943 307.9014582  +6.5009651     1798.368     2647.361     3244.243     78.15417      155.443     311.2268      1.676     3.24     843.2574     54.86969     288.4567        16     1.116     0.947 -64.73   0
       442    959.1535    409.5905 307.5252677  +6.5324590     645.8362     794.3298     571.9139     77.53536     155.5669      310.948      1.217     3.50     835.7447     54.86969     135.8294         5     0.998     0.354  85.85   0
       443    231.3506    407.8968 307.8276072  +6.5087770     15387.01     21443.42     22012.84     77.90723     155.6289     311.4434      1.459     3.11     840.6097     54.86969     2214.022        34     1.338     0.981 -70.61   0
       444    456.6823    405.5098 307.7341025  +6.5173303     418.7129     597.8466     708.9156     77.78348     155.9381     311.3815      1.411     2.95      837.871     54.86969     104.6803         5     0.995     0.707  70.01   0
       445     66.7468    402.1311 307.8961637  +6.5056184     980.6182      1582.32     1750.547     77.90723     155.6289     311.1958      1.832     5.38     842.8724     54.86969     164.6296        10     1.281     0.647 -57.34   0
       446   1004.3796    401.1589 307.5067656  +6.5374494       612.02     839.8925     818.2574     77.65952      155.505     311.1029      1.250     5.32     834.1216     54.86969     110.7469         7     1.189     0.671  53.74   0
       447    726.1931    401.4075 307.6223026  +6.5280531     842.2125     1121.164     1317.995       77.411      155.505     311.1649      1.317     4.33       838.45     54.86969     117.6618         7     0.942     0.568  84.94   0
       448    694.5185    401.0164 307.6354716  +6.5271547     961.5037     1232.753      979.473     77.65952      155.381     311.1649      1.456     3.80     838.6708     54.86969     158.4587        13     1.282     0.708 -57.02   0
       449    954.7628    399.9706 307.5274142  +6.5362844     1143.546     1641.318      1380.33     77.65952      155.443     311.1649      1.371     3.67     835.6069     54.86969     201.8486        12     1.128     0.712 -84.75   0
       450    344.2582    397.4451 307.7810674  +6.5168865     1620.861     2124.602     2196.148     77.90723     155.6908     311.3815      1.402     3.08     837.1677     54.86969     238.5982        15     1.010     0.943  82.94   0
       451    177.2252    397.7641 307.8504287  +6.5111401     892.5778     881.2506     569.0309     77.65952      155.505      311.041      1.149     2.48     841.1453     54.86969     154.2162         6     0.709     0.566 -55.23   0
       452    131.5702    396.5401 307.8694312  +6.5101092     5809.142     8107.463     8644.152     77.78348     155.6908     311.2577      1.500     3.11     841.8351     54.86969     872.5674        27     1.278     1.024 -60.16   0
       453    429.1912    395.5822 307.7458552  +6.5205069     902.3495     1277.685     1511.991     77.78348      155.443     311.1339      1.394     4.74     836.8388     54.86969     129.0208        11     1.103     0.844  58.41   0
       454    371.3288    397.5001 307.7698224  +6.5177728     615.1841     812.3435     1059.701     77.78348     155.8145     311.3196      1.344     3.46     836.9951     54.86969     115.0512         5     0.740     0.468 -17.89   0
       455    236.3172    395.6965 307.8259567  +6.5139812     1443.259     2459.128     2030.189     77.90723     156.0616     311.3506      1.619     3.81     839.8171     54.86969     255.5612        16     1.316     0.812 -61.97   0
       456    817.7673    393.3521 307.5845381  +6.5344413     919.5536     1380.293     1317.456     77.78348     155.6908     311.2268      1.568     4.41     837.8799     54.86969     154.4978         9     1.102     0.553 -64.94   0
       457    153.6627    392.2733 307.8604002  +6.5126144     2619.671     4162.636     4400.395     78.15417     155.6908     311.3506      1.677     3.37     841.4177     54.86969     373.2767        22     1.460     0.854 -67.39   0
       458    549.3839    391.5316 307.6960714  +6.5262101     1097.626     1630.258     1570.799     77.53536     155.6289     311.1958      1.603     3.73     837.5798     54.86969     154.0464        11     1.103     0.711 -83.84   0
       459    377.0738    387.3827 307.7677778  +6.5221429     2322.455      3262.13     3299.067     77.53536      155.505     311.1649      1.515     3.38     836.5945     54.86969     363.8219        19     1.325     0.878 -74.85   0
       460    265.4674    387.1985 307.8141372  +6.5184697     906.9553     1272.436     1308.095     77.53536      155.257     311.1029      1.509     3.62     838.4418     54.86969      141.252         9     0.911     0.718 -68.63   0
       461    965.6720    386.2000 307.5233449  +6.5423343     1090.679     1614.721     2307.016     77.28645     155.1949     311.1339      2.045     4.14     834.9414     54.86969     144.7869        12     1.175     0.710 -69.06   0
       462    310.5362    385.2791 307.7954838  +6.5207768     650.7766     1095.179     798.5285     78.27734     155.7526     311.2887      1.413     3.31     837.3214     54.86969     128.1437         5     0.762     0.418 -64.69   0
       463    430.9908    380.7519 307.7456079  +6.5266904     8028.155     11050.01     11462.49     77.53536      155.505      310.948      1.461     3.18     836.1695     54.86969     1145.916        30     1.331     0.964 -62.36   0
       464     27.4291    381.3706 307.9131953  +6.5128653     3579.998     5308.633     6160.228     77.53536      155.443      311.041      1.666     3.57     843.0087     54.86969     486.3099        28     1.614     0.915 -53.91   0
       465    602.3378    381.7714 307.6744061  +6.5320143     679.0889     796.8013      221.075     77.65952     155.6908     311.2577      1.256     4.42     836.9716     54.86969     97.05084         7     0.877     0.633 -16.27   0
       466    763.6326    379.7896 307.6074789  +6.5382312     2109.796     2967.732     3388.513     77.53536      155.443     311.1339      1.496     3.21     837.9846     54.86969     398.9309        16     1.250     0.699 -64.42   0
       467    771.6140    378.1304 307.6042196  +6.5391832     14683.89     19400.63     20371.72     77.53536     155.5669     311.1958      1.376     2.93     837.9431     54.86969     2354.122        34     1.279     0.937 -67.67   0
       468    530.4227    379.8203 307.7043413  +6.5304099     479.0022     756.1503      477.029     77.78348      155.505     311.2268      1.356     3.48     836.7464     54.86969     83.64935         5     0.833     0.419 -68.68   0
       469    191.2556    379.4197 307.8452218  +6.5191860     530.9158     655.6089     1155.927     77.53536     155.6908     311.1029      1.268     4.46     840.2707     54.86969     82.70129         5     0.805     0.704 -74.98   0
       470    335.0477    376.5285 307.7855989  +6.5252131     1146.162     1494.286     1446.064      78.0308     155.7526     311.3196      1.397     3.22      836.802     54.86969     166.0707        12     1.014     0.758 -79.97   0
       471   1015.5192    373.3631 307.5030707  +6.5492977     4201.472     5334.063     5349.142     77.90723     155.7526     311.2577      1.368     2.88     833.5795     54.86969     665.3208        20     1.179     0.815 -76.26   0
       472    946.6904    369.7602 307.5317808  +6.5484886     716.4355     1087.606     1059.372      78.0308     155.6289     311.3196      1.550     3.13     834.9459     54.86969     116.9019         7     0.823     0.611 -71.59   0
       473    180.2744    368.9000 307.8501382  +6.5231599     945.1404     1080.917     1161.703     77.53536     155.8145     311.1958      1.299     4.09     840.2985     54.86969      142.253        10     1.092     0.727 -64.37   0
       474    896.5509    368.6373 307.5526447  +6.5472781     680.0295     669.1769     1137.451     77.78348     155.6289     311.1649      1.186     4.94     835.8004     54.86969     117.3223         7     1.190     0.580 -71.09   0
       475    907.9503    364.7771 307.5480393  +6.5492526     903.9313     1457.783     1371.923     77.65952     155.7526     311.1958      1.448     3.45     835.4666     54.86969     203.1202         7     1.113     0.436 -85.29   0
       476    519.3552    365.9895 307.7094042  +6.5357494     589.9929     839.1506     977.5485     77.53536     155.5669       311.01      1.443     4.41     835.7941     54.86969     105.3333         6     0.856     0.645 -50.37   0
       477    479.2031    364.4748 307.7261323  +6.5350283     3470.487      4778.48     4838.977     77.53536     155.1949     311.1958      1.488     3.06     835.5768     54.86969     517.1721        23     1.259     0.917 -75.53   0
       478    451.3260    365.0313 307.7376921  +6.5338634     2457.355     3313.955     3087.055     77.90723     155.6908     311.2887      1.443     3.34     835.5128     54.86969     324.1471        16     1.188     0.801 -71.34   0
       479    836.9727    361.1208 307.5776438  +6.5483912     37446.07     52552.46      54626.7     77.90723     155.6289     311.2887      1.456     3.15     836.7399     54.86969     6683.169        52     1.461     0.986 -73.82   0
       480    422.3550    358.5977 307.7499420  +6.5355476     455.6521     791.0693     970.4953       77.411      155.319      310.948      1.631     4.19     835.1185     54.86969     71.89624         5     1.049     0.478 -88.18   0
       481    329.2884    356.8776 307.7886543  +6.5331330      853.883     1195.661      632.348      78.0308     155.9381     311.4124      1.432     4.21     836.4749     54.86969     146.5673         8     1.086     0.584 -50.06   0
       482     54.4890    357.6263 307.9027609  +6.5235801      730.144     1018.351     972.4413     78.15417      155.443     311.1649      1.586     5.03     842.2474     54.86969     101.3179         9     1.023     0.701 -56.84   0
       483    608.8409    353.2870 307.6726641  +6.5439929     3130.867      4258.64     4435.459      78.0308     155.6908     311.3196      1.452     2.85     835.1052     54.86969     525.8321        20     1.196     0.843 -59.89   0
       484     17.1064    353.5850 307.9184234  +6.5239892      1281.41     1686.152     1758.059     77.78347      155.505     311.1339      1.402     3.41     842.5518     54.86969     212.4333        11     1.071     0.710 -73.34   0
       485    139.8725    352.0066 307.8674894  +6.5287752     615.2678     763.2552     609.2598     77.65952      155.257     311.1958      1.238     3.70     840.9869     54.86969     96.81714         6     0.815     0.631  89.76   0
       486    693.4262    347.0804 307.6377397  +6.5493876     90682.67     121807.6     126197.5     77.90723      155.505     311.3196      1.421     2.98     837.2175     54.86969     12840.04        73     1.398     1.071 -72.05   0
       487    851.7792    348.5871 307.5719146  +6.5540610     1454.251     2150.781     2653.433     77.78348      155.381     311.1958      1.601     4.03     835.9108     54.86969     265.4312        14     1.342     0.653 -53.85   0
       488     72.5854    346.4527 307.8956233  +6.5288028     1739.802     2400.735     2671.895       77.411     155.6289      311.041      1.559     3.18     841.8522     54.86969     250.7811        14     1.006     0.858  70.95   0
       489    934.9290    344.0423 307.5375291  +6.5587147     1022.047     1413.666     1701.576     77.90723     155.6908     311.3506      1.334     2.97     834.1442     54.86969     184.8987         9     1.041     0.604 -78.06   0
       490    555.8760    343.7106 307.6949859  +6.5461722     3130.476     4112.875     4337.872      78.0308     155.9381     311.3506      1.398     3.12     834.5393     54.86969     482.3827        19     1.197     0.860 -71.07   0
       491     93.0906    342.4924 307.8872410  +6.5311284     7049.787     9569.503     9914.284      78.0308      156.185     311.3196      1.461     3.02     841.5808     54.86969     1018.055        26     1.279     0.950 -67.37   0
       492    539.1710    339.9388 307.7020515  +6.5471696     7994.526     11191.09     11362.36     77.78347     155.6908     311.2268      1.467     3.12     834.2465     54.86969     1241.057        30     1.337     0.968 -68.53   0
       493    383.2518    343.4392 307.7666947  +6.5404936     539.3046     875.4016     1093.469     77.90723     155.6908     311.2577      1.782     4.04     835.0244     54.86969     82.56689         5     0.809     0.689 -49.02   0
       494    402.0464    335.1129 307.7591693  +6.5445623     28743.72     40159.94     41692.96      78.0308     155.5669     311.2887      1.467     3.14     834.4842     54.86969     4494.542        49     1.421     1.041 -68.26   0
       495    268.1306    337.4856 307.8147104  +6.5390844     2935.984     4052.542     4286.716     78.15417     155.9381     311.3196      1.475     3.08     837.2075     54.86969     436.6838        19     1.191     0.867 -61.93   0
       496    509.6980    333.7893 307.7145005  +6.5487205     1475.459     2124.718      2015.69     77.78348      155.319     311.1029      1.515     3.79     833.8735     54.86969     206.7568        14     1.207     0.711 -74.61   0
       497    580.8388    334.3821 307.6849316  +6.5508603     683.7878     1086.072     1275.979     77.65952     155.5669      311.072      1.495     3.35     834.2603     54.86969     117.1008         5     0.767     0.423 -21.99   0
       498    382.0399    332.9165 307.7675531  +6.5447975     1454.132      1895.54     2633.026      78.0308     155.6289     311.2577      1.502     3.50     834.6876     54.86969     191.6694        14     1.129     0.812 -80.84   0
       499    481.4137    330.3374 307.7263649  +6.5491972     1241.461     1699.716     2215.866     77.53536      155.505     311.1029      1.479     3.21     833.6188     54.86969     210.2307        12     1.119     0.714 -77.67   0
       500    796.8717    327.4274 307.5954326  +6.5609624     1080.777     1467.904     1126.378     77.78347     155.6289     311.1958      1.458     3.82     836.1916     54.86969     188.3688        10     1.202     0.550 -71.63   0
       501    632.5665    327.7413 307.6636694  +6.5553349     610.5165     742.8143      616.392     77.90723     155.7526     311.2577      1.228     2.84     834.9445     54.86969     128.1558         5     0.750     0.438 -67.69   0
       502    491.1822    325.5288 307.7224696  +6.5515102     9778.151      13502.6     14110.87     77.53536     155.6289     311.1958      1.480     3.08     833.4143     54.86969     1391.091        32     1.348     0.967 -68.47   0
       503    378.9403    327.5394 307.7690220  +6.5469135     879.3069     1394.571     1895.861      78.0308     155.6908     311.3196      1.763     5.18     834.5513     54.86969     119.0956         9     1.073     0.707 -52.96   0
       504    915.7136    324.2022 307.5461767  +6.5662649     964.4948     1215.552     1235.652       77.411      155.319       311.01      1.402     4.53     833.4783     54.86969     183.6849        10     1.242     0.570 -59.83   0
       505    760.3075    324.2966 307.6107256  +6.5610324     3464.022     4869.878     5130.441      78.0308      156.185     311.2577      1.485     3.33     836.0304     54.86969     545.9902        20     1.207     0.847 -73.39   0
       506    707.9493    323.9565 307.6324852  +6.5594211     849.4565     1121.964     789.1478     78.15417     155.6908     311.3196      1.451     4.05     835.8755     54.86969     152.8392         7     0.895     0.526 -49.75   0
       507    317.7118    322.1422 307.7946354  +6.5470855      1264.99     1687.213     1487.373      78.0308     155.6908     311.4124      1.441     3.83     835.7237     54.86969     174.3204        11     1.029     0.744 -47.23   0
       508     76.3125    319.4294 307.8949900  +6.5400853     575.9717     620.7682     683.4366     78.15417      155.443     311.1649      1.257     4.57     841.3931     54.86969     81.94232         8     1.003     0.592 -70.65   0
       509    253.2985    316.3214 307.8215859  +6.5473239     681.7667     897.6969     1083.762     77.65952     155.9381     311.3196      1.392     5.74     837.0308     54.86969     107.0762         9     1.247     0.743 -58.72   0
       510    153.3066    315.9666 307.8631288  +6.5441071     1250.375     1999.675     1839.193     78.15417     155.5669     311.3506      1.677     3.05     839.6454     54.86969     197.0742        12     0.978     0.797 -38.08   0
       511    430.1369    315.7961 307.7481535  +6.5534806     581.3271     594.8346     327.8572       77.411      155.443      311.041      1.349     5.12     833.5043     54.86969     74.65002         6     1.064     0.698 -89.83   0
       512    600.3732    314.4266 307.6774898  +6.5597540     617.2129     961.0375      1077.01     77.53536      155.505     311.1649      1.711     5.32     833.7568     54.86969     97.52576         8     1.238     0.645 -79.47   0
       513    381.0852    309.6593 307.7687345  +6.5543679     8252.662      11560.2     12085.58      78.0308     155.7526     311.3815      1.485     3.19     833.8915     54.86969     1169.988        32     1.341     1.003 -69.53   0
       514    236.8150    310.0966 307.8286426  +6.5493398     2353.222     3469.899     4094.093     77.78347      155.443      311.072      1.641     3.19     837.1976     54.86969     343.4875        21     1.226     0.952 -57.00   0
       515    748.9402    305.6338 307.6160748  +6.5683578     62244.84      82718.2     85643.95     77.90723     155.7526     311.2268      1.397     2.98     835.0634     54.86969     10438.13        55     1.351     1.007 -70.99   0
       516    734.5432    309.5129 307.6219246  +6.5662745     1150.164     1357.696     1224.294      78.0308     155.6908     311.4124      1.246     3.48     835.2624     54.86969     188.0183         9     1.029     0.620 -68.55   0
       517    420.4868    305.0048 307.7525257  +6.5576122     2662.811     3857.419     4026.796     77.53536      155.381      310.979      1.495     2.95     833.2646     54.86969     383.4659        19     1.171     0.889 -55.37   0
       518    983.7033    302.6801 307.5186570  +6.5774207     2006.879      2730.45     2758.292     77.78348     155.9381     311.3815      1.417     3.01     831.9041     54.86969     326.9037        17     1.197     0.834 -85.10   0
       519    566.8699    302.4541 307.6918092  +6.5635747     1384.365     1761.063     1817.824     77.90723     155.6289     311.2268      1.322     3.21     832.6198     54.86969     223.3086        12     1.107     0.674 -71.62   0
       520    924.6862    301.9483 307.5431967  +6.5757529     2535.911     3469.438     3477.754      78.0308     155.5669     311.3506      1.407     3.12      832.141     54.86969     429.7936        19     1.218     0.841 -71.18   0
       521    407.0226    300.8442 307.7582586  +6.5588781     2153.972     3395.672     3847.348     77.53536     155.5669     311.1029      1.667     3.71      833.293     54.86969     313.9551        19     1.381     0.854 -71.57   0
       522    457.7605    301.2619 307.7371699  +6.5604084      1155.81     1637.453     1820.952      78.0308     155.6908     311.3506      1.439     3.28     832.4615     54.86969     192.8604        13     1.078     0.819 -70.54   0
       523    656.9848    299.6573 307.6544720  +6.5677480     477.8818     549.8694     341.5725       77.411     155.6289       311.01      1.295     4.02     833.9584     54.86969     82.15155         5     1.000     0.570 -72.96   0
       524    287.1270    300.1170 307.8080827  +6.5551514     792.3527      871.857     839.0546     78.27734     155.9998     311.3196      1.202     2.69      836.124     54.86969      132.296         8     0.791     0.657 -64.53   0
       525    828.4791    295.0984 307.5833899  +6.5753672     1467.305     1954.241     2091.261     77.90723     155.9998     311.3196      1.484     3.81     834.1406     54.86969     189.8788        14     1.197     0.787 -78.20   0
       526    457.3940    295.5433 307.7375150  +6.5627571     961.8031     1288.013     1135.854     77.53536     155.5669       311.01      1.467     2.95     832.2504     54.86969     149.4526        10     0.918     0.733 -39.67   0
       527    960.3784    293.3890 307.5286577  +6.5804785     626.7272     632.3173     602.0985     77.65952      155.443     311.1339      1.203     3.43     831.5242     54.86969     104.9972         5     0.974     0.348 -68.22   0
       528    437.7204    292.1461 307.7458013  +6.5634997     1367.162      1873.21     2693.216      78.0308     155.6908     311.3506      1.667     2.80     832.4605     54.86969     249.6978        11     1.018     0.677 -60.98   0
       529    183.5657    291.8459 307.8513766  +6.5550840     2648.954     3760.646     4160.918     77.65952     155.6289     311.1649      1.499     2.88     838.1106     54.86969     393.8752        18     1.147     0.828 -69.22   0
       530    747.4115    290.1772 307.6172295  +6.5746885     7043.762     9425.271     10083.66     77.65952      155.505     311.1958      1.371     2.86     834.2037     54.86969     1049.553        29     1.273     0.916 -69.74   0
       531    338.0176    289.7362 307.7872955  +6.5611472     810.0178     1254.766     1847.916     77.65952     155.6289     311.1339      1.637     3.85     834.0248     54.86969     116.5048         7     0.838     0.686  58.25   0
       532    219.2418    289.7948 307.8366278  +6.5571309     918.4894     1326.806     1055.626       77.411      155.381       311.01      1.531     4.16     837.2842     54.86969     120.2726        10     0.990     0.795 -66.29   0
       533     79.9565    289.0324 307.8945054  +6.5527580     1067.799     1588.679     1424.942     77.65952     155.6289     311.1339      1.495     3.53     840.8703     54.86969     180.6849        10     1.066     0.671 -47.58   0
       534    763.7471    288.1075 307.6105135  +6.5760894     3024.752      4058.29      3962.35     77.90723     155.5669     311.5052      1.381     2.93     834.1146     54.86969     534.1981        16     1.167     0.729 -62.07   0
       535    465.8046    287.6136 307.7342889  +6.5663133     638.6127     926.6125     551.7923     77.65952      155.443     311.1649      1.449     2.71     831.7107     54.86969     110.3102         6     0.715     0.614 -59.26   0
       536     66.9444    283.0246 307.9001132  +6.5548001      1365.68     1852.275     1579.293     77.65952     155.6908     311.1029      1.428     3.88     840.8877     54.86969     234.7933        15     1.369     0.665 -76.49   0
       537    353.3539    282.7384 307.7811616  +6.5645516     1821.154     3567.585     4101.861     77.90723     155.5669     311.3196      2.073     6.49     833.3685     54.86969     233.8857        25     1.694     1.098 -24.61   0
       538   1002.0007    279.1106 307.5118470  +6.5877629     6692.843     8874.314     9244.487     77.28645     155.1949       311.01      1.380     2.97     831.0697     54.86969     1178.872        24     1.228     0.864 -76.14   0
       539    480.0880    278.5872 307.7286603  +6.5705193     2361.845     3435.651     3685.981     77.65952      155.443     311.1649      1.595     3.06     831.1914     54.86969     354.4601        18     1.173     0.858 -48.89   0
       540    250.9889    275.8571 307.8239125  +6.5639529     535.7933     755.1783     1173.327       77.411     155.6289       311.01      1.335     3.79     836.2865     54.86969     81.79089         5     0.814     0.507 -56.53   0
       541    242.6438    274.3965 307.8274281  +6.5642753     6651.309     9273.072     9780.478       77.411      155.319      310.948      1.495     3.00     836.4395     54.86969     1018.981        27     1.299     0.929 -61.53   0
       542    910.4363    273.4113 307.5500739  +6.5870597     650.8527     863.5195     1052.859     77.53536      155.505      310.979      1.316     3.44      831.437     54.86969     142.4692         5     1.009     0.340 -67.64   0
       543    807.4180    272.5951 307.5928946  +6.5839545     768.0575     1078.397     1047.613     77.65952      155.319     311.1339      1.470     4.32     833.5001     54.86969     116.7983         8     1.168     0.470 -81.92   0
       544    933.8278    269.4769 307.5404892  +6.5894652     594.0158     853.8234     1028.057     77.90723     155.6908     311.2577      1.474     2.97     830.7968     54.86969     129.9341         5     0.813     0.552 -49.04   0
       545    762.0350    267.9999 307.6119008  +6.5843343       921.09     1076.904     1220.387     77.03674      155.443      311.072      1.314     3.48     833.4064     54.86969     156.1779         9     0.827     0.718  66.94   0
       546    219.3643    267.2791 307.8373380  +6.5664311     706.1652     914.3644     416.8128     77.90723     155.7526     311.2887      1.369     4.91      836.892     54.86969     111.6039         8     0.879     0.776  89.83   0
       547    782.6961    265.4848 307.6034029  +6.5860637     439.6738     669.4921     609.1768      78.0308     156.0616     311.3815      1.339     4.40     833.3002     54.86969     90.73212         5     1.147     0.479 -59.06   0
       548    376.8725    265.1211 307.7719874  +6.5726152     1908.264     2908.357     3157.038     78.27734     155.9381     311.2577      1.601     3.39      832.822     54.86969     267.1504        16     1.155     0.847  89.39   0
       549    963.8499    264.5799 307.5281824  +6.5924893     1269.988     1527.797     1583.393     77.53536     155.7526     311.1649      1.330     3.40     830.6877     54.86969      221.588        14     1.049     0.914   5.01   0
       550    299.0243    261.1122 307.8044585  +6.5716553     1316.625     1896.198     1838.528      78.0308      155.505     311.1649      1.508     3.94     834.5389     54.86969     216.0775        17     1.308     0.900 -46.32   0
       551    183.4747    261.6458 307.8524356  +6.5675496     610.3848     829.5775     1319.719     77.90723     155.7526     311.3196      1.192     3.64     837.4471     54.86969     98.09088         6     0.987     0.386 -69.58   0
       552    146.2708    260.7986 307.8679172  +6.5666475     1939.648     2823.951     2968.856     77.53536      155.257     311.1029      1.539     3.55     838.3528     54.86969      265.953        18     1.249     0.888 -78.89   0
       553    556.3243    256.7665 307.6977288  +6.5820848     2420.185     3239.335     3100.705     77.90723     155.6908     311.2577      1.447     3.24     830.8967     54.86969     339.9843        17     1.169     0.823 -62.99   0
       554    900.2485    255.8564 307.5548953  +6.5939677     2041.386     2799.203     3374.216      78.0308     155.6908     311.3815      1.441     3.01     831.0846     54.86969     333.5378        16     1.213     0.768 -56.89   0
       555    719.8080    254.3522 307.6299006  +6.5885566     5874.329     7891.287     8244.046     77.53536     155.5669      310.948      1.404     3.05     832.6933     54.86969     968.7505        24     1.280     0.848 -69.57   0
       556    957.8846    254.0606 307.5310133  +6.5966335     640.7496     832.0792     1013.782     78.15417     155.7526     311.3506      1.402     5.82     830.3876     54.86969     110.2244         8     1.145     0.965  66.73   0
       557    660.6519    254.2268 307.6544778  +6.5866283     2515.514     3432.941     3834.492     77.65952     155.8145     311.2268      1.472     3.18      832.009     54.86969     360.1606        15     1.134     0.771 -64.13   0
       558    375.1938    248.3672 307.7732502  +6.5794761     822.0837     1133.563     1139.698       77.411      155.505     311.1029      1.530     4.21     832.5989     54.86969      138.356         8     1.063     0.530 -55.76   0
       559    915.8737    246.3899 307.5487224  +6.5983981      1346.26     1836.753     1826.038     77.53536      155.319     311.1649      1.407     2.63      830.413     54.86969     273.8284        11     0.995     0.657 -73.52   0
       560    219.2992    239.5517 307.8383024  +6.5778767     2613.848     3625.201     3653.729      78.0308     155.6289     311.4743      1.445     3.63     836.4284     54.86969     349.9696        18     1.258     0.812 -66.07   0
       561    752.5342    238.0847 307.6168533  +6.5963680     1992.268     2915.132      3195.18     78.15417     155.9381     311.3506      1.545     3.95     832.3442     54.86969     282.0179        16     1.304     0.788 -86.51   0
       562    861.9651    238.4841 307.5713818  +6.5998616     1913.071     2402.389     2351.866      78.0308     155.6289     311.2577      1.396     3.57     831.0403     54.86969      288.887        11     1.028     0.694 -72.28   0
       563    572.9381    233.3096 307.6916178  +6.5923265     449.2371     634.6539     931.7468      78.0308     155.8145     311.3506      1.651     4.33     830.4357     54.86969     94.74634         5     0.952     0.598 -72.84   0
       564    453.2349    229.4115 307.7414729  +6.5899220     25830.25     35790.09     37005.09     77.53536      155.505     311.1029      1.478     3.02      830.561     54.86969     3625.356        49     1.415     1.056 -68.82   2
       565    458.9184    223.8924 307.7392981  +6.5923914      1665.28      2578.46     3793.204     77.78347     155.9998     311.3506      1.887     3.21     830.3105     54.86969     275.3014        16     1.181     0.855 -77.62   3
       566    241.3841    232.8174 307.8293566  +6.5813998     563.7059     946.3213     631.3057     77.78347      155.381     311.2268      1.206     2.27     835.6106     54.86969     134.7651         5     0.712     0.440 -68.26   0
       567    314.2921    231.2881 307.7991240  +6.5844818       694.18     909.4139     884.2775      78.0308     156.1233     311.3815      1.458     4.78     833.3629     54.86969     102.9252         9     1.145     0.677 -56.42   0
       568    779.2927    228.6135 307.6060562  +6.6011735     15291.98     20870.11      22050.4     77.78348      155.443     311.1029      1.456     2.96     832.0255     54.86969      2363.49        46     1.446     1.133 -43.60   0
       569    717.6558    224.4653 307.6318000  +6.6008244     817.8445     1184.454     1368.105     78.15417     155.6289     311.2887      1.487     3.40     831.5955     54.86969     164.4246         6     0.936     0.403 -72.70   0
       570    141.4754    222.5340 307.8712035  +6.5822842     2766.188     3975.029     3586.364     78.15417     155.6908     311.2268      1.570     3.18      837.597     54.86969     371.6653        21     1.310     0.858 -85.06   0
       571    116.2193    221.7111 307.8817219  +6.5817738     1252.072     1770.353     1536.789     77.78348      155.443     311.1958      1.501     4.47     838.5274     54.86969     167.8301        14     1.264     0.737 -57.38   0
       572    772.2040    220.8008 307.6092635  +6.6041622     637.5915     1170.335      1489.79       77.411      155.257      311.041      1.941     5.39     831.7167     54.86969     86.81854         9     1.389     0.591  10.93   0
       573    168.2311    220.7898 307.8601489  +6.5839049     788.6608     988.2502     606.0577     77.53536      155.443     311.1339      1.298     4.24     836.6708     54.86969      121.882         9     1.133     0.566 -44.83   0
       574    915.7618    218.9694 307.5496894  +6.6097160     1633.292     2130.609     2615.218     77.65952      155.443     311.1339      1.373     3.56     829.5256     54.86969     270.1478        12     1.203     0.571 -69.67   0
       575    577.3269    215.1419 307.6904068  +6.5999747     5312.965     7459.993     7870.383     78.15417     155.6908     311.2577      1.462     3.01      830.017     54.86969     824.1194        27     1.278     0.991 -71.53   0
       576    297.5815    215.7116 307.8065914  +6.5903514     1360.352     1927.387     1879.954     77.78348      155.443     311.1958      1.540     3.56     833.3682     54.86969     230.5876        14     1.144     0.904  76.11   0
       577    539.8411    215.0781 307.7059805  +6.5987446      2234.37     3118.771     3098.033     77.90723     155.6908     311.3196      1.420     3.31     829.8143     54.86969      336.717        14     1.120     0.736 -71.51   0
       578    381.6900    214.4101 307.7716979  +6.5937142     1752.902     2444.462     2247.198     77.78348      155.381     311.1029      1.467     3.35     831.9127     54.86969     295.8813        16     1.197     0.836 -68.33   0
       579    938.2691    212.3473 307.5405619  +6.6132017     3191.387     4131.023     4397.984     77.90723     155.5669     311.2268      1.318     2.84     829.0451     54.86969     549.5605        17     1.097     0.773 -70.04   0
       580    884.3377    211.8090 307.5629840  +6.6116228     13050.31      17346.4     18197.94       77.411      155.505      311.072      1.338     2.86     829.7165     54.86969     2026.259        34     1.269     0.923 -75.29   0
       581    970.9160    209.7339 307.5270874  +6.6153705      11477.2     15121.93     16216.49     78.15417     155.9381     311.3506      1.381     2.95     828.7922     54.86969     1972.672        35     1.295     1.001 -76.19   0
       582    559.3271    211.6492 307.6980015  +6.6008135     1106.069     1413.608     1126.802      78.0308     155.7526     311.3196      1.440     3.91     829.8576     54.86969     169.6138        12     1.113     0.737 -79.01   0
       583    312.0550    211.8965 307.8007082  +6.5924130     997.0858     1510.496     1781.088     77.90723     155.6908     311.4743      1.624     4.40     833.1919     54.86969     155.1483        12     1.191     0.751 -61.38   0
       584    203.8244    211.9725 307.8456626  +6.5887428     705.3401     983.7658     851.1791     77.53536      155.505     311.1339      1.420     3.62     836.0284     54.86969     112.5919         7     0.809     0.707  30.35   0
       585    682.5016    209.5178 307.6469062  +6.6058194     3287.727     4598.692     4976.361      78.0308     156.0616     311.3815      1.567     3.14     830.8157     54.86969     483.2762        21     1.222     0.983 -50.70   0
       586     10.4847    208.2901 307.9260948  +6.5837529     28781.89     40512.28      42732.7     77.78348     155.9998     311.4124      1.519     3.10     840.5402     54.86969     3993.408        54     1.415     1.144 -70.33   0
       587    256.7615    209.2894 307.8237643  +6.5916308     1382.387     1974.728      2349.88      78.0308     155.6289     311.3196      1.509     3.47     834.6205     54.86969     208.6259        15     1.130     0.890 -60.17   0
       588    490.9676    204.5673 307.7266367  +6.6014454     2249.581     3037.644     3016.592     77.53536      155.443      311.041      1.433     3.02     829.3338     54.86969     339.4209        19     1.177     0.895 -71.46   0
       589    875.1571    200.3093 307.5671840  +6.6160642     2329.417     3254.945     3498.975      78.0308     155.6908     311.3815      1.431     3.02     829.4927     54.86969     395.8544        18     1.215     0.868 -68.89   0
       590    822.8727    201.1716 307.5888749  +6.6139609     2296.229     3035.597     3035.414     77.90723     155.6908     311.2577      1.334     2.89     830.3633     54.86969     431.7256        16     1.157     0.740 -79.61   0
       591    502.9291    200.3168 307.7218112  +6.6036015     2942.115     3765.458     3590.656     78.27734     155.9381     311.3196      1.404     3.07     829.2737     54.86969     448.9926        18     1.156     0.855 -77.27   0
       592    734.5114    197.7793 307.6256956  +6.6124066     46090.09     61411.48     63851.84     77.90723      155.443     311.1649      1.395     2.93      830.959     54.86969     6983.847        57     1.360     1.046 -72.59   0
       593    337.5556    197.0839 307.7906158  +6.5993854     6508.176     12288.89     13540.17      78.0308     155.6908     311.2887      2.020     5.81     832.7664     54.86969     733.4043        43     2.051     0.991 -72.37   0
       594    968.3212    196.5948 307.5286063  +6.6207089     3360.865     4291.003      4163.47     77.65952     155.1949      311.072      1.338     2.94     828.1238     54.86969     508.4403        16     1.108     0.797 -64.33   0
       595   1006.5482    195.3145 307.5127688  +6.6225132      1996.57      2846.64     2512.126      78.0308     155.6289     311.4124      1.461     3.21     827.6212     54.86969     341.1426        16     1.305     0.739 -63.11   0
       596    902.4240    194.8604 307.5560398  +6.6192248     8818.434     11711.39     11609.18     77.65952     155.6289     311.1958      1.372     2.91     828.8814     54.86969      1278.63        29     1.248     0.932 -62.36   0
       597    445.9028    193.9112 307.7457160  +6.6043332       5703.1       7793.8     8284.364      78.0308     156.1233     311.3196      1.453     3.01     829.7968     54.86969     870.3377        24     1.214     0.936 -66.82   0
       598    312.3214    192.8501 307.8012408  +6.6002856     598.3193      725.394     919.5738      78.0308     155.7526     311.2887      1.558     4.35     833.1427     54.86969     81.87115         7     0.904     0.597  59.26   0
       599    220.2250    190.7449 307.8395677  +6.5980586     817.7038     1043.752     1263.714     77.65952     155.6908     311.1029      1.656     3.25     835.4073     54.86969     142.8688        10     0.992     0.726 -35.24   0
       600    103.2751    185.1398 307.8883362  +6.5964369     5376.854     7633.325     7941.676     78.27734     155.6908     311.2577      1.499     3.11     837.3591     54.86969     768.8407        28     1.322     0.997 -69.23   0
       601    273.6266    181.8742 307.8176851  +6.6035167     37802.91     53745.66     56044.81     77.65952     155.6289     311.2577      1.503     3.08     833.9042     54.86969     5234.379        54     1.428     1.102 -68.10   0
       602    922.8685    184.5338 307.5478933  +6.6241713      961.525     1091.036     1358.031      78.0308     155.7526     311.3196      1.262     3.18     828.1373     54.86969     185.2988         9     0.947     0.607 -75.46   0
       603    248.9112    182.9048 307.8279169  +6.6022603     7476.865     10583.16     11455.94      78.0308     156.0616     311.3506      1.483     3.17     834.5721     54.86969     1118.323        29     1.332     0.953 -70.53   0
       604    599.6016    183.4822 307.6822201  +6.6137927     677.8919       827.44     850.8964     77.28645      155.257      311.041      1.209     3.22     829.4995     54.86969     135.1617         7     0.837     0.659  74.42   0
       605     73.8118    183.6040 307.9006266  +6.5960787      463.835     676.6534     306.4592     77.65952      155.381     311.1649      1.241     3.42     838.5368     54.86969       73.995         5     1.199     0.283 -55.07   0
       606    702.8892    181.3965 307.6393831  +6.6181126       1059.6      1251.82     1206.145     77.53536      155.381      310.979      1.337     2.82     830.2576     54.86969      194.381        10     0.935     0.731  73.19   0
       607    397.6716    177.3809 307.7663090  +6.6095392     56161.21     78688.33     81435.67     77.65952     155.5669     311.2268      1.508     3.07     830.7788     54.86969     8346.434        63     1.438     1.100 -66.22   0
       608    153.6231    178.6285 307.8676429  +6.6008202     4431.754     6074.719     5878.836     77.53536     155.5669     311.1339      1.459     3.02     835.5568     54.86969     660.7382        24     1.314     0.895 -76.03   0
       609    533.6703    177.7719 307.7098011  +6.6139406     428.3031     815.2322     1368.734     77.78348     155.6908     311.2577      2.644     5.71     829.0338     54.86969     64.41589         6     1.378     0.667 -72.45   0
       610    415.1110    177.6865 307.7590543  +6.6099985     1686.021     2101.414      1936.46     77.78347     156.1233     311.4124      1.378     3.36     830.2038     54.86969     225.2922        13     0.975     0.871 -71.14   0
       611    301.6803    175.0581 307.8062621  +6.6072738     20328.75     28669.61     30120.02      78.0308     155.6908     311.2577      1.485     3.09     833.2798     54.86969     3065.362        44     1.384     1.063 -68.47   0
       612    282.2116    177.9272 307.8142523  +6.6054349     526.4196     977.2919     1532.809     77.53536      155.319     311.1029      1.684     4.33     833.6891     54.86969     92.02844         5     1.068     0.500 -53.67   0
       613    736.9636    173.6447 307.6254887  +6.6224534     38206.95     50925.56     52704.91     77.78347     155.6289     311.1958      1.401     2.81     830.1665     54.86969     6236.285        51     1.332     1.019 -71.78   0
       614    568.4755    175.9500 307.6954040  +6.6158596     635.1331     961.4683     1689.071      78.0308     155.7526     311.2887      1.489     4.95     829.2167     54.86969     105.5229         7     1.235     0.561 -68.47   0
       615    684.8109    175.5484 307.6470900  +6.6199220     1120.527     1312.469      801.548       77.411     155.5669      311.041      1.262     3.08     830.0679     54.86969     191.1276        11     1.065     0.749 -48.22   0
       616    309.2658    174.2894 307.8031371  +6.6078461     2373.012     3972.883     5412.208      78.0308     155.8145     311.3196      2.094     5.78      833.149     54.86969      333.623        26     1.974     0.884 -77.44   0
       617    785.3015    174.2444 307.6053879  +6.6238227     1400.173     1757.651     1939.048      78.0308     155.6289     311.5052      1.323     3.03     829.5991     54.86969     231.2991        13     1.112     0.692 -69.87   0
       618     24.3860    173.5363 307.9214979  +6.5985699     738.9902     994.7811      768.049     77.53536      155.505     311.1339      1.676     6.30      841.024     54.86969     91.31183        10     1.262     0.882 -86.30   0
       619     53.7430    170.7849 307.9093968  +6.6006951     10405.57     14678.56     14937.34       77.411     155.6289      311.041      1.478     3.06     839.3693     54.86969     1548.314        34     1.332     1.016 -64.87   0
       620     87.8094    168.8322 307.8953124  +6.6026489      1694.19     2321.399     2472.235     77.53536      155.443     311.1339      1.453     3.25     837.3389     54.86969     218.9656        16     1.141     0.848 -70.61   0
       621    995.3427    168.1140 307.5183364  +6.6333701     1249.772     1570.342     1978.688      78.0308     155.6908     311.4434      1.334     3.91     826.0759     54.86969     214.3187         8     0.976     0.526 -71.38   0
       622    963.2814    167.3655 307.5316809  +6.6326091     746.1425     826.2387     1378.883     77.90723     155.6908     311.2887      1.326     4.28     826.6445     54.86969     122.5141         7     1.279     0.408 -81.05   0
       623    606.6642    166.6154 307.6798543  +6.6209933     414.6598     367.9315     368.4074     77.53536     155.5669     311.1649      1.090     4.11     829.2037     54.86969     74.10266         5     0.999     0.484   3.50   0
       624    721.3265    161.6768 307.6323874  +6.6268715     773.3118     1073.163     1028.161     78.27734     155.9381     311.3196      1.440     4.16      829.759     54.86969     121.7078         7     1.163     0.426 -63.52   0
       625    570.7590    157.7234 307.6950695  +6.6234614     917.8365     1143.959      885.354     77.90723     155.6908     311.3506      1.347     3.30     828.8777     54.86969     159.9559         9     0.881     0.740 -85.70   0
       626    996.3663    154.3139 307.5183741  +6.6391021     2500.801     3561.042     3833.722      78.0308     155.5669     311.2887      1.516     3.27     825.3996     54.86969     375.9095        19     1.248     0.854 -82.94   0
       627    265.6223    150.6393 307.8220656  +6.6161436     675.7028      1391.69     1532.856     77.65952      155.505     311.1029      2.004     5.66     834.0079     54.86969     105.5969         9     1.274     0.709 -70.30   0
       628     17.6140    146.9543 307.9252113  +6.6093163     4959.032     7352.547     7611.116       77.411      155.505      311.072      1.616     3.73     841.5615     54.86969     805.1442        31     1.794     0.903 -72.39   0
       629    587.5557    150.0418 307.6883506  +6.6271959     2280.645      3177.57     3439.121     77.78347     155.6908     311.1339      1.490     3.18     828.7659     54.86969     331.6483        18     1.123     0.925 -62.30   0
       630    331.7780    149.9857 307.7946063  +6.6186369     1203.914     1717.139     1953.986     77.78347      155.505     311.2268      1.513     3.31     832.6762     54.86969     168.0823        11     1.007     0.728 -71.08   0
       631    272.5232    148.1008 307.8192847  +6.6174237     34588.26      48937.5     50932.05     77.65952     155.8145     311.3196      1.507     3.12     833.9029     54.86969     4757.516        55     1.437     1.092 -71.63   0
       632    704.1874    144.7641 307.6400764  +6.6332809     9330.978     12590.55     13088.24     77.53536      155.505       311.01      1.397     2.91     829.0462     54.86969     1470.474        28     1.251     0.916 -73.26   0
       633    181.5822    145.9925 307.8571329  +6.6152354     1033.871     1539.399     1778.578     77.65952      155.443     311.1339      1.597     3.80     834.6303     54.86969      174.778        12     1.278     0.647 -59.45   0
       634    579.3819    151.7514 307.6916886  +6.6262161     1108.223     1668.109     1749.221     77.53536     155.7526     311.1029      1.387     2.55     828.7794     54.86969     211.0903         9     0.981     0.563 -75.70   0
       635    258.2133    143.2059 307.8253945  +6.6189635     855.2177     1260.625     1762.942     77.65952      155.505     311.1649      1.623     3.83     834.1658     54.86969     143.4766        10     1.133     0.645  73.76   0
       636    114.9370    141.7740 307.8849597  +6.6147338     5423.363     7840.654     8458.654     77.65952     155.6908     311.2268      1.505     3.11     835.5455     54.86969     812.5519        27     1.297     0.962 -70.57   0
       637    410.7816    141.1582 307.7620854  +6.6249347     475.4557     539.3103    -297.9849     77.53536      155.505      311.041      1.066     3.95     829.4664     54.86969     88.86725         6     0.806     0.554 -49.90   0
       638    576.9125    139.5875 307.6931243  +6.6311556     977.2623     1301.268      1272.89     77.65952      155.443     311.1958      1.424     3.83     828.5182     54.86969     161.6182        10     1.038     0.637 -70.37   0
       639    454.0264    139.3607 307.7441814  +6.6271283     1665.138     2035.457     1988.384     77.65952      155.505     311.1339      1.351     3.15     828.4332     54.86969      279.121        12     1.038     0.715 -77.33   0
       640    385.6366    137.8813 307.7726416  +6.6254434     4182.017      6613.71     6949.192      78.0308     155.7526     311.2577      1.706     3.38     830.6079     54.86969     571.1788        31     1.498     1.065 -78.42   0
       641    642.5325    139.0058 307.6658835  +6.6335942     981.2253     1375.323     1202.459     77.53536      155.319     311.1029      1.449     3.08      828.726     54.86969     134.3263         8     0.763     0.719  -5.03   0
       642    562.2444    137.0693 307.6993026  +6.6317037      696.601     1000.426      1056.56      78.0308     155.6289     311.2887      1.467     4.85      828.418     54.86969     105.8135         9     1.262     0.529 -62.58   0
       643    350.0260    136.8183 307.7874706  +6.6246863     3413.163     4824.752     5039.456     77.65952      155.505     311.1958      1.477     3.17     832.2858     54.86969     507.6387        23     1.235     0.963 -65.90   0
       644    104.4106    136.5753 307.8895083  +6.6165256     1915.724     2493.575     2816.014     77.65952      155.505     311.1649      1.435     3.20     835.6587     54.86969     297.7567        16     1.131     0.858 -67.30   0
       645    666.0622    134.1023 307.6562737  +6.6364067      829.507     1080.648     843.6737     77.78347     155.8145     311.3506      1.342     3.98     828.6361     54.86969     146.0707         7     1.062     0.531 -89.57   0
       646    996.9233    131.0902 307.5189219  +6.6487094     1804.888     2213.424     2043.366      78.0308     155.9381     311.3196      1.303     3.10     824.6514     54.86969     331.0696        11     1.105     0.630 -69.91   0
       647    722.9124    131.4563 307.6327452  +6.6394021     607.1676     929.9496     927.2442      78.0308     155.5669     311.4124      1.508     4.70     828.3942     54.86969     100.6039         5     1.025     0.612 -85.95   0
       648    201.9987    125.6542 307.8493397  +6.6243193     6381.199     8855.414     9276.758       77.411      155.443     310.8861      1.466     3.08     834.5508     54.86969     885.2359        31     1.377     0.972 -66.92   0
       649    663.6997    124.6006 307.6575750  +6.6402506     7338.923     10029.63     10333.52     77.53536      155.319     310.9171      1.424     2.92     828.2938     54.86969     1189.387        29     1.325     0.943 -74.68   0
       650     84.5850    125.4731 307.8981196  +6.6204416     2396.677     3344.874     3403.799     77.53536      155.443     311.1958      1.533     3.47     836.3663     54.86969     300.8427        20     1.297     0.895 -66.38   0
       651    840.4838    125.3112 307.5841081  +6.6458712     661.5131     842.2295     1286.512     77.78348     155.8763     311.3506      1.191     3.38      826.549     54.86969     160.3223         5     1.009     0.328 -66.72   0
       652    811.9894    124.3517 307.5959781  +6.6453149      1283.73     1572.037     1490.827     77.53536     155.5669      310.979      1.267     3.40      826.723     54.86969        244.9        10     1.041     0.597 -67.98   0
       653    615.9323    121.7714 307.6775144  +6.6398189     10868.92     14883.04     15529.67     77.78347     155.6908     311.2577      1.436     2.99     828.1846     54.86969     1646.035        35     1.329     1.005 -72.90   3
       654    619.4437    113.3215 307.6763402  +6.6434253     62489.69     83126.27     86311.71     77.90723     155.6908     311.3196      1.434     2.87     827.9527     54.86969     9183.294        65     1.382     1.075 -71.96   2
       655    250.5357    122.2835 307.8292910  +6.6273435     879.8851     1024.094     1244.195     78.15417     155.8145     311.3196      1.102     3.12     834.3044     54.86969     162.1783         7     0.931     0.476 -79.20   0
       656    554.4247    120.7966 307.7030995  +6.6381602      754.467     943.7205     1057.786     77.65952      155.381     311.1339      1.355     3.44     828.0814     54.86969     148.3534         8     1.011     0.627 -49.64   0
       657     14.6643    120.6077 307.9273291  +6.6200943     1216.734     1727.471     1390.034     77.53536      155.381     311.1339      1.609     3.47     841.4718     54.86969     173.4921        11     1.028     0.741 -65.94   0
       658    343.1438    117.5212 307.7909812  +6.6324223     4213.292     6416.853     7085.414      78.0308     155.6908     311.2887      1.664     3.44     832.4741     54.86969      654.791        28     1.555     0.902 -51.48   0
       659    989.2062    116.7826 307.5226080  +6.6543594     1009.584     1399.578     1054.231     77.65952      155.443     311.1339      1.322     2.95     824.3398     54.86969     187.8876         9     1.109     0.589 -82.41   0
       660    524.8099    116.8608 307.7155350  +6.6387923     1972.833     2631.243     2709.916       77.411     155.5669      311.041      1.336     3.28      827.964     54.86969     328.5884        16     1.209     0.778 -69.07   0
       661    298.4960    106.9843 307.8098846  +6.6352724     4108.533     5879.634     6523.569     77.78347      155.443     311.1339      1.514     3.15     833.7137     54.86969     569.5282        24     1.351     0.902 -59.11   0
       662    493.8033    104.4897 307.7288332  +6.6428601     603.3254      804.298     794.1099     77.53536      155.381      310.979      1.481     4.13     827.8599     54.86969     94.69409         6     1.095     0.445 -61.09   0
       663    698.4578    101.4256 307.6439151  +6.6509827     1107.025     1346.482     958.1203     77.65952     155.6908     311.1339      1.283     3.61     827.2037     54.86969     180.0003         9     1.092     0.602 -83.40   0
       664    669.8089    100.5546 307.6558464  +6.6503833     1575.235     1817.574     1577.252     77.53536     155.5669      310.979      1.358     3.31     827.3644     54.86969      246.668        13     1.135     0.743 -72.49   0
       665    683.7924     97.2626 307.6501479  +6.6522106     3701.186      4818.27     4589.267       77.411      155.505     311.1029      1.358     2.98     827.1215     54.86969     637.4138        18     1.185     0.778 -64.79   0
       666      2.6878     89.5287 307.9333571  +6.6325218     7984.815     19399.19     30382.08     78.15417     141.8315     255.1246      3.684     8.62     841.4979     54.86969     1457.217       136     3.986     1.998 -88.97  24
       667    425.6213     88.2937 307.7577045  +6.6472592     4775.068     6402.359     6299.333     77.90723      155.505     311.1029      1.428     3.06     828.0677     54.86969      685.595        23     1.251     0.897 -78.67   0
       668    880.1934     84.3822 307.5689858  +6.6640971     2464.628     3230.042     3141.006     77.65952      155.443     311.1339      1.355     2.95     824.1393     54.86969     421.9437        17     1.175     0.737 -74.75   0
       669    898.0117     83.7786 307.5616033  +6.6649415     4528.018     6088.488     6280.111     77.65952      155.443     311.1649      1.357     2.74     824.1235     54.86969     762.3837        22     1.149     0.896 -80.68   0
       670    590.1706     82.2198 307.6895491  +6.6552857     2139.241     2766.123     2907.797     77.65952      155.505     311.1649      1.363     3.05     827.1595     54.86969      319.756        14     1.108     0.746 -56.88   0
       671    235.9522     81.3987 307.8367313  +6.6437330     990.4988     1277.788     1944.918       77.411      155.319     310.8551      1.397     3.23     834.4779     54.86969     150.3831        11     0.995     0.723 -72.78   0
       672    388.9191     80.0756 307.7732292  +6.6494200     2234.578     3082.889     3151.735     78.27734     155.9381     311.3815      1.471     3.22     830.1236     54.86969     325.6083        18     1.184     0.886 -71.89   0
       673    136.8602     76.9382 307.8780470  +6.6422402     3511.534     4792.266     4205.055      78.0308     155.6908     311.3196      1.438     3.08     834.3504     54.86969     576.2882        21     1.212     0.894 -64.15   0
       674    285.1147     75.3846 307.8165112  +6.6478692     1486.886     2060.461     2450.166     77.65952      155.443     311.1958      1.454     3.52     834.2322     54.86969     198.3472        13     0.982     0.922 -39.61   0
       675    558.7358     74.4066 307.7028719  +6.6574580     855.0529     1173.611     578.5599     77.53536      155.443      311.072      1.532     3.86     827.0494     54.86969     143.4993         9     0.894     0.866 -18.68   0
       676    545.6323     74.1472 307.7083244  +6.6571259     875.8059      1307.27      590.149     77.90723     155.6908     311.1958      1.491     3.11     827.1031     54.86969     172.7777         8     0.914     0.648  87.27   0
       677    976.5602     73.4298 307.5293168  +6.6718371     569.3038     801.8083     689.0503     77.53536      155.381     311.1339      1.264     4.50     822.2324     54.86969     122.6753         8     1.290     0.446 -52.61   0
       678    939.6840     73.7503 307.5446268  +6.6704737      607.977     937.7697     1035.958      78.0308     155.6908     311.3815      1.598     3.82     823.4292     54.86969     119.1541         6     1.056     0.396 -75.59   0
       679    753.7142     74.0316 307.6218805  +6.6641422     627.7474     822.6197     869.6942      78.0308      155.505     311.1958      1.194     4.25      825.363     54.86969     107.6545         7     0.796     0.648 -70.79   0
       680     18.7503     74.7069 307.9271868  +6.6391826     13834.84     19635.26     21509.88     77.90723     155.5669     311.4434      1.524     3.11     839.1824     54.86969     2035.492        39     1.373     1.050 -69.45   0
       681    410.8319     70.4828 307.7644496  +6.6541163     1262.653     1835.585     1805.411      78.0308      155.505     311.1649      1.635     4.04     828.8638     54.86969     179.8234        14     1.100     0.941 -71.71   0
       682    577.9757     84.0316 307.6945544  +6.6541290     868.6107     1059.309     776.4039     77.53536     155.5669     311.1029      1.423     3.76      827.247     54.86969     146.7809         7     0.884     0.532 -52.76   0
       683    820.5176     69.4764 307.5942796  +6.6682570     7319.901     9332.896     10162.48     78.15417     155.9381     311.4124      1.339     2.89     823.9418     54.86969     1176.766        23     1.206     0.831 -73.49   0
       684    765.5958     69.7803 307.6170872  +6.6662950     3856.625         5111     5592.111     77.65952      155.381     311.1029      1.397     2.86     824.9103     54.86969     603.3181        19     1.238     0.782 -78.28   0
       685    911.3929     69.2253 307.5565327  +6.6713973     481.8794     656.5987    -13.48154     77.53536     155.5669     311.1339      1.239     3.44     823.6105     54.86969     88.41125         5     0.729     0.469  75.78   0
       686    752.3964     68.8366 307.6226027  +6.6662431     691.4123     1077.508     738.5975     77.16169     155.5669     311.1029      1.600     4.22     825.1781     54.86969     141.6515         7     0.792     0.641 -69.89   0
       687    527.8126     68.1358 307.7159301  +6.6590104     1383.051     1782.881     1411.614     77.53536      155.505     311.1339      1.309     2.76       827.08     54.86969     269.1054        10     0.995     0.631 -73.17   0
       688     58.9851     66.5902 307.9107478  +6.6438896     3620.316      4973.69     5463.956     77.78347      155.443     311.1958      1.464     3.24     836.5095     54.86969     569.4357        22     1.262     0.938 -61.14   0
       689     43.5287     67.4626 307.9171390  +6.6430086     1180.774      1437.28     1569.363      78.0308     155.6908     311.3506      1.474     4.35     837.2802     54.86969     182.9095        13     1.160     0.841 -69.68   0
       690    647.6212     66.8854 307.6661978  +6.6635416     556.3246     674.3471     690.8284     77.78347      155.443     311.2268      1.282     3.87     826.4052     54.86969     96.52985         5     0.883     0.485 -89.55   0
       691    420.3482     66.2944 307.7606376  +6.6561651     1129.836     1383.802     1822.667     77.90723     155.6289     311.5362      1.373     3.46     828.4908     54.86969      167.937        11     0.952     0.784 -61.47   0
       692    582.7615     63.3896 307.6932616  +6.6628120     1459.311     1856.716     1165.183       77.411      155.505       311.01      1.351     3.11     826.6368     54.86969     258.4803        12     1.026     0.737 -62.96   0
       693    254.3174     63.3719 307.8297113  +6.6517933     528.3079     919.5405     1053.002     77.90723      155.505     311.2268      1.896     4.12     834.4357     54.86969     80.99353         6     1.067     0.454 -83.93   0
       694      1.7400     62.0135 307.9346832  +6.6438497     2665.411     3531.929     4147.146     71.99439     129.5483     240.5872      1.364     3.71     838.9745     54.86969      420.509        16     1.289     0.735 -77.03  24
       695    760.3657     57.3418 307.6196784  +6.6712556     2232.045     3090.463     3532.702     77.90723     155.6908     311.2577      1.507     3.08     824.4467     54.86969     387.4218        16     1.152     0.826 -77.48   0
       696    400.7657     57.4169 307.7690726  +6.6591729      1239.52     1762.501      1667.98     77.65952      155.505     311.1339      1.492     3.99     829.7599     54.86969     165.6781        13     1.174     0.801 -76.78   0
       697     73.9523     57.7353 307.9048300  +6.6480497      886.171       1147.8     698.0916     77.90723     155.5669     311.3506      1.380     3.62     835.4942     54.86969     174.1202         8     1.028     0.599 -38.81   0
       698     97.9840     55.9801 307.8949062  +6.6495838     850.2307      972.254     1099.084     77.78347      155.505     311.1958      1.341     3.00     834.4849     54.86969     157.4012         7     0.885     0.503 -47.18   0
       699    415.7956     50.7242 307.7630544  +6.6624408     3048.823     4202.793     3880.304     77.65952     155.1949     311.1339      1.446     3.16     828.9014     54.86969     431.6206        22     1.248     0.962 -68.45   0
       700     86.8437     50.9235 307.8997053  +6.6512963     10567.73     15017.49     15277.11     77.90723     155.7526     311.3196      1.479     3.16     834.8253     54.86969     1599.408        34     1.375     0.988 -78.39   0
       701    237.4098     50.7475 307.8371620  +6.6564369     655.8582     764.0662     1133.271       77.411     155.5669      311.041      1.396     3.43     834.5164     54.86969     107.7809         5     0.794     0.427 -68.67   0
       702    629.6014     43.0798 307.6744859  +6.6727668     21127.07     28797.14     30080.24     77.28645     155.1328      311.072      1.412     2.98     825.7249     54.86969     3174.112        43     1.366     0.989 -70.18   0
       703    253.4710     44.7282 307.8306931  +6.6594622     1688.749     2261.269      3306.72     78.15417     155.8145     311.1958      1.372     3.35     834.5016     54.86969     269.4928        15     1.174     0.770 -46.45   0
       704    685.2222     43.1516 307.6513752  +6.6745998     527.5876     659.9937     1048.132     77.65952     155.6908     311.1958      1.313     4.41     825.3129     54.86969     84.29193         5     0.768     0.719 -53.25   0
       705    939.4232     42.5129 307.5457840  +6.6833624     662.4153     909.6676      348.181      78.0308      155.505     311.1649      1.310     3.58       822.21     54.86969     113.4089         6     0.912     0.432 -18.21   0
       706    529.4090     39.0442 307.7162476  +6.6710751     6028.064     8239.486     8463.371     77.53536     155.5669      311.041      1.431     2.98     826.4728     54.86969     907.1577        27     1.283     0.910 -69.26   0
       707    247.6286     39.1855 307.8333077  +6.6615541     2145.723     3310.193     3970.058     77.65952      155.505     311.1958      1.617     3.32      834.526     54.86969     307.4438        18     1.267     0.846 -64.37   0
       708    685.5188     38.0591 307.6514234  +6.6767123     667.6239     850.3329      1195.56     78.15417     155.7526     311.2887      1.304     4.18     825.1258     54.86969     107.0062         6     0.997     0.500 -89.44   0
       709    690.6343     37.4907 307.6493172  +6.6771182     403.6143     656.1266     560.2921     78.15417     155.5669     311.2887      1.291     3.47       824.99     54.86969     82.58545         5     1.081     0.321 -69.66   0
       710    255.5082     35.0666 307.8301734  +6.6635197     10355.92     14812.43     16019.23      78.0308     155.8763     311.3196      1.509     3.07     834.5354     54.86969     1405.511        37     1.390     1.053 -67.53   0
       711    616.0773     33.5208 307.6804266  +6.6762605     3651.948     6320.324     7195.943     78.27734     155.9381     311.4434      1.969     4.89     825.4888     54.86969     584.3504        34     1.932     1.029  77.94   0
       712    434.9142     34.6602 307.7556537  +6.6697149     26035.19     35974.28     37257.29     78.15417     155.8145     311.3815      1.466     3.05     828.4782     54.86969     3791.267        49     1.372     1.085 -70.40   0
       713    315.3586     35.2332 307.8053035  +6.6654629     1201.605     1737.722     2125.891     77.78348     155.6908     311.1339      1.469     3.74      834.004     54.86969     194.2915        12     1.111     0.790  88.57   0
       714    912.8609     34.7757 307.5570798  +6.6856700     2201.759     2866.984     2654.438     77.65952     155.6289     311.1958      1.303     2.84     822.4736     54.86969      400.042        14     1.103     0.691 -75.96   0
       715    501.3608     35.8702 307.7280074  +6.6714448     487.0616     573.4962     489.6843     77.90723     155.6908     311.3506      1.359     3.49     826.6333     54.86969     94.56238         5     0.817     0.429 -71.98   0
       716     20.8467     34.5678 307.9276759  +6.6558249     2761.246     3979.295     4510.893     77.65952     155.6908     311.1958      1.560     2.88     836.0486     54.86969     421.4642        22     1.235     0.929 -73.66   0
       717    548.0791     34.1438 307.7086562  +6.6737243     758.7433     990.2273     801.3078     78.15417     155.6908     311.2887      1.546     4.99      826.206     54.86969     110.9478        10     1.106     0.643 -83.96   0
       718    520.3979     34.5396 307.7201432  +6.6726327     662.9302     792.2081     419.3861       77.411      155.381       311.01      1.169     3.40      826.462     54.86969     127.3941         6     0.929     0.408 -71.13   0
       719    243.3410     31.6321 307.8353442  +6.6645284     3431.348     4681.717     4696.453     77.90723     155.7526     311.2577      1.464     3.14     834.5452     54.86969     512.0042        21     1.242     0.872 -69.58   0
       720    296.3901     29.8946 307.8133642  +6.6670295     1148.175     1726.875     1957.181     77.65952      155.319      311.072      1.616     3.64     834.4305     54.86969     163.1709        11     0.945     0.839 -49.74   0
       721    933.3922     25.2039 307.5488709  +6.6903076     1033.479     1340.595      1510.88       77.411      155.381     311.1649      1.381     4.36     821.8788     54.86969     163.8185        11     1.227     0.714  74.25   0
       722    684.6487     24.3815 307.6522453  +6.6823304     2272.263      3103.16     3296.174     77.53536     155.7526      311.072      1.398     2.92     824.6786     54.86969     393.8425        17     1.105     0.844 -57.32   0
       723     90.0294     24.8997 307.8992630  +6.6621477     527.1066     704.0754     546.7526      78.0308      155.443     311.3506      1.249     3.01     834.3868     54.86969     103.5586         5     0.946     0.375 -60.01   0
       724    195.5704     20.1952 307.8555768  +6.6676433     931.3484     1233.064     1200.284     77.53536      155.505     311.1029      1.395     3.39     834.4741     54.86969     150.4031         9     0.894     0.755 -71.67   0
       725      1.3458     20.8040 307.9362434  +6.6608500     373.9927     441.1732     70.85592     67.29092     123.5336     234.1335      1.389     4.31     835.1832     54.86969     89.72217         5     1.165     0.455 -82.50  24
       726    250.3629     18.9390 307.8328562  +6.6700052     941.2197     1324.328      1430.26      78.0308     155.7526     311.2887      1.370     3.07     834.5862     54.86969     155.5695         7     0.762     0.606 -78.78   0
       727    743.2659   1019.1525 307.5944522  +6.2735630     1359.265     1859.429     2006.458     77.90723     155.6289     293.9377      1.448     4.03     855.5017     54.86969     197.9199        13     1.138     0.858 -47.52  16
       728    615.8270   1017.0285 307.6474283  +6.2701763     531.3421     654.9466     943.7881     77.53536      155.505     309.5195      1.361     3.83     857.1865     54.86969     83.84296         6     0.931     0.452 -53.40  16
       729    950.8283   1013.5427 307.5084717  +6.2828121     6932.679     10983.59        11054     77.65952     155.7526     311.1958      1.699     3.53     851.8457     54.86969     870.3548        36     1.523     1.104 -66.75   0
       730    705.3941   1013.8490 307.6103525  +6.2744863     1130.151     1736.282     2187.638     77.53536      155.505      310.948      1.690     3.39     855.6671     54.86969     185.2069        13     1.138     0.826 -60.84   3
       731    710.6382   1011.5841 307.6082516  +6.2755968     3003.359     4349.376     4367.824     77.65952      155.505      311.041      1.593     3.49     855.6318     54.86969     418.8392        23     1.389     0.952 -58.18   2
       732     74.0964     14.1030 307.9062477  +6.6660685     530.1618     632.2715     253.3003      78.0308     156.2467     311.1339      1.212     3.87     834.2983     54.86969     91.01788         6     0.959     0.447 -52.06   0
       733    235.4456   1013.4412 307.8054552  +6.2588998     1494.162     2164.655     2395.729     77.90723     155.6908     311.1339      1.605     3.83     856.1617     54.86969     214.7435        14     1.182     0.826 -82.64   0
       734    433.7733   1012.4033 307.7231602  +6.2659860     1126.863     1664.139       1979.4     77.53536      155.443     311.1339      1.535     3.62     857.1538     54.86969     172.7112        11     0.974     0.816 -50.51   0
       735    726.4879   1010.5645 307.6017059  +6.2765479     1273.256      1644.96     1604.945      78.0308     155.5669     311.2887      1.481     4.03     855.6125     54.86969     187.4961        13     1.200     0.768 -77.95   0
       736    357.0586   1009.0106 307.7551208  +6.2648130     2127.826     2980.572     2925.615       77.411     155.5669       311.01      1.427     3.34     856.9703     54.86969     320.6132        15     1.199     0.768 -75.66   0
       737    205.3993   1007.6767 307.8181224  +6.2602701     503.6479      554.471     218.2016     77.28645     155.1328      311.041      1.106     4.02     855.6702     54.86969     90.46307         5     0.956     0.483 -84.31   0
       738    968.0610   1006.5361 307.5015523  +6.2862801     711.6464     1053.036     861.3087      78.0308     155.6908     311.3196      1.517     6.42     850.3525     54.86969     107.6292        10     1.259     0.918 -81.16   0
       739    608.2148   1003.1780 307.6510543  +6.2756402     556.0928      812.666     648.4746     77.78347      155.505     311.2268      1.323     4.44     857.0009     54.86969     105.5485         7     1.277     0.438 -64.27   0
       740    539.5394    999.1866 307.6796984  +6.2749882     4825.965     6957.854     7799.784     77.53536     155.5669       311.01      1.548     3.20     857.5182     54.86969     648.8871        25     1.368     0.885 -68.99   0
