#   1 NUMBER                 Running object number                                     
#   2 X_IMAGE                Object position along x                                    [pixel]
#   3 Y_IMAGE                Object position along y                                    [pixel]
#   4 ALPHA_J2000            Right ascension of barycenter (J2000)                      [deg]
#   5 DELTA_J2000            Declination of barycenter (J2000)                          [deg]
#   6 FLUX_APER              Flux vector within fixed circular aperture(s)              [count]
#   9 FLUXERR_APER           RMS error vector for aperture flux(es)                     [count]
#  12 FLUX_RADIUS            Fraction-of-light radii                                    [pixel]
#  13 FWHM_IMAGE             FWHM assuming a gaussian core                              [pixel]
#  14 BACKGROUND             Background at centroid position                            [count]
#  15 THRESHOLD              Detection threshold above background                       [count]
#  16 FLUX_MAX               Peak flux above background                                 [count]
#  17 ISOAREA_IMAGE          Isophotal area above Analysis threshold                    [pixel**2]
#  18 A_IMAGE                Profile RMS along major axis                               [pixel]
#  19 B_IMAGE                Profile RMS along minor axis                               [pixel]
#  20 THETA_IMAGE            Position angle (CCW/x)                                     [deg]
#  21 FLAGS                  Extraction flags                                          
         1    263.4450     25.8346 307.8301078  +6.6636084     8037.885     13567.54     15313.99     83.44596     167.2248     334.3499      1.877     4.32     986.8505     58.95806     992.4962        46     1.898     1.092 -42.69   2
         2    442.7587     25.3869 307.7556002  +6.6698077     19725.41     34275.55     36906.97     83.17894     167.0918     334.1835      1.871     4.28     967.5961     58.95806     2497.921        59     1.854     1.175 -44.27   0
         3    623.6932     23.4674 307.6804665  +6.6766577      2885.18     5060.726     6093.401     83.71214     167.4907     334.5162      2.050     4.51     960.9015     58.95806     389.5691        29     1.794     1.194 -54.92   2
         4    692.6949     15.0063 307.6520737  +6.6824584      1636.82     2692.961     3140.346     83.57915     166.9586     334.2834      1.765     5.08     959.8284     58.95806     227.3336        18     1.518     0.833 -43.85   0
         5    180.8918      7.9156 307.8650241  +6.6682340     9288.275        15860     17195.62     83.57915     167.6898     332.5151      1.826     4.00     988.0937     58.95806     1299.826        46     1.843     1.084 -42.85  16
         6    258.3274      9.5928 307.8327853  +6.6701425     749.7657     1381.283     1495.189     83.44597     166.8253     334.3831      1.895     5.19     986.4421     58.95806     123.3736        10     1.115     0.795  25.40   0
         7    525.1393      6.0251 307.7220168  +6.6805614     2609.077     4532.643     4848.759     83.44596     167.2914     317.5602      1.801     4.57     963.3479     58.95806     364.2698        25     1.709     0.884 -47.51  16
         8    926.4654      5.4870 307.5552324  +6.6941928     3933.901      6151.97     6440.609     83.84491     167.4907     311.8697      1.688     4.07     951.9006     58.95806     604.7737        25     1.554     0.852 -43.70  16
         9    463.5474      4.4183 307.7476697  +6.6791619     1484.549     2774.876      3008.26     83.31256     167.3578     298.8284      2.035     5.16     965.5128     58.95806     224.8948        22     1.593     0.950 -41.67  16
        10    727.3684      4.0144 307.6380335  +6.6881556     1753.728     2707.686     2837.883     83.44596     165.0826     293.4951      1.693     4.55     957.9219     58.95806     254.7099        17     1.350     0.831 -50.08  24
        11    990.8970      2.2038 307.5285626  +6.6976960     2006.234     2558.298     2762.253     82.50758     145.9876      266.313      1.436     4.47     944.4195     58.95806     285.8869        17     1.328     0.818 -41.09  24
        12    709.4156      1.1073 307.6455933  +6.6887560      735.129     802.1047     552.0423     69.32024      128.912     247.6126      0.854     2.16     958.5336     58.95806     243.5939         5     0.882     0.300   5.25  24
        13    441.4279   1003.5292 307.7230780  +6.2658913     909.5922     1207.937     1262.197     83.57916     167.2914     334.4164      1.303     3.57     1011.408     58.95806     169.7952         8     1.076     0.528 -55.52   0
        14    795.4213   1021.9109 307.5754489  +6.2701331     6510.344     9753.926     10075.21     83.84491     157.0012     280.1941      1.568     4.58     999.8065     58.95806     1016.432        29     1.603     0.869 -46.59  24
        15    585.3617   1023.5832 307.6626278  +6.2624267     64764.32      79615.8     81808.57     73.97768     134.2381     252.9898      1.184     3.29     1008.149     58.95806     14929.05        32     1.458     0.666 -12.05  27
        16    586.0875   1018.0633 307.6625126  +6.2647301     71005.96     112765.8     122330.8     83.84491     167.4907     325.9608      1.696     4.15     1007.963     58.95806     11517.69        82     1.955     1.052 -45.50  19
        17    733.8320   1001.6109 307.6017103  +6.2764595     1148.802     1824.404     1939.954     83.31255     167.0252     334.3166      1.564     5.51     1002.423     58.95806     180.1518        12     1.549     0.552 -48.03   0
        18    365.0190    999.5410 307.7549438  +6.2649788     1756.544     2755.354     3017.284     83.44596     167.1583     334.3166      1.645     4.71     1013.349     58.95806     301.3915        19     1.514     0.839 -51.71   0
        19    702.6682    996.7326 307.6148169  +6.2774332     541.4907     833.3677     1002.607     83.84491     167.3578     334.5162      1.954     5.93     1002.895     58.95806     83.14465         6     1.325     0.748 -89.21   0
        20    975.8066    997.3383 307.5013612  +6.2862927     649.2971     858.0004     435.4031     83.17894     167.0918     334.2168      1.294     2.58     993.7219     58.95806     116.9137         5     0.839     0.473  -0.48   0
        21    517.5193    990.9842 307.6919020  +6.2736179     991.4308     1552.036     1188.432     83.44596     167.0252     334.3166      1.539     4.43     1008.849     58.95806     188.7244        12     1.440     0.628 -52.36   0
        22    751.9882    989.1082 307.5945912  +6.2822281     7598.493     12114.51        13037     83.57915     166.9586     334.2501      1.670     4.36     1001.047     58.95806     1129.844        34     1.711     0.887 -45.55   0
        23    547.5094    989.7556 307.6794889  +6.2751284     4274.566     6862.657     6865.603     83.84491     167.2248     334.6159      1.687     4.55     1008.504     58.95806     662.4255        27     1.684     0.814 -46.92   0
        24    297.7841    988.3926 307.7832421  +6.2673283     14108.97     22887.29     25154.27     83.44597     167.0252     334.3166      1.768     4.41     1013.911     58.95806     2388.115        50     2.044     0.957 -42.65   0
        25    813.0942    988.4280 307.5692366  +6.2845481     1038.127     1757.907     2139.357     83.97747     167.0252     334.3831      1.787     5.85     998.2052     58.95806     173.2978        13     1.576     0.671 -45.57   0
        26    421.8777    988.9715 307.7316888  +6.2712475     874.4505     1139.238     840.0945     83.71214     167.2914     334.4829      1.410     4.37      1012.44     58.95806      154.959         7     1.010     0.630 -53.53   0
        27    269.0742    985.9625 307.7952469  +6.2673690     934.1603     1464.877     1298.977     83.71214     167.3578     334.5494      1.568     6.78     1013.975     58.95806     156.2791        13     1.347     0.957 -30.82   0
        28    913.3237    982.6452 307.5278050  +6.2902779     8725.253     13605.51     14457.37     83.71214     167.3578     334.5162      1.704     4.30     995.9708     58.95806     1239.119        38     1.788     0.920 -51.11   0
        29    544.6874    981.9156 307.6809255  +6.2782712     8080.997        12428     12902.34     83.57915     167.4907     334.5494      1.595     4.04     1008.581     58.95806      1273.42        32     1.749     0.833 -45.03   0
        30    886.9680    978.7474 307.5388819  +6.2910089     11948.78     19462.72     20882.69     83.71214     167.2914     334.3831      1.722     4.42     996.2778     58.95806     1745.116        45     1.784     1.027 -44.04   0
        31    599.8644    979.2991 307.6580990  +6.2811966     1267.775     1910.665     1601.878     83.84491     167.3578     334.5162      1.638     4.23     1006.254     58.95806     246.0184        14     1.556     0.633 -41.39   0
        32   1008.5540    978.2742 307.4884015  +6.2952551     4706.612     7551.213     8229.123     83.71214     167.3578     334.4829      1.757     4.41      991.696     58.95806     640.7399        29     1.656     0.904 -46.11   0
        33    531.0547    977.8181 307.6867254  +6.2795070     3893.424     6134.856     6973.076     83.31255     167.2914     334.2501      1.656     4.01     1008.687     58.95806     615.9363        26     1.602     0.960 -37.91   0
        34    640.5813    977.2350 307.6412589  +6.2834098     1179.975      1982.02     1762.129     83.31256     167.0918     334.2501      1.568     4.98     1004.577     58.95806     224.4791        10     1.570     0.448 -44.04   0
        35     65.8848    976.5641 307.8799439  +6.2644281     899.9494     1214.365     1666.369     83.84491     167.2248     334.4497      1.418     5.66     1014.152     58.95806     125.6548        11     1.327     0.681 -53.84   0
        36    484.3077    974.0908 307.7062650  +6.2794818     2225.941     3413.979      3242.87     83.84491     167.8224     334.5162      1.588     4.21     1009.075     58.95806     372.4154        18     1.489     0.740 -49.84   0
        37    918.6678    966.3629 307.5261331  +6.2971792     43305.88      67695.8      72267.3     83.71214     167.2914     334.6159      1.704     4.12     995.1196     58.95806      6356.54        69     1.815     1.056 -48.31   0
        38    323.7889    967.4274 307.7731521  +6.2768566     655.6664     688.9025     627.2742     83.44596     167.0918     334.3499      1.229     3.50     1013.906     58.95806     89.07971         5     0.783     0.451 -18.57   0
        39    226.0474    964.5271 307.8138407  +6.2747761     1816.646     2969.648     3197.681     83.84491     167.3578     334.4829      1.749     4.79     1014.092     58.95806     254.3257        17     1.538     0.690 -49.07   0
        40    113.6275    963.4583 307.8605622  +6.2714433     708.8966     1236.995     533.7258     83.44597     167.3578     334.3499      1.735     4.47     1013.952     58.95806     110.4502         6     1.094     0.520 -56.27   0
        41    624.7013    962.9479 307.6483358  +6.2887783     830.7523     1224.663     774.1984     83.71214     167.2914     334.7156      1.562     5.29     1004.702     58.95806     197.9664         9     1.458     0.543 -45.35   0
        42    816.6595    960.1092 307.5687092  +6.2963601     2468.115     3616.589      3587.58     83.71214     167.2914     334.5494      1.520     4.03     997.4086     58.95806     377.5238        21     1.545     0.847 -48.37   0
        43    764.7920    957.9592 307.5903229  +6.2955171     6509.888     10117.29     11024.68     83.17893     167.0918     334.1502      1.610     4.15     999.2705     58.95806     992.7032        27     1.686     0.766 -48.42   0
        44    551.3539    957.6445 307.6789762  +6.2885157     805.0143     1282.693     1073.332     83.84491     167.2914     334.4164      1.833     4.80     1008.164     58.95806     147.1401         8     1.297     0.620 -50.58   0
        45    198.1710    957.4321 307.8256575  +6.2767702     832.2849     1305.751     1304.481     83.31255     167.0252     334.2501      1.755     6.37     1014.067     58.95806     106.2142        13     1.570     0.725 -57.53   0
        46    234.1993    957.3330 307.8106989  +6.2780201     1396.703     2193.498     2368.406      83.0451     166.8253     334.2168      1.708     3.91     1014.137     58.95806     259.6778        13     1.336     0.717 -43.72   0
        47     59.2714    955.1262 307.8834173  +6.2730573     2538.568     4066.222     4247.435     84.10983     167.4243     334.5162      1.725     4.54     1014.237     58.95806     361.2179        22     1.621     0.808 -46.32   0
        48    952.9833    953.1256 307.5123263  +6.3037884     6822.844     10479.35     11382.14     83.31255     167.0252     334.3499      1.603     3.94     993.4121     58.95806     1017.022        32     1.624     0.882 -48.02   0
        49    208.7959    949.4117 307.8215168  +6.2804383     654.0966     947.7017      871.044     83.44596     166.9586     334.3499      1.583     4.45     1014.136     58.95806     100.6564         7     1.241     0.454 -40.37   0
        50    635.5303    946.8987 307.6443797  +6.2957670     744.0914     1208.865     1278.891     83.71214     167.4243     334.4829      1.708     6.49     1003.908     58.95806     106.2275        11     1.394     0.850 -54.46   0
        51    926.6512    944.7913 307.5235429  +6.3063524     2044.069     3695.166     3614.968     83.31256     167.1583     334.1502      1.804     4.69     993.9019     58.95806     342.4646        20     1.672     0.762 -51.13   0
        52    259.7906    940.9081 307.8006273  +6.2856603     4131.733     6630.269     7538.799     83.44596     166.8919     334.2168      1.674     4.04     1014.226     58.95806      631.312        29     1.784     0.828 -46.82   0
        53    786.0973    941.5759 307.5820263  +6.3029930     1306.003      1920.27     1984.753     83.97747     167.0252     334.3499      1.395     3.92     997.8609     58.95806      271.816        10     1.301     0.460 -43.92   0
        54    647.5462    940.6768 307.6395991  +6.2987376     4472.378     6908.585     6966.775     83.97747     167.2914     334.4829      1.672     4.17     1003.507     58.95806     752.9023        24     1.546     0.801 -50.31   0
        55    996.5066    940.6406 307.4946696  +6.3103933     782.1185     1542.423     1939.753     83.97747     167.2248     334.5827      2.162     5.52     991.7535     58.95806     106.8085        10     1.319     0.652 -20.90   0
        56    469.7391    939.3020 307.7134904  +6.2933585     884.4101     1234.432     740.7266     83.57916     167.2914     334.6159      1.479     4.46     1009.603     58.95806      158.015         9     1.293     0.500 -36.34   0
        57     28.5164    938.4254 307.8967556  +6.2789191      2028.75     3535.156     3221.753     83.84491     167.0252     334.4497      1.884     4.76     1014.438     58.95806     310.4257        20     1.758     0.730 -43.53   0
        58    878.7964    937.3038 307.5436701  +6.3078490     967.9095     1375.473     992.9589     83.57915     166.9586     334.1502      1.520     5.05     995.4242     58.95806      157.065         9     1.106     0.652 -46.44   0
        59    971.1862    935.1818 307.5053694  +6.3118040     573.2386      845.963     337.4033     83.44596     166.9586     334.3831      1.642     3.50     992.3074     58.95806     92.59601         5     1.039     0.340 -43.82   0
        60    295.8228    934.4546 307.7858817  +6.2895333     857.2476     1411.292     1665.334     83.31256     167.2914     334.2834      1.747     5.14     1014.239     58.95806     165.1047        10     1.369     0.567 -51.01   0
        61   1003.2316    932.7613 307.4921413  +6.3138707     988.5127     1799.501     1473.111     83.44596     167.0252     334.3166      1.901     5.50     991.5032     58.95806     137.1166        14     1.399     0.895 -72.46   0
        62    951.2612    933.6960 307.5136948  +6.3117538     835.0539     1348.762      677.063     83.57916     167.3578     334.5494      1.551     5.56     992.7588     58.95806     136.0495         8     1.422     0.612 -44.77   0
        63    571.8600    933.3887 307.6712785  +6.2992168     1439.106     2181.225     2215.196     83.17893     167.1583     334.1835      1.610     4.64     1006.507     58.95806     259.5118        15     1.475     0.720 -39.22   0
        64     61.1807    930.5936 307.8834565  +6.2832506     706.9025     1366.169     1614.321     83.44596     166.9586     334.2834      1.755     4.83     1014.258     58.95806     108.4744         8     1.587     0.416 -52.44   0
        65    611.4402    929.6146 307.6549676  +6.3020985     1231.647     1721.371     1845.868     83.44597     167.0918     334.2501      1.484     4.29     1003.754     58.95806      254.194        10     1.363     0.513 -46.06   0
        66    291.3379    927.2838 307.7879870  +6.2923437     1614.422     2332.086     2184.042     83.97747     167.2914     334.4829      1.575     4.49     1014.289     58.95806     233.7239        16     1.519     0.672 -48.59   0
        67     55.5983    929.5582 307.8858099  +6.2834905     505.1428     886.4891     1392.604     83.17894     166.9586     334.1835      2.235     3.48     1014.287     58.95806     87.91736         5     1.125     0.311 -21.00   0
        68    559.3293    925.6730 307.6767430  +6.3019836     697.5598     930.9368     487.8367     84.10983     167.4243     334.4829      1.473     4.73      1007.25     58.95806     118.9861         6     0.954     0.666 -20.14   0
        69    895.7800    920.0417 307.5371970  +6.3155429     6904.253     10635.25     11462.48     83.31255     167.0918     334.2834      1.634     4.11     994.2268     58.95806     1008.449        36     1.790     0.902 -46.55   0
        70    758.4000    923.1790 307.5941492  +6.3096648     779.5061     1416.292     1321.567     83.31255     166.8919     334.1502      1.524     4.57     998.3148     58.95806     168.4628         7     1.408     0.421 -28.84   0
        71    409.1156    921.1949 307.7392796  +6.2988050     2554.421     2673.663     2958.475     83.31255     166.8919     334.1835      1.244     4.09     1012.518     58.95806     675.9899         8     1.209     0.395 -49.39   0
        72    133.9402    921.5021 307.8535489  +6.2894489     516.2639     971.2382     1111.379     83.57915     167.2914     334.6159      2.125     4.92     1014.082     58.95806     79.04297         5     1.262     0.543 -51.60   0
        73    431.5409    917.3099 307.7300975  +6.3011601     1982.691     3135.545     3046.717     83.71214     167.2914     334.6159      1.741     4.10      1011.32     58.95806     322.2333        20     1.495     0.854 -53.51   0
        74    333.3216    915.5667 307.7709476  +6.2985892     9415.041     14893.49     15352.78     83.71214     167.2914     334.4829      1.713     4.27     1014.143     58.95806     1510.243        39     1.747     0.940 -47.26   0
        75    253.2739    914.5702 307.8042252  +6.2963164     6693.099     10311.67     11306.28     83.71214     167.2914     334.4829      1.685     4.18      1014.31     58.95806     1038.429        32     1.801     0.815 -47.46   0
        76    581.3297    909.0959 307.6681654  +6.3095641     1139.387     1699.445     2079.606     83.71214     167.4243     334.4829      1.534     5.26     1005.301     58.95806     160.4205        14     1.340     0.750 -51.81   0
        77    911.1605    905.4134 307.5313011  +6.3220957     896.1539     1379.066     1489.787     83.31255     167.0918     334.2168      1.700     5.09     993.2172     58.95806     143.8745         9     1.252     0.586 -69.01   0
        78    143.7418    905.4440 307.8500227  +6.2964083     720.6138     1233.425     1378.981     83.71214     167.2248     334.5494      2.126     4.68     1014.147     58.95806     127.0691         8     1.390     0.447 -50.34   0
        79    867.5301    904.4677 307.5494542  +6.3210317     662.8852     1253.708     1650.472     83.84491     167.4243     334.4497      1.694     3.58     994.8318     58.95806     128.7292         6     1.011     0.365 -68.87   0
        80    409.9833    903.2362 307.7395263  +6.3062492     581.6157      969.199     1800.284     83.44596     167.0918     334.2501      1.599     3.66     1011.646     58.95806     96.92358         5     0.808     0.492 -55.29   0
        81    978.6638    900.9868 307.5034132  +6.3261726     804.5374      1136.28      1312.58     83.31255     167.0918     334.2834      1.609     4.41     990.9147     58.95806     125.9374         7     0.978     0.565 -39.29   0
        82    747.9566    898.0323 307.5993338  +6.3196995     1556.078     2358.044      2472.76     83.44596     167.2248     334.3166      1.550     4.37     997.8939     58.95806     260.4237        15     1.529     0.668 -42.43   0
        83    571.2325    899.0353 307.6726985  +6.3133805     735.2769     944.9745      1021.58     83.44596     167.0252     334.2168      1.377     4.35     1005.564     58.95806     137.2379         6     0.979     0.551 -58.89   0
        84    979.1096    893.8430 307.5034681  +6.3291372      1115.69     1542.635     1557.193     83.84491     167.2914     334.5494      1.360     3.66     990.6503     58.95806     214.7889        11     1.175     0.639 -48.87   0
        85    611.8884    894.6367 307.6559615  +6.3165560     868.2883     1205.188     803.2502     83.84491     167.1583     334.4829      1.474     5.49     1003.568     58.95806     131.4222        12     1.406     0.640 -41.39   0
        86    532.9349    894.0371 307.6887731  +6.3141633     1015.312     1608.447     1469.703     83.71214     167.2248     334.5494      1.802     3.79     1006.986     58.95806     175.0998        10     1.047     0.713 -42.97   0
        87    623.4020    894.2418 307.6511929  +6.3171040     477.8638     690.6213      924.197     83.17894     166.9586     334.1835      1.137     3.48     1003.232     58.95806     105.3989         5     1.205     0.290 -36.39   0
        88    666.4348    891.3745 307.6334168  +6.3197259     2368.668     3595.522     3349.927     83.17894     167.0918     334.2501      1.629     4.67     1001.838     58.95806     386.2051        19     1.570     0.703 -45.12   0
        89    956.6826    889.0677 307.5129436  +6.3303619     585.7795     889.3468     1568.174     83.97747     167.5571     334.5162      1.911     4.40       991.22     58.95806      97.8938         7     1.259     0.437 -32.30   0
        90     63.0051    887.6040 307.8841570  +6.3010618     2867.419     4769.111     4819.724     83.17893     166.8919     334.3499      1.760     4.12     1014.104     58.95806     423.5751        28     1.607     0.941 -51.10   0
        91    944.4438    886.8555 307.5181013  +6.3308676     756.7905     1143.277      1089.52     83.84491     167.2914     334.4829      1.560     4.71     991.6157     58.95806     140.7256         8     1.351     0.466 -57.39   0
        92    206.6175    886.5111 307.8245519  +6.3063363     2069.935     3275.003     3304.703     83.57916     167.0252     334.3831      1.696     4.42      1014.32     58.95806     309.4515        19     1.542     0.763 -51.06   0
        93     80.4044    887.0499 307.8769500  +6.3018753     1633.083     2292.028     2710.821     83.17893     167.0918     334.1169      1.584     3.64     1014.082     58.95806     259.9698        13     1.282     0.615 -37.23   0
        94    345.3662    882.6888 307.7670575  +6.3125681     892.3383     1492.414     2126.137     83.97747     167.2248     334.4829      1.818     5.52     1014.102     58.95806     141.8414        11     1.414     0.657 -45.25   0
        95    798.1473    882.1414 307.5790231  +6.3279361     619.6413     754.3853      567.754     83.84491     167.2914     334.4829      1.351     4.54      996.173     58.95806     95.99225         7     1.006     0.581 -74.42   0
        96    660.9754    880.6066 307.6360474  +6.3239896     6861.861     10806.72      11187.8     83.31255     167.1583     334.3166      1.654     4.28     1001.714     58.95806     991.6129        34     1.725     0.897 -46.65   0
        97    240.1617    882.9608 307.8107410  +6.3089279     623.9119      933.892     896.1629     83.57915     167.2248     334.3499      1.608     5.17     1014.347     58.95806     134.2325         8     1.196     0.630 -30.94   0
        98     21.1218    878.8940 307.9018464  +6.3032501     1165.392     1942.909     2190.769     83.57915     167.4907     334.5162      1.813     6.19     1014.083     58.95806     161.4231        16     1.447     0.803 -52.86   0
        99    898.7339    876.9583 307.5374196  +6.3334310     2710.962     4286.216       5062.8     83.84491     167.2248     334.5494      1.686     4.45     992.8868     58.95806      431.762        20     1.609     0.728 -49.52   0
       100     34.1013    877.2463 307.8965120  +6.3043668     1090.256      1635.46     1676.859     83.84491     167.1583     334.6824      1.629     5.15     1014.067     58.95806      138.845        10     1.192     0.629 -48.00   0
       101    344.0428    873.7466 307.7679096  +6.3162159     15466.71     24541.34     26378.88     83.84491     167.2914     334.4829      1.669     4.22     1014.108     58.95806      2357.33        46     1.770     0.965 -47.61   0
       102     79.4838    874.8329 307.8777466  +6.3068886     2217.969     3375.205     3343.589     83.84491     167.0918     334.4164      1.726     0.97      1014.06     58.95806     988.2395        17     1.457     0.904 -13.67   0
       103    215.0297    873.3536 307.8215039  +6.3120513     1218.563     1818.911     1805.563     83.31255     167.4243     334.3831      1.577     5.41     1014.354     58.95806     179.5327        11     1.236     0.668 -47.76   0
       104    394.4139    873.0729 307.7470123  +6.3181820     663.5923     1057.863     767.3826     83.31255     167.0252     334.2834      1.749     4.38     1011.314     58.95806     109.3757         7     1.067     0.535 -61.63   0
       105    421.6704    865.0139 307.7359644  +6.3224226     925.3297     1607.342     1666.832     83.31255     167.0918     334.3831      1.832     4.72     1009.273     58.95806     158.4974         8     1.362     0.494 -40.46   0
       106    107.2078    864.5749 307.8665807  +6.3120555     1645.136     2389.834     2545.081     83.44596     167.1583     334.3166      1.624     4.28     1014.111     58.95806     277.9807        16     1.459     0.690 -45.75   0
       107    675.0038    861.8181 307.6308544  +6.3322162     883.8025     1526.903     1889.691     83.44596     166.8253     334.2834      2.190     6.33     1000.445     58.95806     196.2601        12     2.227     0.506 -61.28   0
       108    502.2382    861.2813 307.7026284  +6.3266611     659.3509     786.0579     837.8803     83.84491     167.3578     334.4164      1.442     3.40     1007.163     58.95806     126.0272         5     0.950     0.353 -46.41   0
       109    888.9193    858.6935 307.5421106  +6.3406455     2073.567     3021.533     3069.749     83.57915     167.5571     334.5494      1.566     4.14     992.5869     58.95806     307.1215        18     1.487     0.717 -51.12   0
       110    859.6675    858.1057 307.5542801  +6.3399129     1974.502     3076.251     3180.202     83.71214     167.4907     334.5162      1.554     4.08      993.426     58.95806     319.1858        16     1.435     0.667 -46.31   0
       111    823.2101    857.3703 307.5694474  +6.3390005     2953.225     4470.805     5021.062     83.31256     167.0918     334.3166      1.634     4.24     994.7256     58.95806     456.7506        22     1.635     0.750 -45.32   0
       112     90.8543    857.8320 307.8736010  +6.3142902     2266.345     3751.504     3957.483     83.71214     167.3578     334.4497      1.796     4.66     1014.063     58.95806     332.6309        22     1.681     0.781 -43.77   0
       113    559.0975    848.9667 307.6794285  +6.3336481     318193.4     501957.2     537343.9     83.84491     167.1583     334.6159      1.669     4.58     1004.336     58.95806     50653.96       171     1.938     1.196 -47.85   4
       114    403.4355    851.5223 307.7439940  +6.3273824     7256.022     11452.43     12219.23     83.71214     167.3578     334.5162      1.714     4.15     1009.941     58.95806     1158.559        35     1.752     0.897 -43.91   0
       115    646.5339    852.2120 307.6430031  +6.3352314     993.2626     1372.045     876.8195     83.31256     167.0918     334.3831      1.350     4.44     1001.214     58.95806     149.7277         9     1.085     0.598 -57.32   0
       116    346.6201    849.9409 307.7676445  +6.3261316     11564.31     18261.73     19657.75     83.44596     167.1583     334.2834      1.660     4.22     1013.489     58.95806     1753.028        38     1.790     0.877 -45.95   0
       117    664.9573    846.3331 307.6355493  +6.3382744     3416.737     5076.542     5196.524     83.84491     167.2248     334.5494      1.603     4.14     1000.034     58.95806     551.4248        25     1.739     0.780 -49.57   0
       118    897.3668    845.0205 307.5390619  +6.3465729     5263.489     8124.362     9343.938     83.31255     167.0918     334.3166      1.617     4.26     991.7636     58.95806     843.6556        30     1.621     0.879 -48.24   0
       119    639.8265    840.1829 307.6461947  +6.3399741     3186.072     5025.986     5504.146     83.44596     167.0252     334.3831      1.679     3.99     1000.938     58.95806     527.2562        25     1.714     0.793 -46.52   0
       120    828.0002    839.6085 307.5680559  +6.3464944     1609.194     2430.909     2220.374     83.17893     166.9586     334.2834      1.530     3.78     993.8958     58.95806     285.4517        14     1.293     0.629 -42.78   0
       121    631.9976    836.1305 307.6495831  +6.3413857     1961.218     3801.024     4835.735     83.31255     166.8919     334.2834      2.256     8.16     1001.137     58.95806      306.348        26     2.534     0.734 -58.18   0
       122    955.5004    838.0118 307.5151513  +6.3514042     747.6318     1160.066     1165.217     83.57915     167.0252     334.2501      1.879     4.61      989.285     58.95806     166.4838        10     1.425     0.658 -40.18   0
       123    916.2822    832.8728 307.5316139  +6.3522193     3183.555     4853.854     4926.586     84.10983     167.6235     334.5162      1.547     4.48     990.6998     58.95806     509.0853        23     1.512     0.800 -47.02   0
       124    326.2436    833.9130 307.7766497  +6.3320665     911.7809     1316.357     1239.202     83.84491     167.1583     334.4829      1.716     5.10     1013.366     58.95806     160.4276         7     1.119     0.657 -50.30   0
       125    374.5096    828.8231 307.7567754  +6.3357858     2372.626     4055.202     3878.224     83.84491     167.0918     334.3499      1.821     4.63     1011.016     58.95806      372.782        24     1.671     0.864 -45.33   0
       126    510.8607    818.5471 307.7004905  +6.3445947     2894.144     4863.468     5033.112     83.84491     167.2248     334.4829      1.764     4.46     1005.201     58.95806     430.5982        26     1.688     0.928 -43.02   0
       127    855.1943    817.8237 307.5574939  +6.3563966     1044.397     1619.375     2273.121     83.31255     167.0252     334.3166      1.431     5.69     991.9718     58.95806     149.1828        13     1.520     0.600 -47.13   0
       128    557.5228    814.7897 307.6812363  +6.3477073     5713.994      9130.76     9921.867     83.44597     166.8919     334.3166      1.700     4.03     1003.402     58.95806     960.5202        33     1.723     0.885 -45.48   0
       129    564.1315    814.2978 307.6785080  +6.3481314     1238.719     2004.251     2283.276     83.84491     167.4243     334.4497      1.779     5.21      1003.13     58.95806     187.3149        16     1.583     0.758 -55.36   0
       130    892.9614    812.9941 307.5419693  +6.3596501     1363.348     2074.902     2260.895     82.91105     167.0252     334.2168      1.658     4.63     990.5336     58.95806     210.5681        15     1.338     0.864 -52.12   0
       131    475.3961    813.8329 307.7153798  +6.3453542     1509.944     2415.838     2072.556      83.0451     167.1583     334.2168      1.757     4.87     1006.174     58.95806     238.8617        17     1.390     0.866 -45.40   0
       132    117.1502    812.9518 307.8642017  +6.3337042     1412.428     2256.489     2399.353     83.84491     167.1583     334.4829      1.624     4.12     1014.139     58.95806     243.8649        14     1.340     0.695 -50.73   0
       133    692.8698    812.3173 307.6251028  +6.3532523     712.7509     966.9617       992.28     84.10983     167.5571     334.5162      1.163     4.32     997.2026     58.95806     140.6612         7     1.244     0.428 -44.71   0
       134    528.2368    808.6837 307.6936065  +6.3492487     18688.51     29529.43     30875.68     83.84491     167.2248     334.4164      1.694     4.31      1004.31     58.95806     2874.787        52     1.822     0.985 -48.40   0
       135    369.4852    810.4545 307.7594835  +6.3432018     687.5304     798.2811     1012.652     83.84491     167.2914     334.6492      1.176     3.69     1010.634     58.95806     120.4153         6     0.954     0.410 -70.64   0
       136    174.5622    808.4656 307.8405091  +6.3374846     696.8835     942.3045     737.4205     83.71214     167.2248     334.5494      1.612     4.67     1014.284     58.95806     85.98767         7     0.902     0.686 -70.83   0
       137    941.8380    806.8105 307.5218755  +6.3638324     3827.342     5917.562     5741.303     83.17893     167.0918     334.1835      1.572     4.23      988.561     58.95806     589.6587        27     1.579     0.881 -44.36   0
       138     63.1455    805.0073 307.8869005  +6.3351696     442.6784     1061.021     1035.245     83.31255     167.0252     334.1502      2.253     4.35     1014.351     58.95806     116.9966         6     1.540     0.349 -16.89   0
       139     38.7987    798.9763 307.8972169  +6.3368413      1355.09     2130.622      2301.85     83.44596     166.9586     334.2501      1.581     4.83     1014.564     58.95806     225.4453        15     1.459     0.775 -51.81   0
       140    320.7875    797.3499 307.7801530  +6.3469803      3002.21     4589.932     4710.396     83.17894     167.2248     334.1835      1.605     3.85     1012.502     58.95806     454.4744        23     1.611     0.794 -49.58   0
       141    786.3710    793.2047 307.5869098  +6.3642659      52880.7     82016.04     87497.12     83.31256     167.0918     334.2834      1.659     4.21     993.6936     58.95806      8485.14        73     1.825     1.021 -46.39   0
       142     20.5723    795.8097 307.9048942  +6.3375359      2009.22     3030.145     2451.065     83.44596     167.0918     334.3499      1.600     4.22     1014.681     58.95806     298.3177        17     1.273     1.007 -47.31   0
       143    429.3046    792.1903 307.7352553  +6.3527471     811.5168     1173.904     1289.638     83.57915     166.8919     334.2501      1.582     4.66     1006.699     58.95806     137.2083         8     1.083     0.569 -59.19   0
       144    243.5284    791.0786 307.8124541  +6.3469784     4836.151     8168.017     11075.32     84.10983     167.5571     334.4497      2.157     4.52     1013.928     58.95806     667.8212        31     1.635     1.035 -50.91   0
       145    263.3185    791.8580 307.8042081  +6.3473206     882.2933     1900.093     3342.449     83.97747     167.2914     334.5162      3.187     5.48     1013.883     58.95806       113.58        10     1.081     0.785  -7.56   0
       146    911.6273    788.4391 307.5350422  +6.3704113     8315.905     12620.23     13710.75     83.44597     167.0918     334.3166      1.634     3.81     988.8603     58.95806     1359.981        33     1.667     0.860 -47.83   0
       147    714.6010    787.8582 307.6169010  +6.3640775     20345.22     32503.81     35282.89     83.17893     166.8919     334.1502      1.679     4.17     995.8588     58.95806     3242.716        54     1.785     1.030 -46.81   3
       148    708.3165    784.3265 307.6196304  +6.3653259     84502.16     131903.2     141396.8     83.97747     167.6235     334.5162      1.682     4.16     995.9005     58.95806     12720.21        82     1.860     1.051 -47.52   3
       149    353.2618    785.2059 307.7670758  +6.3530832      19016.4      30908.6     33182.45     83.17894     167.0918     334.2501      1.751     4.26     1010.258     58.95806     2678.944        51     1.843     1.011 -46.52   0
       150    258.0640    785.7838 307.8065962  +6.3496523     814.6302     1968.125     4583.069     83.31255     167.2248     334.3499      5.865     6.69     1013.702     58.95806     100.2493        11     1.617     0.776  47.13   1
       151    415.1351    783.0302 307.7414503  +6.3560547     20528.24     33279.71     35461.09     83.57915     167.4243     334.4164      1.716     4.14     1006.849     58.95806      3097.01        56     1.838     1.043 -44.85   0
       152    402.6674    785.3601 307.7465500  +6.3546750     1401.656     2268.339     2472.109     83.71214     167.2248     334.5827      1.810     4.22     1007.567     58.95806     216.3069        16     1.348     0.754 -45.11   0
       153    243.2976    769.4978 307.8132808  +6.3558812     768047.9      1878048      2151658     83.84491     167.8224     334.3166      2.451     7.07     1013.338     58.95806     63667.31       590     2.644     1.972 -51.07   4
       154    642.2396    784.2863 307.6470779  +6.3631348     886.6881     1421.002     1917.694     83.84491     167.2914     334.4829      1.865     5.38     998.2131     58.95806     145.3472        10     1.208     0.676 -33.57   0
       155    952.2855    781.8265 307.5183761  +6.3744967     2143.293     3432.779     3464.035     83.97747     167.0252     334.3499      1.727     5.61     987.1203     58.95806     285.8523        18     1.527     0.827 -43.95   0
       156    908.5597    779.9181 307.5366031  +6.3738275     6480.909     9757.771     10363.52     83.84491     167.3578     334.4164      1.592     3.98     988.5941     58.95806     1106.206        31     1.651     0.834 -46.07   0
       157    881.5253    780.9595 307.5477975  +6.3724963     614.7265     764.1397      361.869     83.71214     167.2914     334.5162      1.366     3.69     989.5878     58.95806      126.292         6     1.186     0.330 -38.65   0
       158    649.0678    778.9497 307.6444217  +6.3655665     6075.704     9614.624     10772.85     83.71214     167.1583     334.4497      1.677     4.09     997.7149     58.95806     969.8981        34     1.782     0.890 -47.17   0
       159    437.5457    777.2545 307.7323372  +6.3591901      1755.29         2450     2382.051     84.10983     167.2914     334.4829      1.614     5.11     1005.936     58.95806      218.773        14     1.288     0.753 -40.86   0
       160    162.8042    776.6659 307.8464703  +6.3502196      669.855     1077.764     1212.659     83.17894     167.0252     334.2168      1.867     4.58     1013.945     58.95806     128.8992         6     0.928     0.642 -61.94   0
       161    876.8318    770.7390 307.5500911  +6.3765599     798.2173      1016.32     905.7433     83.57915     167.3578     334.4164      1.442     4.85     989.3937     58.95806     138.2612         8     1.275     0.523 -31.97   0
       162    601.9113    771.1521 307.6642721  +6.3672099      831.345     1166.022     1213.905     83.84491     167.1583     334.5827      1.357     3.15     999.3844     58.95806     127.2045         7     0.828     0.654 -62.38   0
       163    128.3328    769.9631 307.8610148  +6.3518294     1027.807     1932.102     1727.998     83.71214     167.2914     334.5494      1.714     5.95     1013.791     58.95806     146.6647        15     1.649     0.629 -41.17   0
       164    684.0405    769.1331 307.6302262  +6.3707884     2206.622      3303.43     3771.347     83.71214     167.2248     334.5827      1.591     4.31      996.136     58.95806     344.1865        16     1.442     0.672 -44.86   0
       165    418.0242    765.7371 307.7408349  +6.3632918     49148.38     80194.67     86524.46     83.44596     167.2914     334.3831      1.738     4.10      1006.12     58.95806     7067.573        75     1.902     1.097 -47.00   0
       166    153.3781    769.8924 307.8506149  +6.3526998     794.0644       1231.7     933.1257     83.84491     167.0918     334.3166      1.810     4.97     1013.837     58.95806     130.6417         8     1.195     0.585 -53.49   0
       167    535.8041    764.6979 307.6919487  +6.3676638     6405.576     10392.35      10971.7     83.57915     166.9586     334.1502      1.735     4.42     1002.314     58.95806     944.5378        34     1.735     0.916 -42.49   0
       168    452.4880    763.5004 307.7265957  +6.3653695     4273.555     6776.061     7626.592     83.84491     167.7561     334.4497      1.766     3.96     1005.128     58.95806     622.1597        29     1.608     0.938 -46.68   0
       169    224.3113    763.3265 307.8213757  +6.3577922     933.0443     2694.983     5659.845     83.84491     167.5571     334.5162      5.763     8.50      1013.47     58.95806     120.2902        22     2.359     0.856  62.59   1
       170    780.9040    761.4069 307.5902518  +6.3772131     11230.83     17260.25     18210.39     83.57915     166.9586     334.2834      1.613     4.05     992.3686     58.95806     1750.855        38     1.743     0.872 -46.13   0
       171     10.2256    757.7719 307.9104825  +6.3528932     1027.917     1770.967     1783.204     83.31255     167.0918     334.3499      1.607     5.33     1014.197     58.95806     160.3638        12     1.475     0.563 -45.31   0
       172    449.1602    756.6424 307.7282097  +6.3680898     2148.916     3395.623     3894.069     83.57915     167.2914     334.3499      1.611     4.40     1004.987     58.95806     307.9628        18     1.510     0.752 -47.85   0
       173    146.9307    753.7027 307.8538416  +6.3591679     2676.659     4794.275     5384.792     83.71214     167.4907     334.4829      1.898     4.77     1013.611     58.95806      336.696        27     1.793     0.899 -55.39   0
       174    802.6581    755.5295 307.5814135  +6.3803659     1128.152     1812.504     1787.171     83.97747     167.2914     334.4829      1.740     3.56     991.1725     58.95806     200.3253        10     1.103     0.614 -48.89   0
       175    138.8345    753.3173 307.8572173  +6.3590551     10476.56      17084.1     18857.18     83.84491     167.2914     334.4164      1.752     4.21     1013.591     58.95806     1519.718        42     1.798     0.984 -47.28   0
       176    926.3765    749.9433 307.5302107  +6.3867983     6457.475     9786.101     10084.68     83.44596     167.2914     334.2834      1.567     4.09     986.4813     58.95806     1084.983        28     1.581     0.842 -46.91   0
       177    130.7669    750.6753 307.8606578  +6.3598749     2773.824     4727.478      5246.07     83.71214     167.2914     334.4497      1.795     4.19     1013.558     58.95806     381.0793        23     1.541     0.897 -47.94   2
       178    130.9465    744.5389 307.8607912  +6.3624146     1844.726     3148.592     4185.584     83.84491     167.2248     334.4497      2.045     4.11     1013.483     58.95806     252.3809        19     1.369     0.993 -61.14   3
       179    975.6099    749.9519 307.5097593  +6.3884352     1504.656     2166.333     2664.036     83.31255     167.1583     334.1502      1.976     5.31     985.6395     58.95806     261.6381        15     1.523     0.656 -41.26   0
       180    681.9703    747.4421 307.6318175  +6.3796756     1554.949     2545.715     2229.478     83.44596     167.2248     334.3166      1.569     4.64     995.6928     58.95806     242.9498        17     1.556     0.748 -46.23   0
       181    568.9424    746.8554 307.6787865  +6.3761396     2062.844     3550.872     3723.156     83.97747     167.3578     334.5162      1.861     5.64     999.8624     58.95806     296.6348        22     1.730     0.821 -47.72   0
       182    416.7753    746.4802 307.7420047  +6.3712011     1057.061     1974.624     2045.336     83.57916     167.0918     334.4497      1.941     5.51     1005.447     58.95806     183.7939        13     1.629     0.738 -46.46   0
       183    700.1522    745.1238 307.6243433  +6.3812402     616.2623     757.8444     575.0086     83.71214     167.3578     334.4497      1.294     4.11     995.0065     58.95806     102.0848         6     1.153     0.419 -62.33   0
       184    950.1537    741.3835 307.5206217  +6.3911251     3015.634     4834.265     5118.302     83.31255     167.1583     334.2501      1.649     4.40     985.7057     58.95806     446.7372        19     1.512     0.702 -43.64   0
       185    920.7466    741.9091 307.5328195  +6.3899281     2993.875     4371.092     4644.791     83.71214     167.0918     334.6159      1.555     4.13     986.3071     58.95806     493.7039        21     1.648     0.751 -46.70   0
       186    980.9394    741.1838 307.5078403  +6.3922332     1739.407     2641.231     2389.071     83.31255     167.2248     334.2168      1.417     3.81      985.434     58.95806     282.7588        13     1.284     0.651 -44.03   0
       187    673.1209    741.1227 307.6357065  +6.3819892     1298.106     2057.535     2594.668     84.10983     167.5571     334.6159      1.608     4.49     995.8871     58.95806     213.5823        12     1.267     0.681 -50.51   0
       188    820.3552    739.3879 307.5746061  +6.3876214     1164.574     1590.931     1083.671     83.31256     167.0918     334.1835      1.498     4.34      989.888     58.95806     186.3275        12     1.342     0.615 -45.76   0
       189    895.6062    737.1579 307.5434225  +6.3910519     719.0035     1033.397     1386.246     83.17893     166.9586     334.1835      1.454     5.11      987.241     58.95806     112.7972         8     1.139     0.647 -41.30   0
       190    245.4827    736.2224 307.8135002  +6.3696938     1655.601     2778.409     3499.649     83.57916     166.9586     334.3831      1.822     4.77     1012.373     58.95806     233.7164        20     1.644     0.807 -44.09   0
       191    912.2073    730.4495 307.5367523  +6.3943753     1294.858     1840.662     1798.116     83.31256     167.0252     334.0836      1.481     4.48     986.3234     58.95806     195.7758        14     1.390     0.647 -50.40   0
       192    938.4948    731.5164 307.5257967  +6.3948109     1300.835     1922.866     1590.629     83.71214     167.6898     334.6159      1.706     5.90     985.4938     58.95806     184.0348        16     1.637     0.688 -32.31   0
       193    965.0807    729.4139 307.5148237  +6.3965649     2383.762     3686.722     4162.049     83.44596     167.0252     334.2834      1.637     4.23     985.1336     58.95806     402.8998        20     1.522     0.788 -55.32   0
       194    161.3906    730.8533 307.8486102  +6.3690878     602.0292     879.2337     801.3763     83.17893     167.2248     334.1835      1.399     3.37     1013.162     58.95806     100.3474         5     0.762     0.431 -68.68   0
       195    684.6647    728.1266 307.6313497  +6.3877411     962.4421     1594.462     1881.376     83.97747     167.2914     334.4829      1.892     5.09     995.0179     58.95806     158.4997        14     1.604     0.724 -38.79   0
       196    405.3246    724.0615 307.7475191  +6.3800742     608.1581     1027.094     960.1081     84.10983     167.2914     334.4829      1.689     4.90     1005.167     58.95806     93.81244         6     1.153     0.667 -53.45   0
       197   1006.7325    722.8072 307.4977437  +6.4006802     1747.951     2729.654     2725.879     83.31255     167.0252     334.3166      1.631     4.20     984.3117     58.95806     265.2286        15     1.326     0.719 -47.58   0
       198    632.8535    722.8621 307.6530489  +6.3881835     541.5222     961.0357      1140.43     83.84491     167.2248     334.4497      2.024     5.51     996.3066     58.95806     105.4845         9     1.577     0.543 -45.08   0
       199    475.5411    724.0795 307.7183523  +6.3824183      616.632      821.697     545.6146     83.97747     167.2914     334.4164      1.426     4.11     1003.351     58.95806     99.22449         5     0.766     0.629 -13.45   0
       200    808.2602    720.8556 307.5802544  +6.3948700     1103.749     1792.007     1683.269     83.97747     167.2914     334.5162      1.610     5.45     989.6973     58.95806     165.2136        11     1.392     0.601 -44.60   0
       201    894.4500    718.4826 307.5445313  +6.3987246     1574.813     2322.243     2074.005     83.84491     167.2914     334.5162      1.546     3.68     986.8795     58.95806     250.0068        15     1.223     0.807 -52.03   0
       202    868.4454    713.8054 307.5554910  +6.3997888     933.7406     1465.384     1382.644     83.17894     166.9586     334.1169      1.528     3.96     987.9868     58.95806     150.8433         9     1.040     0.688 -31.08   0
       203    851.4346    709.8217 307.5626914  +6.4008664     1480.633     2280.882     2986.465     83.31256     167.0918     334.2168      1.611     4.45     988.3701     58.95806     263.8595        13     1.413     0.594 -45.71   0
       204     50.6986    708.6501 307.8953394  +6.3745358     2243.836     3705.778     3806.749     83.84491     167.2914     334.6824      1.785     4.66     1013.452     58.95806     343.5331        21     1.584     0.816 -45.15   0
       205    114.0344    706.2500 307.8691140  +6.3776555      684.894      1566.74     1763.171     83.71214     167.2914     334.3831      2.421     4.91     1012.904     58.95806     106.9619         7     1.377     0.497 -70.87   2
       206    663.1359    697.2099 307.6413353  +6.3997875     5766.573     9383.844     9968.862     83.31255     167.0918     334.3166      1.708     4.17     994.6468     58.95806     909.2302        31     1.684     0.897 -47.69   0
       207    609.5293    696.8097 307.6636166  +6.3981609     1293.447     2255.394     2058.576     83.31256     166.8919     334.3166      1.700     4.53     996.5361     58.95806     235.0413        14     1.481     0.597 -49.29   0
       208    531.5566    697.7332 307.6959746  +6.3951716     447.1429     675.4955     496.1023     83.84491     167.2248     334.5162      1.526     4.96     1000.579     58.95806     89.86224         5     1.322     0.527 -47.34   0
       209    520.2192    697.2493 307.7007003  +6.3949920     672.7158      884.215     340.1751     83.31255     167.3578     334.3166      1.491     4.53     1001.023     58.95806     132.8239         7     1.101     0.530 -63.11   0
       210    126.1098    693.2394 307.8645396  +6.3834331     3427.574     5204.043     5425.831     83.84491     167.2248     334.5162      1.616     3.92     1012.464     58.95806     478.8552        22     1.483     0.823 -46.74   0
       211   1000.0186    692.5637 307.5015493  +6.4129445     2532.997     3962.532     3580.114     83.31255     167.0918     334.2501      1.630     4.28     982.5698     58.95806     342.6869        21     1.475     0.813 -47.30   0
       212    636.8324    693.1281 307.6523993  +6.4005938     1980.357     3092.098       3412.1     83.71214     167.2914     334.4497      1.682     4.27     995.4767     58.95806     273.5499        17     1.353     0.752 -38.69   0
       213    312.5667    693.5581 307.7870802  +6.3895599     652.0935     1108.821     1218.096     83.57916     167.2914     334.3166      2.052     5.30     1007.466     58.95806     108.8519         7     1.441     0.550 -29.51   0
       214    779.9645    689.3382 307.5930701  +6.4069395     19070.55     29777.64     31858.55     83.84491     167.2914     334.4497      1.645     4.11     989.9715     58.95806     2996.603        48     1.752     0.963 -46.21   0
       215    909.9281    689.0660 307.5390915  +6.4113870     3454.865     5340.319     5458.476     83.84491     167.3578     334.5494      1.560     4.29     985.4586     58.95806     548.8109        26     1.580     0.842 -42.72   0
       216    479.0799    689.5739 307.7180484  +6.3967842     1309.394      1974.53     1299.532     83.71214     167.0918     334.4829      1.652     4.26     1002.393     58.95806     203.4095        14     1.336     0.701 -44.46   0
       217    325.2260    689.2242 307.7819685  +6.3917739     676.3923     1246.845     1227.652     83.31255     167.0918     334.3166      1.681     5.47     1006.639     58.95806     118.1271         8     1.461     0.579 -51.39   0
       218    550.7600    688.8434 307.6882978  +6.3994847     490.2952     626.1382     609.6485     83.57915     167.2914     334.3499      1.294     3.43     999.6019     58.95806     85.81775         5     0.989     0.343 -47.54   0
       219    507.7979    689.0430 307.7061372  +6.3979647     866.8437       1311.2     1149.339     83.17893     166.8919     334.1502      1.460     4.57     1001.309     58.95806     142.2692         8     1.018     0.583 -29.72   0
       220    253.4526    683.1003 307.8119889  +6.3918949     5472.782     9070.161     9556.852     83.84491     167.2914     334.7156      1.809     4.39     1009.518     58.95806     732.8722        33     1.762     0.949 -47.75   0
       221    660.4650    682.1891 307.6429514  +6.4059004     6433.597     10436.78     11056.91     83.31256     167.0918     334.3166      1.734     4.37     994.2592     58.95806      924.682        32     1.699     0.905 -48.17   0
       222    642.3604    683.8107 307.6504174  +6.4046257     895.8512     1417.235     1564.477     83.17894     167.0918     334.2168      1.700     4.87     995.0557     58.95806     161.0347         9     1.431     0.469 -44.70   0
       223    355.0823    682.4459 307.7697962  +6.3955735     604.0562     995.4268     1286.156     83.84491     167.2914     334.4829      1.602     3.75     1005.002     58.95806     111.9303         6     1.171     0.345 -48.94   0
       224    920.1430    675.0097 307.5353211  +6.4175315      1327.75     2118.865     2065.127     83.17894     167.2248     334.1835      1.549     4.13     984.6833     58.95806     223.3289        15     1.427     0.690 -48.67   0
       225    732.2473    670.5486 307.6135253  +6.4131048     3517.674     5626.735     5942.298     83.97747     167.1583     334.5162      1.793     4.48      991.405     58.95806     550.7035        30     1.705     0.947 -52.06   0
       226    687.5852    670.8482 307.6320681  +6.4114893     863.6318     1260.683     1418.693     83.17893     167.2248     334.1835      1.618     5.58     992.8748     58.95806     128.6165        10     1.399     0.626 -43.02   0
       227    998.5244    667.1843 307.5030233  +6.4233742     8752.557     13100.95     13492.91     83.31256     167.0252     334.3499      1.599     4.04     981.1483     58.95806      1420.11        32     1.679     0.814 -45.00   0
       228    937.1617    667.5535 307.5285021  +6.4211775     2249.375     3372.447     3477.156     83.71214     167.2248     334.3166      1.526     4.40     983.7064     58.95806     315.5013        18     1.629     0.623 -45.66   0
       229     17.5923    667.1976 307.9104973  +6.3905378     1736.354     2975.785     3689.382     83.17894     166.9586     334.2834      1.977     4.45      1013.44     58.95806     227.9378        18     1.341     0.932 -21.40   0
       230     75.9865    662.0319 307.8864176  +6.3946340     22633.87     38246.59     41261.64     83.31255     167.0252     334.4164      1.801     4.24     1012.707     58.95806     3177.952        60     1.856     1.115 -47.29   0
       231    537.0519    662.9621 307.6948662  +6.4097125     1899.057     2765.281     2454.238     83.57915     167.3578     334.4829      1.544     4.39       999.81     58.95806     251.4213        19     1.486     0.774 -48.91   0
       232    505.8209    660.2787 307.7079302  +6.4097753     1149.873     1915.454     1711.782     83.44596     166.9586     334.4829      1.678     6.09     1000.698     58.95806     148.9429        15     1.457     0.729 -41.69   0
       233    926.9627    659.0458 307.5330252  +6.4243505     984.9146     1430.633     1487.913     83.57915     167.2248     334.3831      1.650     4.68     983.7527     58.95806     170.4439        11     1.461     0.616 -45.93   0
       234    545.5360    657.5141 307.6915259  +6.4122459     768.5404     1107.056     1486.635     83.97748     167.4243     334.4829      1.732     3.90     999.4579     58.95806     113.8277         8     0.900     0.719 -54.22   2
       235    547.6648    655.3428 307.6907149  +6.4132136     656.2139     948.7478     1430.692     83.97747     167.2248     334.5162      1.464     3.49     999.3207     58.95806     92.47528         5     0.753     0.468 -13.08   3
       236    721.8395    654.1968 307.6184000  +6.4195090     3194.279     5269.106     5514.652     82.91105     167.0252     334.1835      1.766     4.11     991.7296     58.95806     495.7849        26     1.674     0.862 -44.16   0
       237    743.9083    652.4883 307.6092899  +6.4209515     3769.314      5635.58      5782.25     83.84491     167.7561     334.6159      1.654     4.31     990.9607     58.95806     516.0266        23     1.604     0.778 -42.96   0
       238    575.4476    650.2412 307.6793461  +6.4162495     3018.979     4736.897     5277.133     83.71214     167.2914     334.3499      1.694     4.57     997.8181     58.95806     427.8279        25     1.643     0.892 -44.20   0
       239    411.2780    651.1494 307.7475117  +6.4103790      1176.88     1806.674     1714.727     83.84491     167.3578     334.4829      1.626     4.81     1003.005     58.95806     157.8179        11     1.180     0.620 -37.80   0
       240    235.9597    649.8467 307.8203814  +6.4050382      1475.26     2420.995     2678.567     83.71214     167.2914     334.2834      1.898     5.68     1008.546     58.95806     211.6803        19     1.718     0.747 -48.20   0
       241   1016.7579    648.6306 307.4960724  +6.4316425     4955.604     7471.572     7586.059     83.44597     167.2248     333.7838      1.582     4.01     979.7095     58.95806     785.6823        28     1.618     0.834 -47.65  16
       242    319.6768    649.1184 307.7856309  +6.4081473     1263.186     1956.525     1598.258     84.10983     167.5571     334.6159      1.675     5.70     1005.089     58.95806     162.7946        15     1.448     0.719 -44.31   0
       243    982.1087    647.5679 307.5105023  +6.4309274     8041.793     12154.33     12517.04     83.97747     167.0918     334.5162      1.586     3.96      981.081     58.95806     1242.313        30     1.614     0.840 -42.90   0
       244    536.3770    647.8210 307.6956579  +6.4159417       486.27     577.6547     390.1801     83.57915     167.0918     334.4497      1.683     3.94     999.6392     58.95806     80.12598         6     1.214     0.366 -29.42   0
       245    701.9211    646.0047 307.6269506  +6.4222263     1027.569      1662.16     1587.305     83.44596     166.7586     334.2168      1.645     5.68     992.3745     58.95806     136.4651        12     1.361     0.668 -44.27   0
       246     93.7489    644.4036 307.8796376  +6.4025095     844.7316     1290.367     1644.523     83.17894     167.0252     334.0504      1.710     4.45     1011.777     58.95806     122.3864         8     1.211     0.514 -44.17   0
       247    140.7247    640.9443 307.8602422  +6.4055162     21565.44     35859.21     38072.12     83.71214     167.2248     334.4497      1.780     4.18     1010.952     58.95806     2820.231        56     1.837     1.089 -46.57   0
       248    427.5169    641.9330 307.7410777  +6.4147284     2628.506     4062.585     4387.183     84.10983     167.5571     334.5494      1.786     3.96     1002.377     58.95806     331.5291        21     1.398     0.921 -43.81   0
       249    808.6915    641.5043 307.5827480  +6.4276493     1083.429     1582.607      1515.26     83.84491     167.8224     334.4497      1.421     4.78     988.3287     58.95806     175.6508        11     1.381     0.524 -40.73   0
       250    976.9829    630.5394 307.5132044  +6.4377879     6608.368     11026.81     11914.02     83.44596     167.2248     334.2834      1.769     3.83     980.6034     58.95806     1125.715        44     1.618     1.243 -39.96   0
       251     21.4892    629.8064 307.9101479  +6.4061071     1090.872     1781.849      1613.45     83.31256     166.9586     334.2501      1.777     6.77     1013.386     58.95806     133.5002        15     1.451     0.895 -48.34   0
       252    570.6702    625.7686 307.6821569  +6.4261945     43291.07     70374.73     75931.77     83.71214     167.2914     334.4497      1.778     4.21      997.783     58.95806     6015.352        75     1.885     1.132 -46.32   0
       253    934.7454    627.3812 307.5308574  +6.4376846      639.214     1010.326     733.7527     83.31256     167.2914     334.2834      1.549     4.06     982.1228     58.95806     138.2682         7     1.022     0.515 -44.77   0
       254    529.8586    625.6934 307.6991131  +6.4248601     767.3461     1075.344     865.6031     83.71214     167.2914     334.6159      1.365     3.49     999.4428     58.95806     133.0105         6     0.739     0.648 -59.27   0
       255    178.2128    622.4228 307.8452981  +6.4144227     2549.073     4210.785     4280.805     83.57916     167.0918     334.3831      1.817     4.13     1009.627     58.95806     346.2944        27     1.574     1.034 -45.62   0
       256    981.7960    621.8726 307.5114963  +6.4415269     707.7546     879.0912      986.124     83.31255     166.8253     334.3166      1.345     5.06     980.0443     58.95806     116.0248         8     1.218     0.595 -24.19   0
       257     71.2944    616.5187 307.8899108  +6.4132681     1160.077      2207.75     2230.525     83.57916     167.5571     334.5827      1.977     6.36     1011.561     58.95806     160.5123        14     1.359     0.869 -50.57   0
       258     11.3924    611.3437 307.9149687  +6.4133905     1509.267      2658.66     2736.421     83.17894     167.1583     334.2501      1.941     6.39     1013.769     58.95806     192.1595        22     1.892     0.982 -31.48  16
       259    142.6470    604.5120 307.8606790  +6.4206233      1463.78     2055.739     1748.109     83.84491     167.1583     334.5494      1.616     5.31     1010.179     58.95806     239.6849        17     1.625     0.752 -45.43   0
       260    421.6169    602.4240 307.7448646  +6.4308440     759.1174     1330.225     1463.609     83.57916     167.1583     334.4164      1.823     5.56     1001.428     58.95806     119.1882         9     1.413     0.617 -46.47   0
       261    937.4037    602.1401 307.5306022  +6.4481955     610.4263     679.5771     706.0493     83.17893     167.1583     334.2168      1.045     2.06     981.1082     58.95806     124.4221         5     0.683     0.458  69.59   0
       262    613.9409    600.9975 307.6650177  +6.4378697     801.0501     1275.972     1470.774     83.17894     167.0252     334.1835      1.737     5.06     995.4288     58.95806     119.2546         8     1.023     0.707 -62.55   0
       263    467.9362    609.5344 307.7253825  +6.4294594     55446.71     91205.25     98272.17     83.84491     167.2914     334.4829      1.794     4.17     1000.149     58.95806     7291.423        77     1.912     1.144 -45.29   0
       264    313.5366    598.9591 307.7898795  +6.4286519     1890.775     3219.523     3925.731     83.84491     167.2248     334.5827      1.916     5.31     1003.405     58.95806     244.1143        23     1.677     0.914 -52.75   0
       265    465.2911    597.5331 307.7268870  +6.4343262     953.4359     1535.625     1941.038     83.84491     167.4243     334.5162      1.754     4.90     999.9739     58.95806     151.1837        10     1.263     0.677 -41.48   0
       266    739.9239    593.0370 307.6129492  +6.4453663     4956.479       7980.2      8398.73     83.71214     167.3578     334.5162      1.693     4.24     991.1095     58.95806     798.3611        28     1.662     0.836 -45.99   0
       267    793.5322    588.3494 307.5908363  +6.4490915     13119.52     20193.84     21481.42     83.71214     167.1583     334.4164      1.673     4.08     988.7403     58.95806     2027.657        38     1.742     0.895 -45.30   0
       268    535.4860    588.5520 307.6980300  +6.4403842     1007.476     1569.852     1877.017     83.84491     167.2248     334.4829      1.907     4.96     998.3448     58.95806     139.2622        13     1.205     0.802 -65.87   0
       269   1010.7643    589.0475 307.5005655  +6.4560456      1014.65     1235.336     633.2737     83.44596     167.2914     334.3831      1.412     4.82     977.1592     58.95806     181.9047         9     1.170     0.693 -43.35   0
       270    617.3768    586.5143 307.6640791  +6.4439647     2600.875     3978.279     4266.203     83.84491     167.0918     334.3499      1.670     4.32     995.4727     58.95806     404.6606        24     1.677     0.802 -48.64   0
       271    934.1310    582.9180 307.5326086  +6.4560235     998.2568     1638.188     1941.202     84.10983     167.5571     334.5162      1.620     6.17     980.7062     58.95806     142.3103        12     1.631     0.656 -48.77   0
       272    375.8782    580.1271 307.7646193  +6.4385177     813.1015     1412.126     1213.381     84.10983     167.5571     334.4829      1.671     5.45     1001.319     58.95806     105.0354         9     1.018     0.822 -35.98   0
       273    229.9567    579.8503 307.8252464  +6.4337377     1103.388     1915.677     2315.595     83.97747     167.2914     334.5162      1.890     6.79      1005.69     58.95806     132.3696        16     1.709     0.825 -32.73   0
       274    193.2357    580.9932 307.8404618  +6.4320330     758.3656     1245.908     2117.741     83.17893     167.0252     334.2501      1.745     4.39     1007.631     58.95806     123.6981         7     1.233     0.445 -45.61   0
       275    869.6508    571.5469 307.5597794  +6.4585690     2667.493     3975.211     3922.195     83.97747     167.1583     334.5162      1.553     4.09     983.9568     58.95806     401.2738        18     1.476     0.712 -43.61   0
       276    828.2252    569.1948 307.5770687  +6.4581583     2232.445     3593.833       4448.5     83.31255     167.0252     334.3166      1.745     4.71     986.5214     58.95806     362.7419        19     1.651     0.774 -51.11   0
       277    799.3970    564.8989 307.5891900  +6.4589702     2321.498     4102.024     4636.735     83.57915     167.0252     334.1502      1.968     4.92     988.2357     58.95806     367.7709        21     1.706     0.770 -46.20   3
       278    808.8832    560.2572 307.5854054  +6.4612034     146816.3     232379.7     248568.7     83.84491     167.2914     334.5494      1.683     4.06     987.5947     58.95806     21211.43       117     1.882     1.151 -46.11   2
       279    256.3276    564.0283 307.8148276  +6.4411555     6709.687     11012.96     10987.41     83.71214     167.2914     334.4497      1.751     4.14       1004.2     58.95806      850.249        40     1.790     1.050 -48.49   0
       280    742.2067    565.1986 307.6129393  +6.4569372     545.1664     1008.516     1855.414     83.17893     166.9586     334.2834      1.812     3.51     990.9958     58.95806     71.92822         5     1.022     0.347 -45.04   0
       281    190.5553    558.5533 307.8423358  +6.4412082     51641.36     86920.73     95937.35     83.84491     167.2248     334.4497      1.870     4.36     1007.085     58.95806     6820.828        90     1.993     1.234 -47.27   0
       282    738.6917    560.9457 307.6145430  +6.4585759     703.1935     1142.405      1698.68     83.71214     167.1583     334.6159      2.084     3.97     991.1395     58.95806     111.9568         7     1.065     0.635 -20.36   0
       283    114.6525    554.8002 307.8739939  +6.4402082     5393.641     9353.603     9669.678      83.0451     166.7586      334.017      1.845     4.24     1009.191     58.95806     750.0393        39     1.871     1.037 -40.68   0
       284    979.8400    552.3666 307.5146465  +6.4701616     1237.738     1943.858     2656.811     83.57915     167.0918     334.2834      1.732     4.37     976.8957     58.95806     194.2446        10     1.294     0.594 -53.82   0
       285   1000.4064    550.7272 307.5061571  +6.4715236     747.6631     1065.729     313.4467     83.44597     166.8253     334.3831      1.507     3.17      975.559     58.95806     161.1058         5     0.926     0.499 -51.81   0
       286    363.9437    545.6666 307.7707432  +6.4523463     14633.41     24603.34     26531.72     83.97747     167.2248     334.4497      1.816     4.06     1000.763     58.95806     2027.188        51     1.877     1.093 -47.22   0
       287    845.4098    547.4765 307.5706608  +6.4676993     4335.023      6679.74     6810.749     83.44597     166.8253     334.2834      1.650     4.52     985.3827     58.95806     683.3032        27     1.636     0.848 -43.35   0
       288    165.8927    544.7701 307.8530483  +6.4460710     1751.381     2944.086     2455.997     83.97747     167.0252     334.3831      1.776     4.40     1007.915     58.95806     252.7755        19     1.433     0.849 -38.68   0
       289    799.4419    540.8555 307.5899814  +6.4688994     5320.131     8308.669     8340.295     83.71214     167.2248     334.4829      1.667     4.16     987.9871     58.95806      799.255        32     1.775     0.853 -45.01   0
       290    530.3082    540.4671 307.7018054  +6.4600653     5800.664     9445.177     10297.33     83.71214     167.4243     334.5162      1.794     4.31     996.7564     58.95806     765.4293        35     1.760     0.951 -44.76   0
       291    240.8341    542.0986 307.8220068  +6.4496902     839.3243     1342.975     729.5029     83.84491     167.1583     334.6159      1.619     5.88     1004.126     58.95806     123.9055         8     1.344     0.724   9.67   0
       292    103.5267    541.5789 307.8790642  +6.4452932     736.5023     1154.718     1354.269     83.44597     167.0918     334.4164      1.553     5.39     1009.092     58.95806     121.5645         8     1.280     0.640 -50.71   0
       293    170.7930    541.3439 307.8511288  +6.4476502     636.5931     1201.105     1363.534     83.31256     167.1583     334.2168      1.728     4.29     1007.484     58.95806     126.7663         5     1.130     0.465   5.41   0
       294    388.3670    537.4705 307.7608743  +6.4565491     1212.109     2088.978     1980.439     83.71214     167.2914     334.5162      1.839     6.42     999.5724     58.95806     151.7471        15     1.456     0.795 -59.85   0
       295    177.3952    533.7795 307.8486425  +6.4509952     5805.646     9761.939     10151.97     83.44597     166.9586     334.2834      1.822     4.25     1006.869     58.95806     799.1001        37     1.833     0.998 -46.21   0
       296    574.8625    533.8506 307.6835191  +6.4642879     2108.634      3661.68     3931.781     83.84491     167.2248     334.5494      1.859     5.38     996.0348     58.95806     278.7227        22     1.573     0.889 -45.18   0
       297    272.5518    530.1854 307.8092340  +6.4556734     73986.42     127552.2     138737.3     83.17894     167.2248     334.1835      1.877     4.24     1002.252     58.95806     9522.641        92     1.961     1.251 -47.29   0
       298     49.0069    532.3893 307.9020241  +6.4472546      4335.27     7592.851     8197.021     83.31255     167.0918     334.3831      1.885     4.51     1009.333     58.95806     529.2098        36     1.747     1.066 -50.63   0
       299    454.1646    545.8327 307.7332570  +6.4553007     659.3347     1025.502     986.9335     83.44596     167.0252     334.2168      1.612     5.12     998.8675     58.95806     96.31842         8     1.258     0.590 -26.92   0
       300    815.7680    533.1638 307.5834578  +6.4726202     1338.828     1997.058     2698.041     83.44596     167.0252     334.2168      1.600     4.79     987.0156     58.95806     202.3192        12     1.375     0.590 -46.83   0
       301    561.7194    527.6548 307.6891886  +6.4664065      784.579     947.9475     1726.371     83.84491     167.2914     334.5162      1.375     3.77     996.0525     58.95806     125.9388         8     0.986     0.573 -66.22   0
       302    256.4598    525.3540 307.8160827  +6.4571283      1479.37      2635.94     3216.651     83.71214     167.2914     334.5827      1.966     6.31     1002.777     58.95806     170.6146        20     1.535     0.985 -37.45   0
       303    971.6315    524.1660 307.5190053  +6.4815325     1664.763      2399.38     1965.032     83.31255     167.0252     334.2168      1.619     4.42     976.8803     58.95806     228.5242        14     1.377     0.632 -48.26   0
       304    795.6157    522.6282 307.5921852  +6.4762979     15099.47     23849.13     25465.32     83.44597     167.0252     334.3831      1.715     4.06     988.1414     58.95806     2275.995        45     1.733     0.976 -45.62   0
       305    499.3038    521.0145 307.7153433  +6.4670595     34833.41     63461.05     70435.31     83.57915     167.0252     334.2501      2.004     4.25     997.2734     58.95806     4170.526        85     2.021     1.346 -38.82   0
       306    649.9634    519.4380 307.6528051  +6.4727502     938.7225     1616.839     2013.745     83.57915     167.1583     334.3166      2.271     5.75        994.6     58.95806     129.3753        12     1.669     0.559 -36.10   0
       307    659.2101    516.0673 307.6490772  +6.4744511     2530.642     4097.411     4746.849     83.31255     167.0918     334.3499      1.721     4.34     994.3149     58.95806     392.1978        24     1.709     0.823 -45.24   0
       308    211.5797    517.2704 307.8350011  +6.4589595     1734.979     3002.788         3468     83.44597     167.1583     334.4164      1.989     5.02     1004.359     58.95806     218.4565        18     1.393     0.894 -47.22   0
       309     47.7196    517.6526 307.9030591  +6.4532958     983.7726     1795.185     2092.664     83.84491     167.2914     334.5162      1.726     5.40     1009.191     58.95806     140.2281        11     1.351     0.610 -28.72   0
       310    669.5698    515.6951 307.6447858  +6.4749510     1364.796     2322.562     2663.578     83.97747     167.0252     334.4829      1.997     5.90     994.0565     58.95806     206.9035        15     1.552     0.734 -56.67   0
       311    721.3313    514.8461 307.6233097  +6.4770309     1126.593     1758.578     1903.189     83.84491     167.2248     334.4829      1.481     5.37     991.8751     58.95806     169.1572        11     1.326     0.613 -54.55   0
       312    396.7671    511.9864 307.7582467  +6.4673529     1422.671      2414.18     2342.698     83.44596     167.0252     334.3831      1.748     4.91     998.1544     58.95806     199.7068        16     1.369     0.818 -41.31   0
       313    328.4697    510.0519 307.7866856  +6.4658621     3349.988     5642.272     5288.241     83.71214     167.1583     334.4497      1.785     4.24     999.7253     58.95806     409.5712        28     1.678     0.961 -46.90   0
       314    143.6575    508.5531 307.8635133  +6.4602776     22288.19     37788.84     40389.22     83.84491     167.2914     334.6159      1.857     4.30     1006.993     58.95806     2921.214        59     1.881     1.154 -46.18   0
       315    508.5424    509.4056 307.7118974  +6.4721621      1774.02     3035.975     3003.591     83.31256     167.1583     334.1835      1.841     5.56     996.7252     58.95806     252.4896        22     1.812     0.778 -44.27   0
       316    871.6145    508.5863 307.5610835  +6.4846315     1460.873     2228.534       2472.8     83.71214     166.9586     334.4164      1.781     4.94      983.627     58.95806     215.4302        13     1.513     0.581 -40.20   0
       317    109.0930    506.7279 307.8779341  +6.4598698     2300.345     3968.163     4081.849     83.71214     167.4243     334.5494      1.871     4.63     1007.878     58.95806     321.8696        24     1.541     0.996 -46.29   0
       318    345.5165    505.1875 307.7797684  +6.4684422     964.1125     1737.903     1447.007     83.44596     167.0918     334.3166      1.867     5.46      998.907     58.95806       123.72        11     1.140     0.738 -39.30   0
       319    969.2194    503.0828 307.5207167  +6.4901576     4831.496     7394.697     7720.444     83.44596     166.9586     334.4164      1.580     3.99     976.8892     58.95806     857.7559        26     1.624     0.780 -46.20   0
       320      7.9795    492.8961 307.9204084  +6.4621807     22264.47     37381.44     40873.52     83.71214     167.0918     332.6154      1.811     4.03     1009.837     58.95806     3100.963        60     1.852     1.140 -47.86  16
       321    542.0942    495.6120 307.6984243  +6.4789804     1233.726     2081.782     2697.887     83.57915     167.0252     334.2834      1.829     4.69     996.0551     58.95806     185.7147        15     1.364     0.854 -45.33   0
       322    440.6265    489.6826 307.7407799  +6.4780315     36374.73     61675.36     66621.32     83.71214     167.0252     334.4164      1.839     4.33     996.6985     58.95806     4624.154        77     1.925     1.199 -48.19   0
       323    648.6293    489.3676 307.6543740  +6.4851218     10707.72     17615.78     18854.67     83.31256     167.0252     334.1835      1.769     4.32     993.8903     58.95806     1445.674        42     1.796     0.998 -44.19   0
       324    205.8113    487.2655 307.8384144  +6.4711546     15983.88     29160.15     32292.65     83.31255     167.0918     334.3499      1.971     4.22     1003.303     58.95806     1958.855        60     1.875     1.294 -45.12   0
       325    288.8780    489.2499 307.8038379  +6.4731231     805.7591     1433.582      1384.04     83.84491     167.3578     334.4497      1.858     6.40     1000.147     58.95806     110.7719        11     1.618     0.712 -38.95   0
       326    171.5239    488.3393 307.8526222  +6.4695598     1406.767     2138.981     1607.296     84.10983     167.2914     334.4497      1.650     4.65     1005.034     58.95806     187.2783        17     1.454     0.856 -68.34   0
       327    982.2070    488.0169 307.5158274  +6.4968112      1003.18     1465.911     1991.474     83.44596     167.0252     334.3166      1.580     4.02     975.7145     58.95806     170.3387         9     1.131     0.717 -43.14   0
       328    822.6231    487.2744 307.5821557  +6.4917971     1008.198     1578.484     2018.837     83.44597     167.0918     334.4164      1.572     4.24     986.5433     58.95806     156.4682        10     1.133     0.607 -34.88   0
       329    570.5311    486.2050 307.6869277  +6.4838160     2455.266     4165.626     4423.037     83.31256     166.8919     334.3166      1.881     5.27     995.5345     58.95806     291.8373        25     1.715     0.885 -41.76   0
       330    910.9656    487.0035 307.5454608  +6.4948554     812.5817     976.0383     946.3171      83.0451     167.1583     334.2501      1.463     2.67     981.0521     58.95806     154.8531         7     0.870     0.504 -44.23   0
       331    944.3055    483.2712 307.5317343  +6.4975078     4678.522         7322     7832.561     83.84491     167.3578     334.4829      1.691     4.54     978.6967     58.95806     717.1199        28     1.677     0.836 -44.42   0
       332    617.5297    481.6906 307.6675539  +6.4872519      5873.61     9630.047     9987.146     83.71214     167.4907     334.4829      1.780     4.60     994.5604     58.95806        786.4        37     1.730     1.003 -45.72   0
       333    104.9737    482.3092 307.8804738  +6.4698135     1035.895     1521.237     1267.639     83.97747     167.0252     334.3166      1.773     4.07     1007.213     58.95806     167.8392        12     1.203     0.692 -25.20   0
       334    966.8601    475.5435 307.5226234  +6.5014503     3233.191     4868.503      4975.29     83.97747     167.2914     334.5162      1.588     4.05     976.7352     58.95806     497.5824        20     1.558     0.718 -45.17   0
       335    529.5903    472.9484 307.7043848  +6.4879198     6063.097     10648.58     11682.23     83.17893     167.1583     334.2168      1.865     4.59     995.5276     58.95806     792.2004        36     1.828     0.986 -44.11   0
       336    405.1824    474.7313 307.7560109  +6.4830174      748.007     1059.527     1314.776     83.31255     167.1583     334.3831      1.526     4.57     996.1116     58.95806      91.6001         8     1.100     0.538 -55.14   0
       337    375.6998    473.1246 307.7683139  +6.4826927     2237.073     4212.589     4581.672     83.31255     167.4243     334.3831      1.962     4.50     996.3187     58.95806      309.213        27     1.628     1.022 -50.04   0
       338    885.9919    468.9214 307.5564455  +6.5014890     2833.991     4675.279     6119.929     83.44596     166.7586     334.2834      1.853     4.16     982.3358     58.95806     449.1621        28     1.734     0.910 -48.52   0
       339    538.0816    470.0450 307.7009551  +6.4894028     655.3421     931.5774     611.9677     83.84491     167.2914     334.4497      1.555     4.99     995.3885     58.95806     111.6557         6     1.005     0.702 -36.54   0
       340    893.6324    463.1766 307.5534645  +6.5041159     1933.313     2965.506     2963.448     83.31255     167.0918     334.2834      1.561     4.56     981.6755     58.95806     327.7476        17     1.508     0.725 -42.50   0
       341    932.6759    462.5987 307.5372619  +6.5056561     1354.369     1796.167     2076.972      83.0451     166.6918     334.3166      1.485     3.40     979.1135     58.95806      270.096        10     1.141     0.565 -51.15   0
       342    112.1425    462.7269 307.8781601  +6.4781397     785.5658     1305.128     1340.038     83.97747     167.2914     334.4497      1.814     6.64     1006.295     58.95806     104.9762        10     1.227     1.007  60.77   0
       343    717.4404    459.1481 307.6268046  +6.4998990     2719.759     4353.472      4822.78     83.84491     167.3578     334.4829      1.737     4.53     990.7463     58.95806     413.1368        23     1.547     0.834 -43.95   0
       344     79.2515    458.2639 307.8919757  +6.4788768     1501.392     2580.341     3304.488     83.84491     167.2248     334.4497      1.801     4.21     1007.204     58.95806     216.5809        16     1.382     0.795 -56.26   0
       345    428.2702    458.1709 307.7469790  +6.4906287     871.5506       1445.8     1967.728     83.57915     167.2914     334.4164      2.135     3.97     994.3894     58.95806     123.6016        11     1.055     0.832 -56.08   0
       346    388.4563    457.3189 307.7635489  +6.4896463     3154.015     5270.737     5205.802     83.97747     167.2914     334.5162      1.851     4.60     994.8161     58.95806     430.1891        26     1.783     0.854 -43.40   0
       347    616.0808    454.0528 307.6690889  +6.4986152     8717.178     14437.55     15596.72     83.84491     167.2914     334.5162      1.793     3.99     993.7655     58.95806     1227.879        46     1.844     1.062 -47.36   0
       348    779.1049    450.1893 307.6014862  +6.5056573     14093.63     24105.15     27011.04     83.44596     166.8919     334.2501      1.888     5.12     987.8627     58.95806     2141.583        60     2.336     1.015 -46.74   0
       349    298.4438    450.9860 307.8011597  +6.4892430     2334.876     3650.583      3677.09     83.17893     167.0918     334.2168      1.658     4.04     997.8143     58.95806     340.2228        20     1.470     0.822 -48.73   0
       350    807.7379    447.5197 307.5896796  +6.5077153     1197.787      1885.47      1151.26     83.97747     167.3578     334.4497      1.579     4.82      986.513     58.95806     178.3607        13     1.414     0.680 -34.89   0
       351    381.6305    447.5649 307.7667148  +6.4934450     1447.734     2307.915     2703.153     83.44597     167.0252     334.2501      1.777     5.01     994.1671     58.95806     190.4772        18     1.451     0.853 -29.35   0
       352    964.1369    445.3526 307.5247705  +6.5138256     1915.445     3025.072      2785.39     83.71214     167.1583     334.5162      1.589     5.06     976.3401     58.95806     301.6829        16     1.578     0.662 -44.68   0
       353    116.2899    442.4999 307.8771233  +6.4866306     3882.261     6520.044     7531.322     83.84491     167.6898     334.4497      1.862     4.12     1005.387     58.95806     506.7259        29     1.633     0.984 -47.97   0
       354    754.4912    441.2761 307.6120133  +6.5085158     2047.593     3279.018     3508.992     83.71214     167.5571     334.4829      1.815     5.34     988.4632     58.95806     268.6252        20     1.739     0.778 -41.59   0
       355   1018.0173    440.1422 307.5025588  +6.5177719     3854.318     6913.261     7378.294     83.31255     167.2248     326.0631      1.921     4.64     972.2526     58.95806     433.0844        30     1.594     1.117 -38.05  16
       356    274.2737    439.6490 307.8115853  +6.4931130     1341.724     2349.958      2319.81     83.84491     167.3578     334.5162      1.789     4.27     998.2519     58.95806     190.3502        14     1.282     0.786 -41.62   0
       357    352.2263    437.2909 307.7792789  +6.4967013     2768.447     4903.338     5365.204     83.97747     167.0252     334.3166      1.885     4.22     993.8932     58.95806      371.803        30     1.646     1.019 -47.84   0
       358    707.9738    435.0345 307.6315511  +6.5095393     1548.904     2386.414     2728.436     83.17894     167.0918     334.2501      1.635     4.12       990.09     58.95806      225.177        15     1.406     0.722 -35.10   0
       359    240.0465    433.2029 307.8260236  +6.4946258     629.9635     961.0635     1160.219     83.17893     166.9586     334.1169      1.659     3.95     999.1282     58.95806     108.9214         6     0.946     0.473 -37.96   0
       360    834.1722    425.1794 307.5794492  +6.5178219     1332.893     2162.802     1569.929     83.31255     167.0918     334.4497      1.589     4.58     984.3969     58.95806     218.7153        15     1.521     0.686 -50.61   0
       361    549.8617    427.6266 307.6974939  +6.5073116     806.8017     1548.935     1818.329     83.44596     167.2914     334.3831      2.027     4.36     993.3404     58.95806     115.2767         7     1.161     0.466  -7.08   0
       362    471.6405    426.0308 307.7300469  +6.5053520     1200.483     1826.186     1610.058     83.31255     167.0252     334.3499      1.679     4.72     991.5192     58.95806     188.1871        14     1.382     0.775 -40.59   0
       363    819.7252    424.2334 307.5854837  +6.5177305     1925.194     2988.983     3565.634     83.71214     167.2914     334.4497      1.786     4.29     985.1559     58.95806      264.176        18     1.459     0.780 -41.71   0
       364    717.3005    422.2365 307.6281076  +6.5151353     13318.81     21607.81      23655.9     83.84491     167.1583     334.6824      1.770     4.31     989.1134     58.95806     1745.342        50     1.786     1.085 -46.09   0
       365    638.5503    418.0746 307.6609678  +6.5142220     2216.771      3592.82     4132.656     83.84491     167.3578     334.5162      1.778     5.21     992.0496     58.95806     336.7831        18     1.519     0.784 -38.36   0
       366    381.7317    422.6604 307.7675155  +6.5037313     1452.304     1590.862     1623.308     83.97747     167.2248     334.4829      0.843     2.25     992.0945     58.95806     537.1457         6     0.772     0.372  40.67   0
       367    613.6023    415.3682 307.6714247  +6.5145053     4665.944     7550.181     8236.586     83.17894     167.0918     334.2501      1.809     4.15     992.4521     58.95806     581.7634        31     1.746     0.908 -40.89   3
       368    609.8252    412.6962 307.6730843  +6.5154822     12615.65     21414.53     23476.59     83.97747     167.0252     334.3499      1.827     4.29     992.3188     58.95806     1673.137        48     1.807     1.105 -44.65   3
       369    942.4412    412.1028 307.5349038  +6.5268318     3534.402     5211.946      5463.23     83.84491     167.1583     334.7156      1.619     4.16     977.0977     58.95806     579.5972        22     1.599     0.726 -43.84   0
       370    381.7254    408.0897 307.7680112  +6.5097473     24385.65     42642.03     46264.73     83.84491     167.6235     334.5494      1.894     4.28     991.0004     58.95806     3131.035        63     1.921     1.185 -47.44   0
       371    898.2599    407.8750 307.5534036  +6.5271047     1661.713     2642.003     3408.281     84.10983     167.2914     334.4497      1.512     4.10      979.929     58.95806     282.3995        14     1.333     0.673 -42.02   0
       372    127.8038    407.6057 307.8735236  +6.5014248     2007.813     3598.823     3438.878     83.17894     166.9586     334.3166      1.865     6.18     1003.694     58.95806     230.2729        21     1.628     0.874 -47.66   0
       373     61.0131    403.3008 307.9014183  +6.5009570     1271.268     2325.536     2883.174     83.57915     167.0252     334.2168      2.059     4.30     1005.949     58.95806     186.9004        14     1.233     0.834 -43.42   0
       374    911.3414    402.5095 307.5481488  +6.5297563       4640.4     7297.301     5473.707     83.71214     167.2914     334.6159      1.645     4.16     978.8917     58.95806     726.4269        26     1.645     0.785 -46.05   0
       375    239.2386    398.6332 307.8275308  +6.5088722     11660.74     20168.99     21628.71     83.57916     167.0918     334.2501      1.881     4.38     997.6967     58.95806     1533.274        50     1.895     1.124 -46.05   0
       376     74.9500    392.8939 307.8959813  +6.5057225     721.3936     1545.453     1122.391     83.71214     167.1583     334.6159      2.174     4.92      1005.14     58.95806     99.74982         8     1.145     0.600 -69.85   0
       377    733.5256    392.4558 307.6223705  +6.5279738     636.8582     1032.423     1359.018     83.71214     167.2248     334.4164      1.704     4.21     987.0804     58.95806     92.96143         6     1.099     0.459  78.70   0
       378    962.3082    390.8349 307.5273646  +6.5362756      978.457     1259.941     1290.145     83.97747     167.1583     334.5162      1.243     3.94     974.5506     58.95806     164.4703         8     1.050     0.653 -52.95   0
       379    701.8998    391.5421 307.6355419  +6.5272946     665.0295     873.0774     891.3918     83.57915     167.2914     334.7156      1.483     4.24     988.0654     58.95806     91.78442         6     1.051     0.487   6.38   0
       380    352.6080    388.2524 307.7807802  +6.5169618     988.9284     1711.718     1996.828     83.31256     167.1583     334.1835      1.857     6.21     990.7822     58.95806     175.5761        15     1.736     0.766 -43.59   0
       381    139.6125    387.2592 307.8693078  +6.5102225     4518.373     7470.259     8124.306     83.17894     167.2248     334.1835      1.797     4.32      1002.53     58.95806     587.3613        29     1.718     0.938 -47.58   0
       382    184.6702    388.5973 307.8505424  +6.5111837     714.2958     1331.144     1769.726     83.31256     166.8919     334.3166      1.992     4.21     1000.366     58.95806     110.4222         6     1.179     0.428 -56.01   0
       383    244.1969    386.2811 307.8258893  +6.5141387     1176.436     1831.479     1745.989     83.17894     166.8253     334.1835      1.571     4.09     996.9471     58.95806     188.5092        14     1.232     0.818 -46.67   0
       384    437.3807    386.1685 307.7456292  +6.5206635     682.6284     928.3546     997.0621     83.31255     167.0918     334.3499      1.421     3.61     988.1458     58.95806     114.9136         6     0.749     0.636 -21.53   0
       385    161.7374    382.9618 307.8602614  +6.5127402      2117.22     3880.616     4399.994     83.84491     167.2914     334.5162      1.931     5.21     1001.489     58.95806     266.0283        26     1.771     0.934 -49.83   0
       386    557.3958    381.9533 307.6959065  +6.5264222     936.2496     1352.282     1635.233     83.17893     167.0252     334.1502      1.608     5.31     988.3525     58.95806     146.1537        10     1.287     0.619 -29.55   0
       387    385.0177    378.0793 307.7676589  +6.5222487     1784.028     2906.995     3054.679     83.44596     166.9586     334.4164      1.781     4.26      988.882     58.95806     223.7791        19     1.439     0.849 -37.46   0
       388      3.0803    378.7614 307.9263201  +6.5091401     751.5966     1113.916       1033.5     83.71214     156.9304     280.2338      1.557     5.06     1006.597     58.95806     113.5864         9     1.106     0.753 -12.70  24
       389    973.4741    377.0750 307.5231881  +6.5423293     830.9735     1657.578     2150.811     84.10983     167.5571     334.5827      2.339     4.36     972.8253     58.95806     138.4912        10     1.231     0.841 -42.90   0
       390    273.6798    377.7689 307.8139283  +6.5186428     639.5057     962.1912     984.1426     83.71214     167.2248     334.4497      1.989     5.47     994.8317     58.95806     110.1086         8     1.532     0.551 -36.43   0
       391    438.8373    371.5059 307.7455199  +6.5267664     6328.442     10734.42     11561.72     83.97747     167.1583     334.5827      1.848     4.52     986.9598     58.95806      759.861        36     1.782     1.032 -47.74   0
       392     35.2998    372.2660 307.9131548  +6.5129059     2708.344     4799.681     5067.681     83.84491     167.4243     334.4497      1.934     5.39     1005.416     58.95806     350.3995        29     1.853     0.928 -44.28   0
       393    593.3567    373.3217 307.6812564  +6.5311892     515.5378     761.8502     831.4614     83.71214     167.2914     334.5162      1.183     3.49     987.4872     58.95806     113.4846         5     0.765     0.460  77.36   0
       394    779.4227    368.8232 307.6040968  +6.5392645     11635.55     18766.97     20413.85     83.31256     167.1583     334.4497      1.740     4.30     984.3217     58.95806     1663.223        45     1.809     1.011 -43.06   2
       395    771.7202    370.3140 307.6072471  +6.5383917     1849.781     3247.961     3418.416     83.57916     167.6235     334.5827      1.943     5.90     984.6755     58.95806     275.6183        18     1.656     0.786 -42.62   3
       396    343.1393    367.1319 307.7854293  +6.5253648      1021.38     1908.433     2387.807     83.97747     167.2248     334.4829      2.298     2.52     990.2415     58.95806     167.4662         8     0.791     0.648 -33.78   0
       397   1022.8324    364.2903 307.5031088  +6.5492523     3473.581     4378.806     4215.485     82.10214     145.5297     265.6438      1.311     3.35     967.2201     58.95806     633.5991        16     1.209     0.711 -51.37  24
       398    187.3021    360.2708 307.8504093  +6.5229677     694.9512     1050.153     1493.833     83.71214     167.4907     334.4829      1.775     4.12     999.3762     58.95806     90.74963         6     0.954     0.508 -44.66   0
       399    459.3833    355.5809 307.7375217  +6.5340301     1800.014     2861.852     2511.327     83.57916     167.0252     334.3831      1.726     4.52      985.559     58.95806      229.374        21     1.539     0.868 -41.20   0
       400    487.1923    354.9362 307.7259889  +6.5352276     2690.235     4608.885     4682.598     83.31255     167.0252     334.3166      1.819     4.71     985.3594     58.95806     348.7697        26     1.565     0.981 -41.07   0
       401    915.8367    355.0240 307.5478796  +6.5495133     838.2574     1238.803     574.7693     83.44596     167.0918     334.2501      1.600     5.51     976.8044     58.95806     128.8976        10     1.222     0.701 -25.65   0
       402    844.8375    351.7139 307.5774926  +6.5485122     29835.52     49521.35     53812.23     83.84491     167.2248     334.4829      1.801     4.40     980.5515     58.95806     3974.502        66     1.903     1.100 -50.20   0
       403    989.6519    352.1711 307.5173037  +6.5531513     607.3771     668.3694     333.2406     83.57915     167.4243     334.3831      1.311     3.99     969.6729     58.95806     109.4618         6     1.145     0.397 -56.35   0
       404    616.4741    344.1336 307.6726367  +6.5440142     2382.137     3888.234     4410.988     83.97747     167.3578     334.4497      1.842     4.50     984.1429     58.95806     350.0746        21     1.685     0.802 -43.77   0
       405     24.7227    344.5951 307.9184889  +6.5239749     976.1878     1665.713     2049.054     83.44597     166.7586     334.3166      1.852     3.51     1004.815     58.95806     157.3013         9     0.945     0.695 -73.65   2
       406    701.2634    337.7053 307.6376225  +6.5495027     70739.23     115753.2       125198     83.71214     167.4243     334.5494      1.773     4.28     983.7951     58.95806     9987.272        91     1.909     1.181 -45.90   0
       407    859.2418    339.2473 307.5719273  +6.5541403     1214.202     1737.326     2793.544     83.84491     167.2914     334.3499      1.874     3.78     979.1829     58.95806     165.1826        13     1.133     0.753 -44.30   0
       408     80.5862    337.4017 307.8955233  +6.5288238     1334.166     1884.273     2038.706     83.44597     166.9586     334.2501      1.709     4.73     1003.308     58.95806     161.5333        14     1.223     0.815 -40.29   0
       409    563.6277    334.5317 307.6949192  +6.5462111     2340.507     3874.226     4335.786     83.57916     167.2248     334.3831      1.857     5.11     982.5916     58.95806     284.0485        19     1.534     0.802 -41.69   0
       410    100.9859    333.3031 307.8871867  +6.5312019     5317.325     9280.832     10127.84     83.71214     167.0252     334.2501      1.891     4.32     1002.628     58.95806     681.9579        38     1.780     1.077 -46.52   0
       411    942.4681    334.6833 307.5374982  +6.5587999     763.6615     1241.714     1084.511     84.10983     167.5571     334.5162      1.769     4.54     973.0925     58.95806     125.1097         7     0.879     0.702 -24.56   0
       412    760.7882    333.0715 307.6130451  +6.5534043     607.6804     937.5072      1358.26     83.31255     166.8919     334.2834      1.779     4.96     982.5482     58.95806     98.81787         7     0.975     0.719  -0.86   0
       413    546.9800    330.6621 307.7019672  +6.5472517     6163.721     10418.49     10831.71     83.44596     167.2914     334.3831      1.815     4.32     981.9882     58.95806     820.5654        38     1.684     1.085 -42.09   0
       414    276.0532    328.3292 307.8146171  +6.5391357     2261.969     3955.097     4053.837     83.71214     167.2248     334.4164      1.872     4.74     992.0236     58.95806     302.2565        24     1.612     0.937 -48.68   0
       415    409.9960    325.7754 307.7590504  +6.5446819     21752.09     37706.39     41351.17     83.31255     167.0252     334.3166      1.891     4.21     984.2978     58.95806     2945.704        67     1.928     1.203 -45.08   0
       416    588.7291    325.2501 307.6848028  +6.5508832     586.8069     1108.654     947.6348     83.84491     167.2914     334.5162      1.626     3.81     981.5621     58.95806     90.56238         5     0.889     0.469 -44.50   0
       417    517.9321    324.3053 307.7142518  +6.5489042     938.8192     1721.813      1483.84     83.71214     167.4907     334.5162      1.822     5.73     981.3665     58.95806     150.4849        12     1.588     0.583 -37.42   0
       418    389.8289    323.8765 307.7674941  +6.5447901      990.289     1446.916     2156.563     83.71214     167.3578     334.5162      1.722     3.50      985.298     58.95806     175.0635        12     1.185     0.751 -53.81   0
       419    489.1358    321.0583 307.7263267  +6.5492807     1134.465     1904.428     2400.224     83.97747     167.2248     334.5162      1.803     5.31     981.2146     58.95806     174.1472        13     1.393     0.687 -45.06   0
       420    804.7653    318.2281 307.5952719  +6.5610014     834.1784     1301.168     1284.173     83.31256     167.0252     334.2501      1.577     3.36     980.0978     58.95806     178.9625         9     1.039     0.582 -60.86   0
       421    499.0532    316.1257 307.7223727  +6.5516495     7261.627     12412.83        13423     83.71214     167.2914     334.4829      1.840     4.34     980.5345     58.95806     965.3279        45     1.858     1.077 -43.83   0
       422    386.4398    318.7175 307.7690770  +6.5468066     788.9678     1289.673      1632.86     83.84491     167.3578     334.4164      1.744     4.15     985.2424     58.95806     111.3053         7     1.010     0.486  83.55   0
       423    768.2365    314.9113 307.6105625  +6.5611514     2920.932      4798.67     5807.006     83.84491     167.2248     334.4829      1.872     4.24     980.7237     58.95806      413.856        28     1.630     1.012 -39.86   0
       424    923.3350    315.1883 307.5461049  +6.5662118     705.0958     1241.105     1652.592     83.31255     167.0918     334.3166      1.601     3.85     972.5654     58.95806     118.2621         6     1.045     0.406 -75.57   0
       425    715.5814    314.5528 307.6324542  +6.5595408     749.7192     1095.216     1576.952     83.31256     167.2914     334.2834      1.406     3.81     981.1636     58.95806     143.0834         8     1.119     0.492 -41.30   0
       426    325.6748    312.7872 307.7945258  +6.5472176      872.192     1452.444     1100.629     83.31256     166.9586     334.2834      1.808     6.87     988.2061     58.95806     121.1495        13     1.339     0.989 -39.00   0
       427    160.8412    306.8284 307.8632159  +6.5441445     961.6401     1662.221     1647.473     83.44596     167.2248     334.3166      1.848     4.96     999.3569     58.95806     133.7908        13     1.356     0.817 -71.47   0
       428    388.9413    300.2808 307.7686615  +6.5545028     6341.579     10914.53     11727.63     83.97747     167.3578     334.4829      1.854     4.50       984.02     58.95806     780.8546        39     1.782     1.073 -46.66   0
       429    244.8070    300.9075 307.8285290  +6.5494091     1826.321     3151.174     3071.766     83.44596     166.9586     334.2834      1.744     5.11     993.3158     58.95806     236.1339        21     1.572     0.901 -46.03   0
       430    742.1846    300.5686 307.6218715  +6.5662036     986.3504     1775.092     2181.383     83.44596     167.0252     334.4164      2.252     5.48     979.7252     58.95806     132.4796        11     1.065     0.796 -54.73   0
       431    756.7640    296.2680 307.6159583  +6.5684662     48452.08     78489.48     84559.12     83.71214     167.3578     334.6159      1.755     4.14     979.1044     58.95806     6996.524        76     1.869     1.131 -45.46   0
       432    428.5174    295.6646 307.7523733  +6.5577352     2033.929     3681.684     3556.842     83.97747     167.4243     334.5162      1.938     4.90     981.4774     58.95806     283.6898        28     1.637     1.150 -31.86   0
       433    991.5013    293.2693 307.5185168  +6.5775340     1495.524     2298.891     2657.225     83.84491     167.4243     334.4829      1.687     5.28     968.4821     58.95806     231.5978        14     1.441     0.633 -41.75   0
       434    932.4401    292.5398 307.5430838  +6.5758670      2236.05      3507.24     3998.534     83.84491     167.2914     334.5827      1.738     4.45     969.7326     58.95806     349.6547        22     1.485     0.946 -45.18   0
       435    574.3550    293.2381 307.6918568  +6.5636201     941.7886     1414.707     1214.506     83.57916     167.2248     334.3831      1.561     5.31     977.6005     58.95806     116.4969         9     1.093     0.728 -40.58   0
       436    465.9091    291.9171 307.7369632  +6.5605351     1034.856     1882.921     2305.953     83.57915     167.5571     334.5494      1.997     4.72      978.688     58.95806     203.5513        12     1.350     0.695 -38.27   0
       437    414.9804    291.0260 307.7581551  +6.5591968      1748.91     3105.986     3428.886     83.31255     167.0252     334.3831      1.940     5.25     982.0751     58.95806     246.8857        19     1.501     0.915 -55.22   0
       438    293.6035    291.7938 307.8085626  +6.5548097     471.7541     856.6348     1423.452     83.17894     166.9586     334.3499      1.398     3.45     988.8442     58.95806      73.3963         5     0.766     0.450  71.94   0
       439    836.1481    285.7390 307.5833262  +6.5754636     1091.627     1724.424     1875.431     83.84491     167.2248     334.4829      1.764     5.93     976.7123     58.95806     138.3473        14     1.441     0.687 -31.63   0
       440    464.9337    286.5299 307.7375507  +6.5627268     668.2724     1120.101     1923.105     83.84491     167.3578     334.4829      1.407     3.79     978.2739     58.95806     109.2924         6     0.831     0.496  -4.39   0
       441    445.2397    283.0479 307.7458517  +6.5635048     972.2136     1550.967     2359.784     83.71214     167.2914     334.2834      1.990     4.92     979.3995     58.95806     139.6976        10     1.273     0.776 -44.19   0
       442    191.4551    282.7510 307.8513124  +6.5551141     2094.042     3332.277     4108.791     83.84491     167.2914     334.5494      1.821     5.07     996.7175     58.95806     261.2644        19     1.509     0.813 -42.67   0
       443    755.1367    280.8677 307.6171538  +6.5747707     5441.326     8995.003     9136.275     83.84491     167.2914     334.5162      1.709     4.42     977.4506     58.95806     771.6535        31     1.631     0.993 -39.50   0
       444    226.7887    281.3983 307.8366769  +6.5568593     656.0759     951.7548      683.777     83.44597     166.9586     334.2834      1.517     4.33     994.3291     58.95806     101.9742         5     1.146     0.465 -57.72   0
       445    771.7128    278.6708 307.6103399  +6.5762313     2444.566      3778.05     3771.829     83.97747     167.5571     334.4829      1.612     4.04     977.1647     58.95806     379.6132        19     1.531     0.737 -42.02   0
       446     74.4820    274.4767 307.9001956  +6.5545992     1050.965     1898.828     1740.856     84.10983     167.5571     334.6159      1.885     5.83     1002.443     58.95806     175.4862        14     1.480     1.071  -9.20   0
       447    360.9889    273.5835 307.7811798  +6.5645888     1473.602     3114.981     3285.577     83.57915     166.9586     334.3831      2.205     6.32     984.1017     58.95806     188.3481        25     1.719     1.149 -22.08   0
       448   1009.8032    269.6765 307.5117051  +6.5878853     5640.501     8570.515     8515.729     83.31255     166.7586     334.3499      1.602     4.09     966.8844     58.95806     842.7775        32     1.574     0.925 -48.90   0
       449    487.7770    269.5007 307.7286345  +6.5705232     1892.841     3148.725     3241.174     83.97747     167.0252     334.2501      1.808     4.78     975.6376     58.95806      230.968        21     1.547     0.941 -40.59   0
       450    250.4613    265.1802 307.8273904  +6.5643503     5100.941     8622.562     9646.441     83.44596     167.2914     334.3831      1.857     4.18     992.2994     58.95806      652.731        32     1.663     1.025 -42.09   0
       451    917.7507    264.2766 307.5501394  +6.5870473     593.7123      961.747     1166.898     83.71214     167.3578     334.4829      1.514     4.09     969.6767     58.95806     127.2593         5     1.206     0.396 -38.03   0
       452    814.9360    263.8839 307.5928772  +6.5837798     482.2088     924.9333     1178.967     83.97747     167.4243     334.5162      1.691     3.76     974.6729     58.95806     94.91766         5     1.809     0.224 -40.09   0
       453     88.0094    279.8882 307.8943913  +6.5528198     912.8475     1415.513     1662.683     83.44596     166.9586     334.2501      1.681     4.92      1002.07     58.95806     141.6077         9     1.081     0.635 -34.70   0
       454    384.5195    256.2292 307.7719898  +6.5725432      1422.81     2634.189     2692.819     83.71214     167.2248     334.4497      1.984     5.45     981.5392     58.95806      164.319        21     1.442     1.157 -46.85   0
       455    971.4910    254.8940 307.5281233  +6.5927127      1081.76     1793.006     2155.333     83.84491     167.8224     334.4829      1.693     4.75     967.2911     58.95806     190.9562        11     1.461     0.523 -41.36   0
       456    306.6641    252.0655 307.8044816  +6.5716513     1027.635     1854.333     1889.596     83.84491     167.2914     334.4829      1.847     5.93      987.387     58.95806     129.9707        13     1.343     0.955 -63.75   0
       457    154.4330    251.9075 307.8677415  +6.5666052     1489.818     2492.456     2961.782     83.97747     167.1583     334.5162      1.861     5.13     997.9697     58.95806     199.4526        17     1.446     0.823 -51.87   0
       458    563.8321    247.5230 307.6977739  +6.5821436     1987.145     3425.839     3644.211     83.71214     167.2914     334.4164      1.851     4.98      972.668     58.95806     252.3583        22     1.587     0.987 -45.02   0
       459    907.8483    246.6722 307.5548472  +6.5939862     1451.492     2490.533      2902.32     83.84491     167.3578     334.5162      1.625     4.07     969.5173     58.95806     236.9564        12     1.418     0.550 -39.16   0
       460    668.4507    244.8940 307.6543892  +6.5867280     1875.979     3053.403     3101.527     83.71214     167.1583     334.6824      1.681     4.75     972.4614     58.95806     252.2597        20     1.531     0.831 -44.64   0
       461    965.2069    244.8562 307.5310725  +6.5966480     785.7294     1228.525     1080.495     83.31255     167.1583     334.2168      1.569     3.53     967.1165     58.95806     117.0607         8     0.828     0.673  39.69   0
       462    727.6003    245.0593 307.6298042  +6.5886363     4400.843     7265.165     7267.831      83.0451     166.9586     334.1502      1.768     4.10     973.1393     58.95806     583.2812        31     1.697     0.967 -46.81   0
       463    923.8738    237.1188 307.5485093  +6.5984651     977.5125     1505.992     1610.121     84.10983     167.5571     334.5494      1.628     6.16     968.6147     58.95806     164.6336        13     1.759     0.606 -51.15   0
       464    227.2373    230.3537 307.8382209  +6.5779500     1815.303     3152.412     2873.565     83.57916     167.2248     334.3499      1.818     4.68     994.1265     58.95806     245.6926        21     1.506     0.912 -34.14   0
       465    869.8787    229.2522 307.5712125  +6.5999127      1603.46     2544.502     3001.104     83.84491     167.2914     334.4829      1.755     4.14     969.2032     58.95806     231.8558        18     1.391     0.837 -33.99   0
       466    760.1370    228.6544 307.6168367  +6.5964967     1390.714     2087.967     2228.726     83.97747     167.2248     334.4497      1.675     3.84     971.0272     58.95806     246.6799        12     1.278     0.618 -40.36   0
       467    461.4169    219.8344 307.7412677  +6.5901472     19014.14     33875.54     38694.41     83.44596     167.0918     334.3166      2.025     5.11     973.2866     58.95806      2429.02        79     2.564     1.166 -45.47   0
       468    787.1337    219.2954 307.6059336  +6.6012625     12060.24        19600     21958.82     83.84491     167.4243     334.5162      1.760     4.03      969.598     58.95806      1610.94        50     1.897     1.047 -40.96   0
       469    123.9690    212.4227 307.8817395  +6.5818840     1042.005     1625.983     1822.351     83.31255     167.0918     334.2834      1.644     4.94     998.2202     58.95806     140.5581        11     1.261     0.625 -25.89   0
       470    149.2207    213.5549 307.8712084  +6.5822652       2135.1      3499.79     3449.329     83.44597     167.1583     334.2834      1.686     4.67     996.9527     58.95806     327.1692        20     1.512     0.829 -47.47   0
       471    923.4271    209.6981 307.5496182  +6.6097724     1282.662     2148.026     2399.309     83.97747     167.0252     334.4497      1.852     5.85     966.9001     58.95806     172.3623        13     1.406     0.731 -49.05   0
       472    585.1172    205.9631 307.6903331  +6.6000158     4004.709     6662.973     7183.191     83.84491     167.2248     334.4497      1.792     4.45     968.9946     58.95806     489.3397        30     1.653     1.021 -46.72   0
       473    547.6092    205.9787 307.7059192  +6.5987542     1739.717     2843.167     3181.527     83.44596     167.0252     334.2834      1.778     4.91     968.9946     58.95806     228.3666        18     1.483     0.814 -52.22   0
       474    305.5639    206.5331 307.8064811  +6.5904142     919.4833     1663.374     1574.211     83.71214     167.4243     334.5494      2.013     4.75     986.8787     58.95806     113.0334         9     1.238     0.516 -51.73   0
       475    389.6961    204.7084 307.7715826  +6.5939892     1325.822     2444.068      2263.59     83.84491     167.8224     334.4497      1.961     5.42     977.9533     58.95806     170.4498        16     1.433     0.933 -43.02   0
       476    892.1520    202.4631 307.5628589  +6.6117169     10518.25     16374.31     17279.01     83.71214     167.1583     334.5494      1.674     4.14     966.5122     58.95806     1465.067        39     1.695     0.946 -42.95   0
       477    945.8856    202.9955 307.5405107  +6.6132886      2587.75     4049.679     3767.324     83.31255     166.8919     334.1835      1.581     4.07     965.3929     58.95806     356.3875        20     1.393     0.813 -44.62   0
       478    320.0446    203.1042 307.8005800  +6.5923158     713.4885     1374.185     1506.022     83.84491     167.1583     334.6159      2.021     5.65     985.1183     58.95806     108.5896        10     1.179     0.763 -38.47   0
       479    567.4673    202.3940 307.6977882  +6.6008989     815.7574     1068.099     1084.161     83.31256     166.9586     334.2834      1.637     5.25     968.7467     58.95806     117.4169         9     1.169     0.665 -40.07   0
       480    978.8171    200.2899 307.5269163  +6.6155032     9296.468     14444.29     14824.52     83.57915     167.0252     334.3831      1.623     4.00     963.6686     58.95806     1461.271        35     1.663     0.890 -44.80   0
       481    690.1810    200.2719 307.6468652  +6.6058788     2512.891     4146.338     4558.026     83.44596     167.1583     334.4164      1.728     4.17     968.9129     58.95806     332.8252        24     1.598     0.860 -48.54   0
       482    264.6973    200.1692 307.8236783  +6.5916704     894.5979     1728.307     1670.935     83.97747     167.0252     334.5494      2.152     6.16     990.3722     58.95806     131.0658        14     1.769     0.604 -52.03   0
       483     18.3805    199.0115 307.9260690  +6.5838700     22168.07     38182.95     41897.86     83.44596     166.9586     334.3831      1.853     4.27     1002.003     58.95806     2854.781        58     1.863     1.170 -46.48   0
       484    498.9092    195.3690 307.7265152  +6.6015046     1720.789     2901.358     2526.883     83.97747     167.0918     334.4497      1.786     5.41      969.644     58.95806     226.4838        18     1.453     0.908 -35.21   0
       485    830.5464    191.8871 307.5888167  +6.6140285     1891.562     2815.668     2887.014     83.84491     167.1583     334.6492      1.535     3.92     966.4623     58.95806     348.4591        14     1.355     0.609 -44.15   0
       486    510.7397    191.1715 307.7217410  +6.6036338     2215.763      3728.17     3620.885     83.44596     167.3578     334.4164      1.782     4.41      969.054     58.95806      278.119        26     1.621     0.931 -38.75   0
       487    883.1426    190.8949 307.5669926  +6.6161929     1706.524     3164.087     4179.728     83.71214     167.2914     334.6492      2.128     4.80     965.6383     58.95806     261.4007        18     1.656     0.756 -33.92   0
       488    742.3481    188.3924 307.6255871  +6.6125268     35632.64     58596.68     62870.44     83.31256     167.0918     334.0836      1.784     4.25     968.2913     58.95806     4928.614        66     1.834     1.136 -46.27   0
       489    345.4292    187.7272 307.7905524  +6.5995163     5198.751     11138.74     13383.87     83.71214     167.2914     334.4497      2.350     6.78     981.5834     58.95806     581.9763        53     2.288     1.232 -60.98   0
       490    976.1714    187.1995 307.5284564  +6.6208201     2768.681      4183.13     4929.524     83.31255     167.0918     334.2834      1.565     3.85       962.79     58.95806     438.5948        22     1.548     0.783 -40.16   0
       491   1014.4547    185.9885 307.5125873  +6.6225956     1615.087     2583.119     3095.951     83.17893     167.2248     334.1502      1.597     4.37     961.2422     58.95806      232.838        16     1.385     0.841 -52.14   0
       492    910.2261    185.5297 307.5559180  +6.6193115     7070.895     10897.67     11231.44     83.44597     167.1583     334.4164      1.635     4.01     964.8036     58.95806     1098.793        31     1.615     0.886 -43.72   0
       493    453.7732    184.6064 307.7456357  +6.6044366     4298.189     7524.802     7696.639     83.31256     167.0918     334.2834      1.854     4.47     971.4198     58.95806     577.6282        34     1.751     1.010 -41.22   0
       494    228.7733    181.4173 307.8392417  +6.5982067     594.7789     1019.229     1099.777     83.44597     167.0252     334.3831      1.636     3.48     991.5126     58.95806     85.55994         5     0.790     0.444 -19.24   0
       495    111.1710    175.8936 307.8882972  +6.5965360     4119.147     6824.158      7143.58     83.97747     167.0252     334.3831      1.762     4.11     997.3438     58.95806     569.8804        32     1.717     0.994 -44.23   0
       496    930.4655    175.3644 307.5478492  +6.6241836     694.8201     1177.255     1442.979     83.71214     167.2914     334.5494      1.848     3.96     963.4398     58.95806     125.0836         8     1.102     0.520 -51.60   0
       497    281.5032    172.5692 307.8176301  +6.6036301     29484.76      50190.3     54549.34     83.97748     167.0252     334.5494      1.882     4.40     989.1144     58.95806     3732.441        66     1.925     1.191 -45.64   0
       498    256.7216    173.7534 307.8278878  +6.6023093     5729.016     9803.881     10747.74     83.84491     167.3578     334.4497      1.857     4.12     990.0678     58.95806     712.4365        38     1.788     1.070 -46.49   0
       499    606.9818    174.6433 307.6823051  +6.6136790     631.7885     1355.635     1764.745     83.31255     167.1583     334.2501      2.320     6.25     967.0735     58.95806     73.50824         6     1.200     0.916 -21.97   0
       500    710.4778    172.1238 307.6393803  +6.6181794     866.3552     1480.519     1706.588     84.10983     167.5571     334.5494      1.910     4.81     967.3265     58.95806     134.8242         8     1.226     0.557 -35.34   0
       501    405.5350    168.1259 307.7662389  +6.6096247     42618.38     74072.75     80306.91     83.97747     167.2914     334.4829      1.894     4.36       973.79     58.95806     5433.269        74     1.938     1.225 -45.40   0
       502    161.5552    169.4439 307.8675796  +6.6008924     3582.643     5755.696     6523.025     83.84491     167.2914     334.4497      1.860     4.37     994.7424     58.95806     420.5806        30     1.684     0.973 -38.23   0
       503    422.9313    168.5854 307.7589942  +6.6100181     1053.267     1770.681     1577.177     83.31255     167.1583     334.3831      1.775     4.67     972.2445     58.95806     168.8637        12     1.263     0.709 -44.96   0
       504    309.5461    165.7925 307.8062065  +6.6073692     15375.56     26844.29      29947.7     83.31256     167.0918     334.1835      1.913     4.38     985.8612     58.95806     2015.833        59     1.920     1.168 -43.00   2
       505    316.9276    165.6723 307.8031432  +6.6076664     1900.463     3802.534     4875.862     84.10983     167.4243     334.5162      2.359     6.53     984.8679     58.95806     208.0101        29     1.790     1.198 -55.12   3
       506    744.7952    164.2995 307.6253829  +6.6225565     29536.62     48455.75     51274.87     83.57915     166.8919     334.1169      1.771     4.27     966.5367     58.95806     4081.099        65     1.846     1.111 -44.88   0
       507    692.6205    166.3405 307.6469965  +6.6199705      1008.77     1491.246      1477.45     83.44597     167.1583     334.3499      1.657     6.30     966.9421     58.95806     141.7493        13     1.372     0.894 -36.75   0
       508    793.1441    164.7739 307.6052741  +6.6239752     1066.672     1657.513     2202.739     83.44596     167.3578     334.3166      1.658     4.39     964.7547     58.95806     186.3286        10     1.315     0.496 -52.31   0
       509     31.9810    164.7533 307.9215814  +6.5984721     613.7029     1057.118     1376.431     83.31255     167.2248     334.2834      1.883     4.56      1000.35     58.95806     80.01093         6     1.111     0.531 -79.49   0
       510     61.7092    161.4892 307.9093393  +6.6008199      8133.79     13321.32     14278.73     83.84491     167.8224     334.5827      1.784     4.27     998.8666     58.95806     1039.025        44     1.863     1.060 -46.73   0
       511     95.6892    159.4598 307.8952883  +6.6028006     1174.899     1985.051      2032.04     83.71214     167.4243     334.5827      1.848     6.91     997.2179     58.95806     133.4683        17     1.430     0.935 -42.31   0
       512   1003.1560    158.9446 307.5181928  +6.6333858     1084.356      1741.75     1700.356     83.84491     167.2914     334.5162      1.653     6.41     959.8574     58.95806     151.4608        14     1.475     0.783 -37.77   0
       513    971.1713    157.4660 307.5315350  +6.6329306     425.3088     628.4196     727.8436     83.57915     167.2248     334.4164      1.413     3.96      960.663     58.95806     78.68091         6     1.365     0.329 -41.23   0
       514    646.0048    153.6324 307.6667978  +6.6236594     3024.286     2981.999     2667.767     83.17893     167.1583     334.2501      0.585     1.59     966.2475     58.95806      1475.33         5     0.548     0.226  89.60   0
       515    579.1232    148.8892 307.6947523  +6.6233808     694.2941     1323.168     1239.378     83.84491     167.5571     334.5494      1.992     5.37     966.0391     58.95806     111.0469         9     1.535     0.531 -37.09   0
       516   1004.1256    144.6118 307.5182721  +6.6393362     1943.562     3345.776     4535.237     83.31255     166.9586     334.2834      1.843     4.50     958.9307     58.95806     326.1013        20     1.644     0.727 -44.69   0
       517    587.3392    142.7175 307.6915465  +6.6262040     1019.001     1627.416     2292.442     83.97747     167.2914     334.5162      1.780     5.09     965.9557     58.95806     122.8878        12     1.192     0.787 -60.20   0
       518    280.3794    138.8396 307.8192401  +6.6175189     26021.18      45713.1     50659.69     83.44596     167.0918     334.2168      1.898     4.37     989.0519     58.95806     3226.448        72     1.991     1.227 -46.01   0
       519    595.7261    140.5834 307.6881331  +6.6273657     1716.209     2934.992     3509.001     83.31256     167.0252     334.3499      1.813     5.51      965.928     58.95806     249.3254        17     1.575     0.719 -40.50   0
       520    339.6517    141.2059 307.7945288  +6.6185306      784.028     1247.861     1608.975     83.31256     167.0918     334.1169      1.687     4.36     981.1265     58.95806     125.8424         7     0.978     0.553 -39.06   0
       521     25.7820    137.5329 307.9250820  +6.6095022     3717.841     6396.955     6889.456     83.44597     167.2248     334.3831      1.930     4.45     1000.134     58.95806     542.3815        36     1.869     1.111 -56.65   0
       522    711.9521    135.5514 307.6400018  +6.6333293     7355.704     11759.98     12728.01     83.84491     167.1583     334.5162      1.723     4.10       965.22     58.95806     970.6261        40     1.786     0.966 -44.51   0
       523    189.3976    136.9777 307.8571111  +6.6152326     906.2717     1389.615     1316.415     83.44596     166.9586     334.2168      1.666     5.31     991.9277     58.95806     116.8074        11     1.025     0.839 -15.26   0
       524    265.9511    134.1828 307.8253937  +6.6189573     764.8613     1205.308     1475.344     83.31255     167.3578     334.2501      1.660     5.31      989.387     58.95806     121.1532         9     1.285     0.621 -40.65   0
       525    122.7823    132.5961 307.8849418  +6.6148030      4193.72      7188.09     7667.171     83.44597     166.8253     334.3166      1.835     4.60     994.5058     58.95806     537.3196        34     1.714     1.056 -50.29   0
       526    462.0161    129.9789 307.7440582  +6.6272680     1186.021     1820.786      1747.32     83.57915     167.0252     334.3831      1.564     4.68     968.0154     58.95806     171.1742        11     1.304     0.566 -40.68   0
       527    393.5885    128.6796 307.7725387  +6.6255112     3204.793     6281.348     6364.868     83.44597     166.9586     334.3166      2.106     5.08     973.7923     58.95806     388.1877        36     1.731     1.221 -48.19   0
       528    650.5826    129.5051 307.6657100  +6.6337746     785.7264     1135.898     609.6426     83.71214     167.0918     334.3166      1.361     4.27     965.4755     58.95806      121.933         8     1.099     0.523 -37.99   0
       529    357.7585    127.6079 307.7874647  +6.6247524     2859.515     4796.579     5380.659     83.17894     167.0918     334.1835      1.813     4.29     978.2652     58.95806     356.1786        23     1.471     0.934 -45.95   0
       530    112.4474    127.4164 307.8894123  +6.6165941     1630.367     2633.336     2604.271     83.31256     167.2248     334.2501      1.751     4.68     994.6169     58.95806     257.4514        18     1.451     0.846 -53.98   0
       531    674.0787    125.6312 307.6560762  +6.6361596     645.1155     934.6824     508.9931     83.71214     167.2914     334.4497      1.450     3.41     965.1342     58.95806     102.4448         5     0.799     0.420 -20.48   0
       532   1004.6069    121.5640 307.5188476  +6.6488687     1496.063     2288.702     2172.677      83.0451     167.0252     334.2501      1.633     4.70      957.425     58.95806      253.377        17     1.453     0.834 -33.80   0
       533    209.8900    116.2751 307.8492975  +6.6244687     4685.565     7948.984     8109.231     83.84491     167.5571     334.5494      1.817     4.50     990.6621     58.95806     573.1003        34     1.686     1.048 -43.90   0
       534     92.4094    116.4262 307.8981122  +6.6204580     1748.242     3029.471     3239.673     83.44597     167.0918     334.3499      1.869     4.63     994.9626     58.95806     219.2792        23     1.567     0.933 -49.10   0
       535    671.5668    115.1205 307.6574750  +6.6404155     5391.708     8975.252     9265.778     83.71214     167.2914     334.4829      1.797     4.31     964.6887     58.95806     711.7213        35     1.762     0.989 -44.28   0
       536    849.0811    115.7153 307.5836811  +6.6460985     371.7864     677.8986     1137.265     83.57915     167.6235     334.5494      2.186     3.77      960.224     58.95806     90.34937         5     1.520     0.269 -41.43   0
       537    819.3096    115.0233 307.5960774  +6.6453906     828.7873     1428.695     1733.359     83.84491     167.0918     334.3166      1.551     4.04     961.0275     58.95806     162.2516         6     1.045     0.447 -59.12   0
       538    623.7846    112.4712 307.6774222  +6.6399117     8209.979     13962.88      15427.8     83.31256     167.2248     334.3499      1.862     4.45     965.2955     58.95806     1067.277        42     1.854     1.049 -43.60   3
       539    627.2797    104.0233 307.6762550  +6.6435166     46531.25     78105.77     84158.33     83.44596     166.9586     334.4497      1.802     4.30     965.0732     58.95806     6056.032        74     1.920     1.148 -45.00   3
       540    258.1238    113.3494 307.8293526  +6.6272964     726.5624     1125.652     871.0368     83.84491     167.3578     334.4829      1.751     5.11     989.5294     58.95806     94.66235         8     1.059     0.697 -67.83   0
       541     22.0681    111.9908 307.9274931  +6.6199229     802.6719     1410.273      1567.76     83.31255     167.0918     334.3831      1.946     6.05     1000.038     58.95806     112.0275        10     1.520     0.676 -53.32   0
       542    561.4802    111.7089 307.7033408  +6.6381420     569.8439     1024.247     1370.818     83.57916     167.5571     334.5494      1.992     3.82      965.525     58.95806     94.81134         6     0.921     0.454  -1.62   0
       543    350.7897    108.3994 307.7910112  +6.6324496     3249.471     6037.944     6549.238     83.44597     166.9586     334.2834      2.020     5.13      978.795     58.95806     429.3734        32     1.881     1.026 -42.39   0
       544    996.9799    107.4995 307.5224906  +6.6544219      786.874     1136.203     1437.122     83.84491     167.1583     334.2501      1.556     5.20     956.7158     58.95806     130.3625         8     1.004     0.761 -37.45   0
       545    532.9421    107.5228 307.7153423  +6.6389151     1615.925     2862.615     2494.559     83.97747     167.2914     334.4164      1.907     4.60     965.5327     58.95806     218.2892        19     1.452     0.877 -29.23   0
       546    306.2961     97.8397 307.8098593  +6.6353169     3011.693      5086.21     5391.933     83.84491     167.1583     334.6492      1.782     4.31     986.0233     58.95806     420.6997        24     1.523     0.930 -43.52   0
       547    705.9219     92.1395 307.6439729  +6.6510525     724.5107     1124.852     860.2933     83.97747     167.3578     334.4497      1.497     4.57     962.8978     58.95806     98.89771         8     1.093     0.543 -51.26   0
       548    677.5204     91.4758 307.6557989  +6.6503773     1129.387     1825.214     1863.371     84.10983     167.5571     334.6159      1.701     3.96     963.5392     58.95806     182.9184        12     1.279     0.720 -51.86   0
       549      4.1656     80.7559 307.9359938  +6.6322165     735847.5      1724918      1915107     83.57915     166.0232     295.4969      2.319     8.06     999.7031     58.95806     61663.92       321     2.366     1.636 -52.40  28
       550    691.6539     87.8675 307.6500468  +6.6523396     2866.546     4619.771       4656.7     83.84491     167.2248     334.3831      1.697     4.28     963.0639     58.95806     387.1953        23     1.495     0.928 -39.96   0
       551    433.3928     79.0184 307.7576777  +6.6473500     3416.534     5960.459     6434.351     83.44596     166.9586     334.3166      1.885     4.13     968.6803     58.95806     477.1271        31     1.593     1.064 -40.34   0
       552    887.9173     75.2838 307.5689029  +6.6640882     2078.065     3045.243     2972.613     83.57915     167.5571     334.5827      1.583     4.13     956.8502     58.95806     317.3629        19     1.469     0.746 -43.26   0
       553    905.9127     74.3462 307.5614553  +6.6650756     3676.689     5846.763     5946.091     83.84491     167.1583     334.6492      1.695     4.24      956.733     58.95806     491.7827        22     1.586     0.791 -46.71   0
       554    598.1105     72.9206 307.6894282  +6.6553831     1556.298     2707.885     2699.117     83.57915     167.5571     334.5827      1.800     5.31     964.0256     58.95806     252.5383        19     1.654     0.808 -40.00   0
       555    243.9333     72.7436 307.8366263  +6.6435854     627.8373     1192.464     1791.743     83.97747     167.2248     334.4497      2.621     5.56     988.9908     58.95806     104.7249         8     1.452     0.599 -42.69   0
       556    396.9826     70.6136 307.7730938  +6.6495998      1838.23      3216.11     2943.747     83.57915     166.9586     334.3831      1.854     5.46     972.4991     58.95806     250.8554        19     1.527     0.884 -39.06   0
       557    144.7309     67.7824 307.8780206  +6.6423011     2817.282     4777.697     4677.106     83.31255     167.1583     334.4164      1.842     4.82     990.5512     58.95806     350.4314        28     1.722     0.983 -46.32   0
       558     26.6472     65.6199 307.9271657  +6.6392224     11090.79     18754.76     20882.55     83.44597     167.2914     334.2834      1.856     4.34     996.6544     58.95806     1511.055        50     1.846     1.140 -46.25   0
       559    292.9604     66.3094 307.8164697  +6.6478878     1227.058     2056.628     2606.706     83.84491     167.2248     334.5162      1.922     4.66     987.0344     58.95806     165.8922        13     1.251     0.709 -48.14   0
       560    761.4075     64.9416 307.6218305  +6.6641361     647.9339     1002.167     1331.953     83.17893     167.1583     334.2168      1.433     4.93     959.7884     58.95806     90.43372         8     1.350     0.510 -57.13   0
       561    553.7973     65.3535 307.7081005  +6.6570246     690.8677     1176.507     836.6938     83.17894     166.9586     334.0836      1.986     5.41     964.3683     58.95806     95.87262         9     1.562     0.529 -30.60   0
       562    828.2526     60.1653 307.5942099  +6.6683400     5755.841     9226.547     10192.45     83.71214     167.2914     334.3831      1.734     4.20     957.0777     58.95806     846.5996        32     1.651     0.934 -47.13   0
       563    773.3802     60.5266 307.6170034  +6.6663589     2916.469     4676.994     5109.382     83.44597     167.2248     334.4164      1.758     4.21     959.0673     58.95806     425.9761        22     1.583     0.834 -45.17   0
       564    418.3726     61.3889 307.7645166  +6.6541256      1044.78       1705.6     1607.725     83.44597     167.0918     334.3499      1.812     4.20     969.8096     58.95806     141.9196         9     1.068     0.619 -29.53   0
       565    585.3783     75.2660 307.6946405  +6.6539887     719.0218     978.3915     542.1699     83.44597     167.2914     334.4164      1.300     4.66     964.2902     58.95806     111.6933         8     1.165     0.530 -66.80   0
       566     51.3245     58.5062 307.9171523  +6.6429899     884.6254     1233.524     1292.724     83.71214     167.4907     334.4829      1.521     5.70        994.6     58.95806     118.2075        11     1.406     0.651 -62.96   0
       567    535.9861     58.1480 307.7157464  +6.6594035     979.8138     1665.053     1994.697     83.17894     167.2248     334.2168      1.846     4.69     964.4078     58.95806     149.4212        12     1.251     0.725 -61.42   0
       568     67.1243     57.3514 307.9106257  +6.6439982     2762.215      4940.92     5368.512     83.71214     167.3578     334.4829      2.003     4.48      993.522     58.95806     394.0149        28     1.763     0.960 -47.37   0
       569    428.3332     57.2047 307.7605186  +6.6561870      819.572     1390.659     1779.006     83.31256     167.0252     334.2834      1.655     4.02     969.0015     58.95806     140.4219         6     0.944     0.489 -48.65   0
       570    590.7014     54.3849 307.6931337  +6.6627885      1165.91     1774.113     1484.834     83.84491     167.0252     334.2168      1.592     5.17     963.1688     58.95806     148.3233        12     1.153     0.763 -48.96   0
       571      9.3568     52.9299 307.9347822  +6.6438799      2400.56     4043.824      4725.45     83.71214     167.2914     334.5494      1.843     4.28     996.4949     58.95806      324.053        22     1.604     0.832 -46.64  16
       572     81.8542     49.3075 307.9047775  +6.6478148     715.5613     1061.396     768.2309     83.71214     167.2248     334.6492      1.446     5.96     992.2308     58.95806     93.18372         9     1.435     0.696  82.93   0
       573    768.2625     47.7159 307.6195625  +6.6714774     1682.931     2895.749     3495.725     83.97747     167.3578     334.4497      2.099     5.87     958.4564     58.95806     214.0129        18     1.558     0.768 -46.03   0
       574    408.7865     48.3535 307.7689418  +6.6591864     866.3063     1173.763      943.916     83.17894     167.0918     334.2501      1.537     4.70     970.9333     58.95806       134.01        10     1.228     0.726 -29.79   0
       575    105.4911     46.8324 307.8950387  +6.6496316     822.9148     1270.605     1255.407     83.97747     167.0918     334.5162      1.781     4.33     991.1129     58.95806     113.7286         7     1.076     0.496 -41.21   0
       576     94.6965     41.8411 307.8996942  +6.6513294     8424.553     14372.86     15339.96     83.84491     167.1583     334.6492      1.836     4.28     991.2395     58.95806      1114.49        44     1.813     1.082 -46.69   0
       577    424.0774     41.3660 307.7628234  +6.6625840         2233     4008.184     4266.531     83.71214     167.2914     334.4497      1.945     5.37     969.2982     58.95806     284.5989        25     1.679     1.018 -36.16   0
       578    245.0024     41.5689 307.8372390  +6.6564927     695.2026     1040.518      673.239     83.17893     167.0918     334.2501      1.506     4.62     987.9322     58.95806     107.3864         7     1.155     0.525 -25.09   0
       579    637.4556     33.7101 307.6744007  +6.6728889     16669.13     26849.78     28828.63     83.71214     167.0918     334.6159      1.777     4.11     961.4749     58.95806     2331.674        51     1.787     1.087 -44.90   0
       580    261.1411     35.9381 307.8307228  +6.6593595      1324.37     2219.065      3295.87     83.84491     167.2248     334.5162      2.156     4.99     987.2657     58.95806       214.76        11     1.290     0.669 -44.95   0
       581    537.2000     29.7902 307.7162006  +6.6711528     4425.092      7657.18     8013.957     83.17893     166.9586     334.2168      1.855     4.28     963.7444     58.95806     625.7266        37     1.720     1.078 -46.99   0
       582    255.5382     30.1720 307.8332468  +6.6615521      1705.95     2874.425     4630.733     83.44596     167.2914     334.4497      2.054     4.60     987.2027     58.95806     248.0698        17     1.471     0.774 -39.94   3
       583    893.0905   1019.0477 307.5349836  +6.2745725     1417.246     2366.968     2779.673     83.84491     167.1583      316.929      1.843     5.01     997.4086     58.95806     195.7021        16     1.519     0.790 -52.93  16
       584    215.9079   1017.3395 307.8162630  +6.2526301     2158.458      3282.58     4121.833     83.71214     167.2914      331.275      1.631     4.57     1013.798     58.95806     346.4304        17     1.501     0.676 -40.49  16
       585      4.7095     27.9357 307.9375629  +6.6540429     1079.979     1724.723     1870.979     83.71214     167.4907     302.6381      1.723     4.61     994.1176     58.95806     172.4031        12     1.348     0.637 -45.90  16
       586    719.1634   1014.4485 307.6073696  +6.2706690     7228.541     11310.37     12518.56     83.71214     167.2248     334.3499      1.714     4.48     1003.111     58.95806     997.2133        33     1.697     0.877 -44.71  16
       587     28.5703     25.6959 307.9277230  +6.6557707     2069.346     3297.879     3389.207     83.97747     167.0252     334.4829      1.754     4.45     993.0122     58.95806     285.9976        20     1.472     0.890 -43.00   0
       588    323.5883     26.2882 307.8050971  +6.6654396     754.5163     1401.009     1146.028     83.44597     166.9586     334.3166      2.015     5.07     981.7834     58.95806     136.9067         7     1.416     0.513 -27.14   0
       589    920.8046     25.2231 307.5569205  +6.6858551     1964.678     2879.296     2455.463     83.44596     167.0252     334.3166      1.585     4.14     953.3284     58.95806     341.8644        19     1.517     0.729 -40.19   0
       590    555.5668     25.1648 307.7087236  +6.6736774     596.5361     1043.317      1010.22     83.44596     167.0252     334.2168      1.785     4.40      963.104     58.95806     73.47815         7     1.127     0.489 -41.83   0
       591    251.3512     22.4163 307.8352498  +6.6646137     2569.972      4539.27      5805.71     83.31256     167.3578     334.1835      1.906     4.56     987.0792     58.95806     351.9347        25     1.607     0.930 -43.36   0
       592    304.3571     21.0321 307.8132677  +6.6669645     900.0221     1412.107     1189.128     83.31255     167.2248     334.2834      1.677     4.92     984.0773     58.95806      133.124         9     1.084     0.633 -35.07   0
       593    941.0096     15.6256 307.5488458  +6.6904915     799.6583     1375.877     1285.496     83.44596     167.0918     334.3499      1.926     4.16     951.3806     58.95806      155.031         7     1.061     0.465 -48.06   0
       594    434.1089   1014.6516 307.7257416  +6.2610538     3826.483     6131.706     6823.524     83.71214     167.0918     334.6492      1.733     4.38     1011.802     58.95806     574.8065        25     1.686     0.784 -50.88  16
       595    711.5032   1013.8198 307.6105720  +6.2706729     1065.198     1850.969     2315.973     83.71214     167.0918     334.2501      1.925     6.38     1003.202     58.95806     181.2505        13     1.815     0.630 -50.13  16
       596    575.1909   1013.5585 307.6671898  +6.2662259     4013.804     6456.367     7264.688     83.17894     167.0918     334.2168      1.729     4.46     1008.076     58.95806     606.4001        27     1.757     0.835 -45.24  16
       597    751.3284   1009.8099 307.5941679  +6.2736582     1284.413     2087.979     3275.194     83.31255     166.8919     334.2834      1.717     4.18     1001.923     58.95806     179.9854        12     1.288     0.605 -45.71   0
       598    958.7604   1003.9805 307.5082174  +6.2829823     6344.023     10417.08     10203.05     83.44596     167.0918     334.1835      1.735     4.45     994.9293     58.95806     840.5768        37     1.747     0.964 -49.66   0
       599    242.9814   1004.2147 307.8054647  +6.2589576     1384.933     1944.692     1807.575     83.57915     166.9586     334.3831      1.454     4.23     1013.874     58.95806     229.5662        15     1.420     0.738 -54.89   0
       600    712.6837   1004.6774 307.6103898  +6.2744872      870.697     1396.137     1682.954     83.97747     167.6235     334.5827      1.552     3.96     1002.918     58.95806     161.1356         9     1.275     0.606 -36.13   3
       601    718.2209   1002.2142 307.6081732  +6.2756892     2721.386     4348.582     5588.332     83.57915     167.0252     334.3831      1.848     3.88     1002.731     58.95806     484.1539        21     1.666     0.767 -41.26   2
