#   1 NUMBER                 Running object number                                     
#   2 X_IMAGE                Object position along x                                    [pixel]
#   3 Y_IMAGE                Object position along y                                    [pixel]
#   4 ALPHA_J2000            Right ascension of barycenter (J2000)                      [deg]
#   5 DELTA_J2000            Declination of barycenter (J2000)                          [deg]
#   6 FLUX_APER              Flux vector within fixed circular aperture(s)              [count]
#   9 FLUXERR_APER           RMS error vector for aperture flux(es)                     [count]
#  12 FLUX_RADIUS            Fraction-of-light radii                                    [pixel]
#  13 FWHM_IMAGE             FWHM assuming a gaussian core                              [pixel]
#  14 BACKGROUND             Background at centroid position                            [count]
#  15 THRESHOLD              Detection threshold above background                       [count]
#  16 FLUX_MAX               Peak flux above background                                 [count]
#  17 ISOAREA_IMAGE          Isophotal area above Analysis threshold                    [pixel**2]
#  18 A_IMAGE                Profile RMS along major axis                               [pixel]
#  19 B_IMAGE                Profile RMS along minor axis                               [pixel]
#  20 THETA_IMAGE            Position angle (CCW/x)                                     [deg]
#  21 FLAGS                  Extraction flags                                          
         1     20.8316     75.3298 307.9361989  +6.6320539     734095.4      1452864      1551420     84.21673     168.2997     336.4656      2.054     4.36     1010.769     59.31343     61067.43       418     2.074     1.812 -84.28   4
         2    640.8353     18.7785 307.6804835  +6.6762224     3394.345     5448.665     6128.938     83.81474     168.0989     336.2313      1.799     5.14     976.3585     59.31343     530.2546        30     1.930     0.856  71.85   0
         3    459.7757     19.9104 307.7556838  +6.6696878     25877.57     35535.32     36760.16     84.48366     168.0989     336.3318      1.471     2.99     982.4064     59.31343     3665.834        44     1.300     1.109  86.08   0
         4    280.3770     20.3599 307.8302147  +6.6634794     10164.83     14147.12     15277.58     83.94894     168.0989     336.2648      1.500     2.87     999.9155     59.31343     1403.457        33     1.240     1.099 -89.70   0
         5     45.7579     19.9642 307.9277167  +6.6557492     2491.056     3470.018     3150.914     84.08294     168.2997     336.3318      1.456     3.14     1006.288     59.31343      377.054        16     1.225     0.811 -85.66   0
         6    268.3450     17.0378 307.8353266  +6.6644465     3300.034     4721.772     5262.627      84.3503     168.3666     336.5325      1.540     3.09     1000.167     59.31343     443.9647        19     1.164     0.961 -84.84   0
         7    958.1819     10.0658 307.5488998  +6.6904261     1131.714     1207.577     863.2445     83.94894     168.2997     336.3987      1.099     2.86     965.4598     59.31343     202.6761         7     0.836     0.529  52.65   0
         8    709.6295      9.4373 307.6522101  +6.6823811     2132.107     2456.318     2421.455     83.94894     168.0319     336.3652      1.262     2.69     973.6276     59.31343     324.7096        13     0.933     0.813  86.30   0
         9    114.8807      9.5624 307.8993473  +6.6623708     700.9542     874.0951     557.2079      84.3503     168.3666     336.4322      1.178     4.18     1002.176     59.31343     133.0014         6     1.082     0.461  60.11   0
        10    220.7219      4.9667 307.8555232  +6.6678288     961.5908     1377.982     1441.904     84.21673     168.2997      307.516      1.427     4.10     1001.083     59.31343     151.9152         9     1.041     0.767  56.52  16
        11    275.0638      4.1985 307.8329684  +6.6699726     877.4708     1306.878     1805.296     83.68031     167.1587     297.7322      1.593     4.50     999.7618     59.31343     120.0968         7     0.923     0.623  51.77  16
        12    197.9102      2.5327 307.8650843  +6.6680665     12481.84     15794.85     15917.91     84.48366     151.4712     273.2438      1.394     3.05      1000.79     59.31343     1690.645        28     1.118     1.053 -34.28  24
        13     11.2854      2.5405 307.9426304  +6.6617805     1157.145     1262.519     772.5184      84.3503     151.6198     273.5321      1.319     3.93     1007.456     59.31343     159.1711        10     0.980     0.687 -83.25  24
        14    542.2224      1.4240 307.7220465  +6.6800837     2192.026     2409.757     2653.058     74.42359     135.2138     254.6474      1.017     2.47     976.1793     59.31343     522.8457         9     0.894     0.559  -2.58  24
        15    943.5435      1.2100 307.5552802  +6.6935936     1748.368     1803.675     1448.129     71.33412     131.9267     250.8615      0.812     1.63     966.7258     59.31343     580.8442         8     0.922     0.399   5.74  24
        16    260.3421    998.4866 307.8055194  +6.2590068     1807.877     2169.084     2040.719      84.3503     168.2997     336.6663      1.235     2.52     1024.559     59.31343     297.7089        11     0.893     0.727 -74.91   0
        17    601.4195   1019.7172 307.6631860  +6.2616753     202916.7     247629.1     254271.4     83.94894     167.9649        311.3      1.192     2.44     1021.303     59.31343     36670.94        82     1.217     1.028  86.00  19
        18    603.1782   1012.5457 307.6626969  +6.2646949      94226.5       115844     120927.3     83.81474     168.2997     336.2983      1.231     2.28     1021.066     59.31343     18122.95        68     1.245     1.022  88.47   3
        19    418.7241   1022.8450 307.7389377  +6.2542646     864.0569      1030.48      805.377     82.32397       146.33     267.2029      1.109     3.40     1022.713     59.31343     185.6453         5     0.768     0.436  81.08  24
        20    235.3074   1022.5174 307.8151030  +6.2482454      4912.99     6064.142     6339.584     84.08295     151.0246     272.7902      1.219     2.47     1024.709     59.31343     872.0156        18     1.016     0.814  72.16  24
        21    458.5331    997.6647 307.7232565  +6.2659943     1059.776     1363.525     1388.997      84.3503     168.2997     336.5325      1.334     2.35     1021.689     59.31343      232.651         9     0.835     0.729 -78.03   0
        22    751.1528    995.9625 307.6018113  +6.2764896     1418.773     2011.317     1922.192     84.21673     168.2997     336.3652      1.386     2.95     1015.305     59.31343     257.2007        11     1.030     0.739 -76.85   0
        23    735.5080    996.6032 307.6082860  +6.2757022     3424.631     4336.353     4271.487     83.94895     167.9649     336.2313      1.204     2.24      1015.75     59.31343     585.3143        16     0.935     0.824  87.21   0
        24    382.2257    994.1200 307.7550597  +6.2648995     2346.837      2804.18     2855.854     84.08294     168.0989     336.4991      1.182     2.32     1022.988     59.31343     473.0853        13     0.925     0.756  83.66   0
        25    230.3404    993.0848 307.8181584  +6.2602293     513.6276     562.0886     572.9471      84.3503     168.3666     336.5994      1.162     3.44     1024.505     59.31343     106.6714         5     0.797     0.430  72.76   0
        26    992.1606    991.7040 307.5018788  +6.2862919     828.2211     873.5613     604.1473      84.3503     168.1659     336.6329      1.074     2.48     1008.543     59.31343     171.4556         7     0.737     0.613   8.56   0
        27    720.7594    990.6293 307.6146106  +6.2776755     591.7892     654.7604     647.7867     83.94894     168.0989     336.3652      1.150     4.24     1015.767     59.31343     98.58276         6     0.749     0.683 -47.90   0
        28    768.9875    983.6914 307.5948176  +6.2821516      10447.9     12624.78      12680.2     84.08294     168.0319     336.2648      1.212     2.18     1014.506     59.31343     2160.859        24     1.060     0.841 -88.21   0
        29    564.4207    984.3182 307.6797390  +6.2750511     5501.625     7013.377     7648.013     84.08295     167.9649     336.4322      1.245     2.44     1020.124     59.31343     858.6235        21     1.110     0.847 -88.55   0
        30    534.7652    985.4324 307.6920152  +6.2735981      1414.71     1656.993     1050.483     83.94894     168.0319     336.2313      1.175     2.63      1020.33     59.31343     253.5415        10     0.908     0.677  88.76   0
        31    439.3204    983.7828 307.7317014  +6.2710814     1294.059     1654.057      1677.75     83.94894     167.9649     336.3987      1.253     3.05     1021.795     59.31343     251.3561        11     1.037     0.748 -82.94   0
        32    314.5766    983.0803 307.7835205  +6.2671875     18919.99     23539.57     24894.26     83.94894     167.9649     336.4656      1.212     2.39     1023.955     59.31343       3465.2        33     1.108     0.939 -86.52   2
        33    318.7291    980.6447 307.7818784  +6.2683324     1242.198     1716.146     2438.782     84.21673     168.2997     336.4991      1.432     3.04     1023.866     59.31343     232.9163         8     0.929     0.552  81.57   3
        34    830.0693    983.1021 307.5694740  +6.2844351     1300.303     1613.115     1653.298     84.21673     168.4335     336.4991      1.322     3.31      1013.03     59.31343     259.0788        10     1.040     0.753  79.96   0
        35     11.2776    984.0234 307.9094183  +6.2566046     923.8727     904.0637     1304.158     83.94894     168.0989     336.4322      1.057     2.13     1025.615     59.31343     198.9974         7     0.698     0.632 -72.92   0
        36    286.0065    980.7220 307.7954626  +6.2672022     1057.671     1357.262     1452.475     83.94894     167.7637     336.2983      1.226     2.93     1024.324     59.31343     225.5631         6     0.892     0.447  89.83   0
        37    648.3539    979.6893 307.6450431  +6.2797709     539.1266     795.4379     1002.839      84.3503     168.1659     336.6329      1.319     3.49     1017.637     59.31343     138.4258         5     0.752     0.467 -79.91   0
        38    930.3386    977.1238 307.5280384  +6.2902497     11404.31     14059.55     14680.52     84.61681     168.2997     336.4991      1.221     2.34     1011.247     59.31343     2134.429        27     1.067     0.921  87.22   0
        39    561.6247    976.5071 307.6811626  +6.2781822     10956.66     13007.65     13363.82     84.48366     168.0319     336.3318      1.154     2.39     1019.973     59.31343     1903.995        22     1.065     0.794 -84.39   0
        40    418.7728    977.7339 307.7404368  +6.2728898     454.2595     675.3555     871.4414     83.94894     168.1659     336.3987      1.555     3.49     1022.085     59.31343     86.96698         5     0.828     0.630  42.65   0
        41     60.3582    976.7910 307.8892850  +6.2612419     674.1101     835.7534     599.9409     83.68031     168.0989     336.2313      1.274     4.68     1025.459     59.31343     104.0861         8     1.334     0.467 -84.93   0
        42     13.7492    975.5674 307.9086780  +6.2601786     921.5557     924.2112     949.9913     84.21673     168.3666     336.4322      1.177     3.29     1025.473     59.31343     137.3925         8     0.868     0.654 -53.74   0
        43    903.9560    973.3088 307.5391215  +6.2909445     15993.21     19922.56     20196.45      84.3503     168.2328     336.6329      1.256     2.33     1011.422     59.31343     3061.808        34     1.110     1.044 -63.83   0
        44    616.6621    973.8040 307.6584004  +6.2811403     1731.184     2064.241     1997.432     83.68031     168.0319     336.1978      1.127     2.47     1019.169     59.31343     373.4794        10     0.985     0.589 -82.56   0
        45    552.5782    973.5574 307.6850182  +6.2790970     586.3428     876.6693     1616.762     83.81474     168.1659     336.3318      1.251     2.68     1019.963     59.31343     165.0769         5     0.932     0.473  77.15   2
        46    547.9929    972.3096 307.6869642  +6.2794587     5403.729     6827.884     7089.461     83.94894     167.9649     336.2648      1.262     2.13      1019.96     59.31343     1111.893        20     1.063     0.853  88.63   2
        47    657.7616    971.6667 307.6414063  +6.2833976     1954.476     2310.634     1894.788     84.21673     168.2328     336.5994      1.143     2.16     1016.929     59.31343     421.0335        13     0.951     0.754 -79.11   0
        48    921.9578    970.9937 307.5317239  +6.2925009     614.0034     671.5582     1056.165     83.81474     167.9649     336.1978      1.216     4.45      1011.06     59.31343     135.7072         5     1.184     0.475 -73.24   0
        49     82.9854    970.9064 307.8800891  +6.2644324     1109.073     1359.045     1621.849     84.08295     168.0319     336.3318      1.272     3.43      1025.32     59.31343      220.866        10     0.984     0.731 -45.24   0
        50    813.3336    970.2365 307.5768549  +6.2891877     713.2327     962.0049      909.208     84.21673     168.2328      336.566      1.040     2.04     1013.105     59.31343      180.147         5     0.692     0.448  73.71   0
        51    501.2466    968.8228 307.7064918  +6.2793326     2848.975     3180.037     2952.244     83.94894     168.2997     336.3652      1.157     2.19     1020.448     59.31343     591.5497        15     0.979     0.739 -84.37   0
        52    409.1500    967.2031 307.7447871  +6.2769147     504.3695     675.9545     1213.529     83.68031     167.9649     336.0639      1.754     3.93     1022.122     59.31343     115.6897         5     0.920     0.655  19.91   0
        53    996.6796    965.6118 307.5008761  +6.2972147      438.129       588.35     682.4074     83.94894     167.9649     336.3318      1.082     3.85     1007.063     59.31343     80.53021         5     1.015     0.419  15.63   0
        54    935.6729    960.8418 307.5263690  +6.2971496     57579.38      70681.4     72335.51     84.21673     168.3666     336.5325      1.219     2.31     1010.014     59.31343     10533.71        47     1.151     0.972  80.88   0
        55      8.4804    960.7909 307.9113653  +6.2661013     3950.698     5124.948     5729.149     83.94894     167.8979     336.3318      1.278     2.53     1025.219     59.31343     667.4977        18     1.094     0.809 -84.65   0
        56    340.5976    962.0322 307.7734257  +6.2767501     795.1982     962.8044     1114.827     83.54566     168.0989     336.2648      1.204     2.80     1023.276     59.31343     171.3785         6     0.794     0.476 -79.49   0
        57    242.9946    959.3286 307.8140433  +6.2745899     2386.125     3040.687     3127.499     83.94894     167.8979     336.3987      1.299     2.34     1024.229     59.31343     459.7144        15     1.063     0.793 -71.53   0
        58    131.1995    957.9199 307.8605092  +6.2714149     842.5255     802.5016     544.9503     83.54566     167.6295     336.2313      1.208     4.58     1024.797     59.31343     152.9558         7     1.156     0.587 -81.31   0
        59    781.8433    952.4555 307.5905277  +6.2954767     8762.953     10666.64     11030.53      84.3503     168.2997     336.4991      1.212     2.19     1013.481     59.31343     1691.228        24     1.049     0.857  89.77   2
        60    641.8346    957.2279 307.6485050  +6.2888258     1108.335     1211.979     1057.325     83.81474     168.0319     336.2648      1.185     3.34     1017.403     59.31343     202.0514         9     1.074     0.561  81.55   0
        61    833.5995    954.6736 307.5689616  +6.2962896     3091.029     3405.556     3105.513     83.54567     167.6295     336.3318      1.088     2.39      1012.21     59.31343     604.0604        14     0.964     0.741  81.47   0
        62    749.3385    953.9639 307.6039746  +6.2937679     509.9051     681.6992     678.5671      84.3503     168.2997     336.4656      1.094     3.34      1014.25     59.31343     117.8243         5     1.347     0.239  72.07   0
        63    251.1941    951.7784 307.8108934  +6.2779822     2009.539     2590.587     2816.596     83.94894     168.0319     336.2983      1.246     2.57     1024.119     59.31343      402.458        13     0.927     0.788  84.40   0
        64    568.5651    951.8084 307.6791115  +6.2886112     1111.962     1587.656     1448.816     83.81474     168.0989     336.2983      1.506     3.05      1019.31     59.31343     214.5481         8     0.983     0.495  88.94   0
        65    215.6587    951.4207 307.8256604  +6.2769363     944.3148      1161.36     1272.934     83.94894     168.1659     336.2983      1.440     3.73     1024.323     59.31343     147.1721         9     0.984     0.665 -86.51   0
        66    970.0242    947.6458 307.5125466  +6.3037433     8948.235     10969.52     10688.31     83.94894     168.2997     336.3652      1.252     2.32     1007.584     59.31343     1624.022        24     1.067     0.896  86.41   0
        67     76.1964    949.6155 307.8836274  +6.2729934     3544.319     4286.188     3652.656     83.94894     167.8979     336.3318      1.217     2.45     1024.902     59.31343     664.5089        14     0.948     0.776 -84.32   0
        68    226.3502    943.7693 307.8214793  +6.2804542     720.2891     949.9345     646.0364     83.94894     168.3666     336.3987      1.309     2.84     1024.241     59.31343     131.2124         5     0.744     0.433 -70.72   0
        69    652.3433    942.0585 307.6446512  +6.2954400     1097.858     1186.157     881.1885     84.48366     168.2997     336.5325      1.086     1.82     1016.627     59.31343     241.5823         7     0.678     0.601 -86.72   0
        70    943.7302    939.2997 307.5237450  +6.3063120     2847.885     3495.677     3576.527      84.3503     168.4335     336.4991      1.255     2.70     1008.385     59.31343     489.6315        14     1.066     0.722  86.04   0
        71      1.5862    937.4174 307.9150183  +6.2755184     1087.333     1145.731     1586.245     76.21719     137.4435     257.4613      1.035     2.44      1024.82     59.31343     231.3073         7     0.862     0.479  80.89  24
        72    803.4108    935.9336 307.5821263  +6.3030182     1673.761     1929.064     1769.813     83.81474     168.0989     336.3318      1.095     2.52     1012.716     59.31343     337.5741        10     0.845     0.676  68.20   0
        73    276.6995    935.4990 307.8008522  +6.2855593     5504.661     6685.134     6437.649      84.3503     168.7006     336.3318      1.217     2.40     1023.716     59.31343     952.3343        18     1.070     0.782 -79.89   0
        74    664.4779    935.2043 307.6398427  +6.2986755     5719.438     7091.812     7172.488     83.94894     167.7637     336.2983      1.170     2.35     1016.034     59.31343     984.6654        18     0.966     0.806 -81.13   0
        75   1013.8834    935.0531 307.4947554  +6.3104044     1035.846     1239.376      1749.17      84.3503     168.2997     336.6329      1.223     2.40     1004.831     59.31343     195.8557         8     0.779     0.646  62.83   0
        76    486.6582    933.7205 307.7137308  +6.2933354     1222.303     1362.925     797.3203      84.3503     168.2997     336.4656      1.031     2.20     1019.862     59.31343     297.1075         7     0.869     0.461 -81.14   0
        77     45.4412    932.7823 307.8969662  +6.2789078     2684.802     3339.156     3370.295     83.81474     168.0989     336.2648      1.265     2.43      1024.64     59.31343      462.136        17     1.113     0.799 -87.84   0
        78    896.4761    931.8082 307.5436187  +6.3078284      1213.35     1492.529     1478.185     83.94894     167.7637     336.2648      1.183     2.32     1009.664     59.31343     231.2952         7     0.841     0.496 -85.00   0
        79    988.6992    929.7552 307.5053909  +6.3117521     787.4121     1015.278     886.1749      84.3503     168.2328     336.7332      1.160     2.79     1005.785     59.31343     145.2153         6     0.750     0.526  44.35   0
        80   1020.8731    926.6369 307.4921347  +6.3141120     1072.978     2082.977     2048.404     84.21673     166.8216     296.8991      1.955     6.40     1004.179     59.31343     155.0641        13     1.745     0.658 -78.71  16
        81    967.8144    928.6832 307.5140995  +6.3114984     1043.948      1539.25     1201.127     83.94894     168.0319     336.2983      1.620     3.15     1006.716     59.31343     203.9595         9     0.866     0.817 -27.45   0
        82    589.1194    927.8273 307.6713830  +6.2991996     2312.485     2699.973     2396.025     84.21673     168.0989     336.5325      1.139     2.44     1018.259     59.31343     464.2417        14     0.973     0.757 -66.77   0
        83    312.6974    928.8500 307.7861292  +6.2895126     1092.199     1527.742     1699.923     84.21673     168.2328     336.6663      1.216     3.03     1023.196     59.31343     225.0089         8     0.906     0.593  77.51   0
        84    177.1692    925.3690 307.8425213  +6.2863980     479.8712     617.6738     333.7289     83.81474     168.0319     336.2313      1.478     3.49     1024.335     59.31343     109.2987         5     0.954     0.368 -85.36   0
        85    628.4738    924.1618 307.6551644  +6.3020299     1626.396     1891.169     1628.972     84.21673     168.2997      336.566      1.086     2.47     1016.975     59.31343     319.2566        11     0.971     0.626 -84.49   0
        86     78.2790    924.7761 307.8836022  +6.2833178     907.8564     1141.071      1373.49     83.94894     168.0989     336.4991      1.200     2.25     1024.375     59.31343      201.308         5     0.705     0.438 -80.01   0
        87     73.2965    923.5811 307.8857113  +6.2836435     550.2997     1020.732     1420.865     84.21673     168.1659     336.2648      1.537     3.31     1024.363     59.31343     127.9474         5     0.985     0.332  70.24   0
        88    308.3105    921.7912 307.7881888  +6.2922795     1810.282      2434.07     2598.871     84.08295     167.9649     336.2648      1.294     2.68     1023.212     59.31343     353.5992        12     0.984     0.667  89.13   0
        89    576.3190    920.3804 307.6769487  +6.3018455     705.0624     1011.655     730.8236     83.94894     167.9649     336.4322      1.191     2.78      1018.28     59.31343     169.3693         5     0.867     0.448  14.66   0
        90    775.4225    917.7453 307.5943590  +6.3095922     1178.316     1422.518     1308.873     83.81474     168.2997     336.2983      1.199     4.16     1012.798     59.31343     234.4179         9     1.134     0.584 -69.07   0
        91    912.7602    914.5107 307.5374364  +6.3155130     9408.771     11174.81     11681.21      84.3503     168.2997     336.5325      1.161     2.25     1008.316     59.31343     1669.852        24     1.008     0.915  89.66   0
        92    150.5724    916.3190 307.8538704  +6.2892402     646.2401     1010.332     1011.898     84.21673     168.0989     336.4656      1.382     3.32     1024.329     59.31343      134.598         5     0.924     0.511 -50.34   0
        93    448.6967    911.7054 307.7302351  +6.3011519      2608.64     3024.555     2897.641      84.3503     168.9007     336.3652      1.147     2.48     1020.236     59.31343     474.1071        14     0.991     0.759 -70.24   0
        94    121.9758    913.2244 307.8658489  +6.2895563     558.7516     771.8074     704.2089     83.81474     168.0989     336.3987      1.178     3.73     1024.164     59.31343     89.80884         5     0.811     0.492 -55.83   0
        95    350.3044    910.1378 307.7711444  +6.2984996     12161.82      15204.2     16031.06     84.08295     168.3666      336.566      1.252     2.32     1022.564     59.31343     2237.168        27     1.141     0.880 -85.11   0
        96    617.7623    911.0468 307.6600532  +6.3070860     713.2081     744.6741     351.3722     84.21673     168.2328     336.3652      1.221     4.20     1016.731     59.31343     122.8573         6     1.106     0.454 -62.80   0
        97    270.3636    909.0603 307.8043749  +6.2962613     8830.037     11014.95     11557.59      84.3503     168.2997     336.4656      1.233     2.42     1023.549     59.31343     1514.161        21     1.049     0.837 -86.06   0
        98    782.6746    903.2718 307.5918333  +6.3158098      932.333      1108.72     854.1353     84.61681     168.4335     336.5325      1.148     3.01     1012.174     59.31343     191.2828         8     0.877     0.743 -80.65   0
        99    598.3299    903.5461 307.6683748  +6.3095323     1421.862     1588.865     1687.721     84.21673     168.2328     336.4322      1.109     2.34      1017.05     59.31343     237.5029        10     0.866     0.673  82.61   0
       100    928.3807    899.8721 307.5314404  +6.3220777     1312.778     1828.275     1708.422     83.94894     168.2328     336.4322      1.268     2.21     1007.206     59.31343      256.038         7     0.690     0.642  83.78   0
       101    884.2165    898.3107 307.5498328  +6.3212487     947.6669     1508.985     1099.445     84.08295     168.0319     336.3652      1.712     3.93     1008.157     59.31343     188.7659        12     1.145     1.036 -69.79   0
       102    427.3673    898.1520 307.7395485  +6.3060323     793.1954     1129.457     1009.179     84.08294     168.2997     336.4322      1.426     2.46     1020.423     59.31343     190.8375         7     0.899     0.475 -83.76   0
       103    232.3449    899.2441 307.8204927  +6.2990370     751.0989     961.7012     1254.854      84.3503     168.2997     336.5325      1.115     2.74     1023.793     59.31343     146.5228         6     0.696     0.633 -30.59   0
       104    160.9300    899.3082 307.8501442  +6.2966109     714.0643     994.1136     944.6201      84.3503     168.4335     336.5325      1.207     2.02     1024.303     59.31343     175.2352         5     0.707     0.426 -18.30   0
       105    995.8666    895.4613 307.5035631  +6.3261494     905.3705      1039.66     874.2123      84.3503     168.2328     336.4991      1.157     2.38     1004.128     59.31343     180.2249         8     0.806     0.638 -57.91   0
       106    857.6445    893.6308 307.5610242  +6.3222938     726.4554     879.6654     1047.349     83.94894     168.3666     336.3652      1.183     3.22     1008.706     59.31343     152.3506         5     0.750     0.441  72.13   0
       107    588.6719    893.3541 307.6727281  +6.3134167     934.9729     824.0275     962.5577     84.21673     168.3666     336.4991      1.120     3.49     1016.908     59.31343     145.1496         7     0.906     0.528 -61.99   0
       108    764.7276    892.7465 307.5996393  +6.3195555      2144.68     2583.986     2199.015     84.21673     168.2328     336.4656      1.154     2.27     1012.307     59.31343     413.8472        12     0.916     0.728 -79.51   0
       109    839.9715    890.8768 307.5684557  +6.3228407     536.3737     702.1912     829.6441     84.21673     168.2997     336.4991      1.138     3.03     1009.425     59.31343     119.4468         5     0.802     0.478  62.59   0
       110     15.1992    889.8157 307.9109759  +6.2956277     1292.817     1502.283     1774.252     83.94894     167.8979     336.2313      1.201     3.07     1023.588     59.31343     220.5089        10     1.007     0.631  84.78   0
       111    629.0569    889.3754 307.6560916  +6.3164108     1064.022     1349.055     905.8716     83.94894     168.2997     336.2983      1.359     2.53     1015.396     59.31343     188.2986         9     0.874     0.632 -65.49   0
       112    996.3097    888.4294 307.5036146  +6.3290673     1739.365     2198.143     2365.465     84.48366     168.0319     336.4322      1.254     2.32     1003.863     59.31343     322.8063        13     0.956     0.779 -60.18   0
       113    640.4147    889.1452 307.6513829  +6.3168858      724.375     827.5967     538.5594     83.68031     168.2328     336.1978      1.296     1.76     1015.057     59.31343     151.1137         5     0.661     0.451  65.68   0
       114    549.9323    888.5963 307.6889749  +6.3140839      1482.43     1726.417     1794.737     83.68031     167.8979     336.2648      1.139     2.26       1018.2     59.31343     272.4574         9     0.808     0.669 -63.84   0
       115    683.4156    885.9556 307.6336334  +6.3196410     3129.037     3850.607     3804.693     83.81474     168.0989     336.2983      1.169     2.20     1013.753     59.31343     609.6522        16     0.992     0.746 -76.73   0
       116    973.5027    883.9893 307.5132346  +6.3301400     916.2148     1162.128     1048.851     84.08294     167.8979     336.2983      1.300     2.30     1004.607     59.31343     176.2637         6     0.745     0.499  86.52   0
       117    844.1976    882.3923 307.5669853  +6.3264847      1124.41     1514.148     1200.729     83.68031     167.9649     336.2983      1.195     2.48     1008.764     59.31343     221.1973         9     0.858     0.636 -79.30   0
       118     97.4738    881.6249 307.8770904  +6.3017774     2496.685     3014.188     3031.912     83.94895     168.0989     336.4322      1.231     2.57     1023.305     59.31343      374.288        14     0.986     0.776 -84.79   0
       119     79.9246    882.0792 307.8843619  +6.3009995     3723.976      4899.99     4532.283     84.61681     168.5671     336.5994      1.361     2.61     1023.319     59.31343      703.442        21     1.168     0.891 -71.51   0
       120    961.3844    881.5774 307.5183479  +6.3307316     1154.096     1402.611     895.5497     84.08295     168.0989     336.3987      1.282     2.92     1005.051     59.31343     181.2523         8     0.922     0.546  70.95   0
       121    223.5769    881.0673 307.8247470  +6.3062464     2627.194     3131.375     3264.937     83.94894     168.2328     336.4322      1.260     3.43      1023.67     59.31343     461.1968        16     1.098     0.795  86.07   0
       122    257.5528    878.0044 307.8107422  +6.3086520     1069.361     1148.357       792.45     83.68031     168.0319     336.1644      1.132     2.28     1023.391     59.31343     191.6016         8     0.734     0.681 -16.76   0
       123    677.9719    875.1355 307.6362575  +6.3239259     9155.312     11052.76     10857.63     83.94894     168.2997     336.4322      1.216     2.11     1013.416     59.31343     1923.205        25     1.090     0.834 -85.52   0
       124    362.4980    877.0546 307.7671962  +6.3125666     1042.728     1214.435     1291.849     84.21673     168.2997     336.7332      1.215     2.89     1021.966     59.31343     188.3948         6     0.770     0.499 -86.35   0
       125    815.5004    876.1283 307.5791127  +6.3281124     1048.136     1296.233     997.6794     84.08294     168.4335     336.5325      1.024     2.18     1010.008     59.31343     213.2563         6     0.729     0.500 -89.62   0
       126     38.0444    873.6724 307.9020359  +6.3030610     1357.062     1755.502     1989.396     84.21673     168.3666     336.5325      1.253     2.92     1023.142     59.31343     266.2844        11     1.049     0.690 -59.72   0
       127    467.8532    872.7124 307.7235934  +6.3178918     808.3883     996.1716      1237.31      84.3503     168.1659     336.6329      1.272     2.60     1018.932     59.31343     165.6852         7     0.822     0.595  80.47   0
       128    915.7104    871.3573 307.5376578  +6.3334274     3782.599     4214.625     4029.555      84.3503     168.2328     336.5325      1.108     2.25     1006.067     59.31343     714.2365        14     0.941     0.710 -86.34   0
       129     51.1735    871.7113 307.8966506  +6.3043124     1550.229     2162.924     2350.536     84.48366     168.0319     336.3652      1.373     3.35     1023.085     59.31343      243.239        12     0.996     0.807 -75.76   0
       130    361.0289    868.3411 307.7680999  +6.3161145     20655.33     25961.28     26835.35     83.94894     168.3666     336.3987      1.294     2.36     1021.909     59.31343     3794.359        36     1.192     0.930 -86.53   0
       131     95.7457    869.2864 307.8782249  +6.3068129     1625.889     2071.284     2092.346      84.3503     168.2328     336.6663      1.204     2.28     1022.997     59.31343      329.588        10     0.957     0.590  75.23   0
       132    231.9006    867.8739 307.8217359  +6.3119726     1536.889      1974.16     1731.786     83.81474     168.4335     336.4656      1.395     4.06     1023.477     59.31343     244.3024        12     1.081     0.832 -82.60   0
       133    411.4811    867.6170 307.7471739  +6.3181057     827.2334      1034.63      1337.51     83.94895     167.9649     336.3652      1.346     3.90       1020.1     59.31343       146.97         7     0.969     0.492  83.87   0
       134    690.6300    860.1224 307.6315054  +6.3305473     764.0435      910.703     1286.989     84.21673     168.3666     336.4991      1.293     3.83     1012.747     59.31343     144.7322         6     0.977     0.431 -76.97   3
       135    692.4495    855.4631 307.6309064  +6.3325318     1201.004     1730.863     1639.712      84.3503     168.2328      336.566      1.537     2.82     1012.592     59.31343     216.6611         9     0.998     0.573 -77.22   2
       136    438.8200    859.2120 307.7361043  +6.3224921     1398.406     1635.615     1559.577     83.94894     167.9649     336.3987      1.206     2.79     1019.121     59.31343     254.5084        11     1.037     0.621  74.42   0
       137    124.3853    859.1434 307.8666754  +6.3119634     2005.236     2614.458     3111.588     83.68031     168.1659     336.1978      1.268     2.50     1023.302     59.31343     350.2769        14     1.012     0.786 -52.99   0
       138    519.1559    855.9404 307.7028540  +6.3265349     854.1413     1061.441     1068.333     84.21673     168.2328     336.6329      1.305     3.32     1017.601     59.31343      149.722         6     0.894     0.469 -56.74   0
       139    906.1573    853.2537 307.5422319  +6.3405827     2551.298     3167.918     3209.637      84.3503     168.2997     336.4991      1.228     2.26     1005.583     59.31343     535.2021        12     0.964     0.775  52.31   0
       140    107.8216    852.5632 307.8737757  +6.3141229     3059.167     4144.466     4526.972     83.94894     168.0319     336.2313      1.334     2.33     1022.874     59.31343      557.113        15     0.991     0.779 -81.95   0
       141    876.8756    852.6888 307.5544111  +6.3398387     2635.053      3234.15     2881.418      84.3503     168.6339     336.5994      1.159     2.13     1006.163     59.31343     585.5187        11     0.895     0.658  73.52   0
       142    840.1119    851.9788 307.5697023  +6.3389044     4048.426     5010.421     5680.056      84.3503     168.0319     336.3652      1.262     2.11     1007.599     59.31343     832.6129        19     0.989     0.866  80.87   0
       143    355.7756    850.4378 307.7708849  +6.3233294      856.276     927.4713     1341.319     83.94894     168.0989     336.2983      1.134     3.74     1021.619     59.31343     153.8039         6     0.966     0.417 -88.93   0
       144    470.4348    850.1384 307.7232815  +6.3272978     674.1365     850.4786     1092.942     84.21673     168.2997     336.4656      1.269     3.16     1018.211     59.31343     125.5956         6     0.724     0.641 -26.56   0
       145    576.1168    843.5405 307.6796171  +6.3335616     400544.2     493044.4     508765.3     84.48366     168.3666     336.5325      1.301     2.70     1015.289     59.31343     63139.77       139     1.314     1.138 -88.37   4
       146    420.3728    846.1639 307.7442043  +6.3272604     9696.928     12027.38     12032.91     83.81474     167.9649     336.2648      1.231     2.32     1018.948     59.31343     1664.984        23     1.104     0.859  86.95   0
       147    663.8365    846.5681 307.6430875  +6.3352471     1435.608     1639.569     1992.029     83.94894     168.0319     336.2313      1.081     2.00      1012.93     59.31343     300.3358        10     0.847     0.644 -89.47   0
       148    363.5785    844.5146 307.7678443  +6.3260365     15937.31     19847.84     20736.67     84.21673     168.0319     336.3987      1.265     2.39     1021.141     59.31343     2530.821        31     1.149     0.933 -89.14   0
       149    681.9656    840.8177 307.6357522  +6.3382274       4676.9     5651.142     5600.784     83.81474     168.0989     336.2983      1.227     2.09     1012.394     59.31343      1008.42        17     0.926     0.877 -84.91   0
       150    914.4396    839.6861 307.5392473  +6.3464604     6900.211     8220.404     8515.645      84.3503     168.2997     336.4991      1.120     2.18      1005.01     59.31343     1258.344        20     1.000     0.812 -86.78   0
       151    908.6226    839.7703 307.5416602  +6.3462316     535.4551     606.8815       707.73     83.68031     168.0989     336.3318      0.823     2.14     1005.126     59.31343      150.681         5     0.693     0.452  70.53   0
       152    753.7578    837.4014 307.6060529  +6.3420380     929.3798     1073.741     1016.255     83.68031     167.9649     336.1644      1.003     2.02     1010.391     59.31343     215.3599         7     0.745     0.577 -75.53   0
       153    656.8309    834.8697 307.6463900  +6.3398424     4294.231     5378.695     5686.807     84.21673     168.2997     336.4656      1.256     2.25     1012.815     59.31343     841.3119        18     1.061     0.786 -76.77   0
       154    845.1458    833.9431 307.5682169  +6.3465186     2189.382     2506.695     2643.734     84.48366     168.2997     336.5325      1.171     1.94     1006.699     59.31343     508.6107        10     0.799     0.666 -89.62   0
       155    647.1594    833.8319 307.6504413  +6.3399473     1327.293     1614.386     2086.834     83.94894     168.1659     336.3652      1.241     2.42      1013.02     59.31343     243.6314         8     0.793     0.634  50.62   0
       156    972.1262    832.8642 307.5155191  +6.3512011     1117.141      1485.21     1354.202     84.48366     168.2997     336.4991      1.274     2.28     1002.566     59.31343     228.3453         8     0.772     0.654  46.18   0
       157    649.7289    829.5237 307.6495190  +6.3418118     2831.639     3460.484     3869.203     84.61681     168.5671     336.4991      1.226     2.37     1012.849     59.31343     498.4998        14     0.956     0.806  78.61   0
       158    343.5443    828.1611 307.7767150  +6.3321156     1275.891     1674.014     1522.677      84.3503     168.3666     336.4656      1.442     3.81     1021.323     59.31343     196.3376        11     1.064     0.708 -68.43   0
       159    933.2610    827.4798 307.5318400  +6.3521278     4291.745     5002.446     5119.349     84.48366     168.2997     336.4991      1.108     2.10      1004.02     59.31343     826.7798        14     0.894     0.744  78.77   0
       160    391.4753    823.3572 307.7569728  +6.3357068     3235.524     4059.931     4148.005     84.21673     168.3666     336.5325      1.246     2.67     1019.215     59.31343     507.7155        18     1.089     0.832 -89.61   0
       161    527.7575    813.2329 307.7007192  +6.3444544     3890.898     4826.958     4817.951     84.08295     168.2997     336.3318      1.240     2.42     1014.739     59.31343     693.6359        17     1.008     0.813  85.18   0
       162    872.3819    812.2451 307.5576337  +6.3563858     1396.932     1636.023     1447.602     83.94894     168.1659     336.2313      1.127     2.37     1005.402     59.31343     273.5762         8     0.839     0.571 -84.21   0
       163    592.9603    810.8771 307.6737210  +6.3476103     868.4113     1070.468     969.5974     84.21673     168.2997     336.5325      1.286     2.27     1013.316     59.31343     195.7793         8     0.791     0.647 -45.66   0
       164    574.4776    809.3847 307.6814467  +6.3476076     7726.045     9437.527      9475.64     83.94895     167.9649     336.3318      1.207     2.44      1013.41     59.31343     1233.391        21     1.059     0.841 -79.94   0
       165    492.2760    808.4083 307.7156164  +6.3452575     1872.264     2440.225     1990.136     83.94894     167.7637     336.2648      1.292     3.59     1016.142     59.31343     300.2706        16     1.261     0.785 -63.76   0
       166    286.0361    809.5244 307.8012247  +6.3378792     960.6035     1110.338     1292.445     84.21673     168.3666     336.5325      1.333     2.83      1022.51     59.31343     170.2488         8     0.925     0.595  78.79   0
       167    581.7144    808.7672 307.6784621  +6.3481049     1580.565     1903.977     2007.863      84.3503     168.0989     336.4656      1.198     2.47     1013.334     59.31343     253.5415         9     0.831     0.650 -74.64   0
       168    910.1713    807.3617 307.5421036  +6.3596631     1685.203     1838.636     2137.083     83.81474     167.9649     336.3318      1.090     2.04     1004.086     59.31343     354.9117        11     0.879     0.650  78.11   0
       169    134.1058    807.3707 307.8643881  +6.3336635      1631.27     2129.364       1956.4     84.48366     168.0319     336.3987      1.390     2.77     1022.248     59.31343      286.825        11     0.906     0.745 -87.54   0
       170    710.4515    806.4992 307.6250754  +6.3533482     1001.965     1091.286     1102.669      84.3503     168.2997     336.7332      1.235     2.54     1010.617     59.31343      191.403         8     0.952     0.497  87.78   0
       171    545.2191    803.2217 307.6938047  +6.3491723     24650.76     30699.01     31765.08     84.08294     168.2328     336.4322      1.251     2.31     1013.239     59.31343     4456.957        38     1.178     0.946  82.83   0
       172    386.6816    804.7233 307.7595915  +6.3432388      887.802     1066.602     1195.922     84.61681     168.5671     336.6329      1.270     4.45     1018.747     59.31343     152.1196         7     1.045     0.538 -63.92   0
       173    958.8520    801.4943 307.5220830  +6.3637095     5056.803     5971.461     5541.932     84.21673     168.2328     336.7666      1.172     2.28      1001.84     59.31343     956.8253        18     0.978     0.823 -78.66   0
       174     78.9002    799.3221 307.8875845  +6.3351294      658.799      1045.19     1066.045     84.08295     168.5671     336.5325      1.293     3.05     1022.001     59.31343     134.0942         5     0.802     0.466 -57.65   0
       175    713.3062    795.2235 307.6242687  +6.3580988     651.8694     807.2692     776.3082      84.3503     168.0989     336.3318      1.221     2.69     1009.984     59.31343     132.4853         5     0.745     0.428  73.78   0
       176     55.7442    793.7685 307.8973879  +6.3366429      1822.01     2414.477     2180.147     84.21673     168.2997     336.4322      1.290     2.55     1022.355     59.31343     353.1522        12     1.015     0.657  82.05   0
       177    337.8281    792.0240 307.7803072  +6.3468425      3965.39     5146.076     5024.234     83.81474     168.1659     336.3318      1.350     2.42     1020.352     59.31343     748.9611        19     1.092     0.842  88.95   0
       178     37.8318    790.1343 307.9049490  +6.3375404     2708.119     3536.451      3315.24     84.21673     168.3666     336.4322      1.353     2.36     1022.608     59.31343     516.3055        17     1.090     0.834 -82.87   0
       179    803.3679    787.7756 307.5871162  +6.3641835     71222.04     85409.41     87562.36     83.68031     168.1659     336.2983      1.179     2.17     1005.338     59.31343     13860.31        54     1.133     0.949  89.56   0
       180    741.6345    789.5495 307.6126945  +6.3613883     860.3094     1278.427     1158.562     84.21673     168.2997     336.3987      1.531     2.94     1008.556     59.31343     166.3331         8     0.880     0.692 -54.04   0
       181    260.1637    764.2267 307.8134971  +6.3557108     753792.5      1518220      1645938     83.81474     168.0989     336.2983      2.094     4.05     1021.503     59.31343     63993.07       584     2.799     2.036  87.49   4
       182    928.6500    783.0015 307.5352459  +6.3703368     11243.99     13433.07     13794.89     83.68031     167.8979     336.0639      1.162     2.15     1002.388     59.31343     2267.247        24     1.030     0.844 -88.14   0
       183    731.6012    782.3989 307.6171015  +6.3640050     27322.71     33489.14     35377.21     83.68031     167.8308     336.1644      1.167     2.25     1008.506     59.31343     4870.015        40     1.157     0.958  78.11   3
       184    725.3233    778.8789 307.6198270  +6.3652484       112486     136629.2     140742.2     84.61681     168.5671     336.5994      1.204     2.17     1008.584     59.31343     22033.91        65     1.180     0.991 -87.79   2
       185    370.2470    779.7596 307.7672578  +6.3529935     25065.48     32134.92     32510.34     84.21673     168.2997     336.2983      1.313     2.47     1018.492     59.31343       4185.1        39     1.194     1.016 -89.00   0
       186    249.7437    779.1351 307.8173212  +6.3492062     877.9789     2466.532     7838.484     84.48366     168.2328     336.4991      6.485     8.18     1021.934     59.31343     114.3246        19     2.222     0.842  86.60   1
       187    419.5161    779.9346 307.7467912  +6.3545737     1726.001     2261.388      2179.18     84.48366     168.5671      336.566      1.331     3.01     1016.633     59.31343     256.2786        14     1.043     0.819  80.42   0
       188    432.0883    777.5695 307.7416499  +6.3559716     27388.64     34845.33     35594.64     84.48366     168.0989     336.4322      1.320     2.44     1016.306     59.31343     4578.467        43     1.228     1.018  86.87   0
       189    659.0677    779.1112 307.6473351  +6.3629368      982.865     1045.973      1296.42     84.48366     168.5003     336.4656      1.245     2.40     1010.724     59.31343     207.0323         7     0.844     0.505  49.71   0
       190    446.7617    786.4316 307.7352577  +6.3528049     1123.917     1268.351     1335.371     83.94894     168.0319     336.2983      1.209     3.09     1016.241     59.31343     185.9788        10     0.957     0.661 -85.71   0
       191    925.5209    774.4337 307.5368327  +6.3737697     8897.873     10569.55     10727.77     84.21673     168.2997     336.4991      1.106     2.17     1002.069     59.31343     1460.194        22     1.000     0.840  85.60   0
       192    898.3947    775.4904 307.5480631  +6.3724282     992.0684     997.6047     1120.821     83.81474     167.9649     336.2313      1.015     2.92     1003.227     59.31343     209.3853         7     0.928     0.457  77.51   0
       193    666.2001    773.4804 307.6445623  +6.3655000     8224.859     9975.142     9901.563     83.54567     167.6295     336.1978      1.213     2.25     1010.308     59.31343     1465.934        25     1.079     0.888  79.67   0
       194    156.1586    773.4304 307.8563770  +6.3484165     558.1295      471.537     170.7138     83.81474     168.1659     336.3318      0.905     3.38     1021.781     59.31343     146.8956         5     0.957     0.357 -85.01   0
       195    406.3398    773.2068 307.7524898  +6.3569093     506.0601     850.9507     448.0863     83.68031     168.0989     336.2648      1.278     3.33     1016.944     59.31343     101.5195         5     0.750     0.440  73.18   0
       196    454.7913    771.4166 307.7324288  +6.3592729     2124.231     2953.677     2803.223     84.08295     168.0319     336.3318      1.390     2.52      1015.47     59.31343     368.7647        15     1.048     0.835  86.31   0
       197    969.1741    776.3903 307.5186373  +6.3744180     2680.321     3346.713     2705.979     83.94894     168.0989     336.3652      1.271     2.48     1000.166     59.31343     490.6058        14     1.070     0.682 -87.08   0
       198    179.9054    770.6188 307.8466106  +6.3503754     1110.243     1269.279     970.1818     84.21673     168.0319     336.2983      1.278     2.83      1021.83     59.31343     209.6149        10     0.949     0.682  87.02   0
       199    619.2751    765.5942 307.6643154  +6.3671857      1032.49      1250.21     1467.039     83.94894     167.7637     336.3987      1.287     2.74     1010.403     59.31343     176.8237         8     0.844     0.665  74.94   0
       200    894.3790    764.9767 307.5500834  +6.3766348     793.8917     850.6514     611.1758     84.08294     168.0989     336.4656      1.080     3.78     1002.982     59.31343     201.5831         6     0.984     0.466 -81.01   0
       201    701.2709    763.6264 307.6303285  +6.3707411     3071.487     3570.484     3357.965     83.94894     168.1659     336.4322      1.116     2.16     1008.628     59.31343     582.4002        15     0.933     0.787 -86.94   0
       202    170.2655    764.1567 307.8508320  +6.3527192     1205.705     1525.821     1623.493      84.3503     168.2328     336.5325      1.253     3.30     1021.655     59.31343     189.6057        11     0.970     0.795  87.43   0
       203    435.0159    760.2839 307.7410164  +6.3632059     64580.04     82939.96     85377.56     83.94894     167.9649     336.3987      1.332     2.48     1015.706     59.31343     11494.26        58     1.242     1.079 -81.64   0
       204    145.4249    764.1025 307.8611495  +6.3519064     1251.283     1321.535     1119.078     84.48366     168.0319     336.3987      1.202     3.06     1021.543     59.31343     206.5475         7     0.741     0.621 -73.98   0
       205    977.7486    761.9120 307.5155614  +6.3806813      924.623     906.9104     742.7337      84.3503     168.1659     336.5994      0.990     2.56     999.0748     59.31343     222.3436         7     0.835     0.581 -59.36   0
       206    552.7880    759.2996 307.6921392  +6.3675586     8720.172     11102.24     11086.63     84.08295     168.0319     336.2648      1.294     2.50     1011.555     59.31343     1541.238        26     1.159     0.916 -86.22   0
       207    469.4719    757.9315 307.7267862  +6.3653321     5526.718     7093.588     7596.575     84.48366     168.4335     336.4656      1.310     2.43     1014.435     59.31343     945.9265        21     1.065     0.937  88.52   0
       208    797.9631    755.8741 307.5904316  +6.3771734      14605.7     17926.91      18997.6     84.21673     168.3666     336.5325      1.246     2.05     1004.609     59.31343     3095.361        29     1.031     0.958  83.05   0
       209     27.2020    752.1791 307.9106468  +6.3528514     1337.486     1576.838     2089.743     83.94894     167.9649     336.1978      1.238     3.50     1022.042     59.31343     228.4672         9     0.970     0.613 -60.77   0
       210    819.6109    750.3942 307.5816249  +6.3801588     1795.499     2323.775     2172.391     83.94894     168.0989     336.3987      1.213     2.58     1004.157     59.31343     330.2419        12     1.001     0.698 -89.14   0
       211    466.2076    751.2692 307.7283663  +6.3679732     2802.733     3674.117     3947.362     83.81474     167.9649     336.3987      1.436     2.52     1014.207     59.31343     513.4343        16     1.040     0.804 -83.79   0
       212    987.4343    749.6052 307.5119510  +6.3860852     810.8272     960.7375     1496.989     83.54567     168.0989     336.2648      1.068     4.02     998.0842     59.31343     138.1752         7     0.969     0.476  80.63   0
       213    155.7498    747.8400 307.8574112  +6.3589672     13784.44     18156.94     19448.61      84.3503     168.2997     336.4322      1.355     2.58     1021.267     59.31343     2411.282        40     1.254     1.095 -70.79   0
       214    163.8452    748.1503 307.8540388  +6.3591112     3630.949     4745.155     4663.929      84.3503     168.1659     336.4991      1.334     2.55     1021.294     59.31343     651.7136        19     1.067     0.918  84.20   0
       215    943.4803    744.4771 307.5303780  +6.3867364     8387.147     9595.166     10027.22     84.61681     168.5671     336.6663      1.064     2.22     999.8361     59.31343     1431.591        21     1.022     0.768  89.25   0
       216    147.9408    745.2049 307.8607431  +6.3597925     3404.631     4598.239     5051.523     83.68031     168.1659     336.2648      1.383     2.52     1021.194     59.31343     652.3158        19     1.138     0.845  75.47   3
       217    147.9747    738.9067 307.8609418  +6.3623937     2440.746     3081.977     3539.126     84.48366     168.0319     336.3318      1.330     2.58     1021.079     59.31343     420.7922        16     1.042     0.846 -82.04   2
       218    992.7273    744.3454 307.5099289  +6.3884332     2009.827     2545.691     3189.989     84.21673     168.1659     336.4322      1.190     2.58     997.5214     59.31343     353.1414        11     0.917     0.695  70.56   0
       219    699.0060    742.0066 307.6319955  +6.3795910     2221.098      2703.67     3237.949     83.68031     168.0989     336.3318      1.227     2.41     1007.452     59.31343     490.6428        15     1.052     0.731 -86.14   0
       220    586.0099    741.3755 307.6789451  +6.3760708     2751.013     3522.114     3713.061     83.94894     168.0989     336.3652      1.312     2.54     1009.698     59.31343     512.7286        15     1.025     0.798  78.90   0
       221    433.6770    740.9147 307.7422249  +6.3711574     1332.414     1776.269     2210.283     84.48366     168.6339     336.5994      1.493     3.01     1015.195     59.31343     241.1301        10     1.026     0.640 -84.21   0
       222    717.3405    739.2033 307.6244751  +6.3813614     700.7318      766.022     677.6713     83.68031     168.0989     336.2313      1.197     2.82     1006.492     59.31343      147.795         5     0.748     0.430  71.02   0
       223    967.2052    735.9904 307.5208089  +6.3910315     4123.151     4910.839     4940.732     83.81474     168.0319     336.3318      1.198     2.01     998.3725     59.31343     934.1734        15     0.889     0.779  87.19   0
       224    937.7020    736.4605 307.5330466  +6.3898533     4084.454     4888.036     5504.896     84.08295     168.2997     336.6329      1.128     2.20     999.6974     59.31343     787.4485        14     0.897     0.730  81.28   0
       225    997.9587    735.6655 307.5080470  +6.3921911     2495.915     3002.856     3544.641      84.3503     168.2328     336.5994      1.181     2.12     996.9562     59.31343     529.9962        13     0.945     0.742 -84.01   0
       226    690.0640    735.6281 307.6359235  +6.3819253     1795.753     2303.948     2814.982     83.94894     168.2997     336.4322      1.267     2.23     1007.518     59.31343     374.9551        11     0.879     0.736 -58.71   0
       227    450.6369    736.1718 307.7353413  +6.3736841     548.0826     776.4781     928.1969     83.81474     168.0319     336.2983      1.204     3.48     1014.226     59.31343     88.23981         5     0.807     0.432 -72.00   0
       228    837.4127    734.1644 307.5747761  +6.3874538     1171.504     1361.946     1123.961     83.81474     168.0989     336.2313      1.154     2.39     1003.448     59.31343     237.3757         9     0.814     0.678 -88.27   0
       229    912.6639    731.7379 307.5436038  +6.3909677     1120.246     1235.919     1237.385      84.3503     168.2997     336.5325      1.161     2.89      1000.72     59.31343     186.7011         7     0.822     0.565  13.44   0
       230    262.7320    730.6740 307.8135628  +6.3696488     2065.033     2734.338     2966.537     84.48366     168.4335     336.4656      1.440     2.61     1020.463     59.31343     419.7088        13     1.063     0.727 -86.44   0
       231    314.9998    728.1483 307.7919415  +6.3724464     544.6581     725.9869     1126.445     83.54567     167.7637     336.0304      1.215     3.77     1018.522     59.31343     123.6279         5     1.023     0.398 -59.29   0
       232    699.8303    727.5958 307.6321373  +6.3855680      637.431     1064.188      1425.38     83.81474     168.1659     336.2648      1.612     2.26     1006.746     59.31343     139.7919         5     0.702     0.449  21.46   0
       233    955.5204    726.1353 307.5259922  +6.3947105     1516.373     1667.037     1853.756     84.61681     168.3666     336.4656      1.018     2.19     998.6577     59.31343     293.3181         8     0.778     0.618  53.70   0
       234    282.8658    725.7693 307.8053669  +6.3723497      814.132     892.5508     249.9635     84.08294     168.2997     336.4322      1.134     2.25     1019.861     59.31343     164.1472         6     0.724     0.540  44.61   0
       235    178.2915    725.7581 307.8487959  +6.3688410      805.503     1092.851     1150.144      84.3503     168.2997     336.5994      1.606     1.87     1020.607     59.31343       173.36         5     0.695     0.428 -73.87   0
       236    929.1150    724.9625 307.5369984  +6.3943138     1473.448      1758.74     1942.654      84.3503     168.2997     336.4991      1.231     2.22     999.7347     59.31343      311.995         9     0.779     0.684 -86.27   0
       237    982.1293    723.6930 307.5150226  +6.3966062     3398.317     3920.569     3917.892      84.3503     168.3666     336.4991      1.095     1.95     997.5677     59.31343      777.926        13     0.860     0.723  82.42   0
       238    701.6641    722.9374 307.6315323  +6.3875525     1091.844      1544.99     1667.715      84.3503     168.2997     336.5325      1.267     2.28      1006.46     59.31343     223.2162         7     0.725     0.593  80.94   0
       239    492.6717    718.7021 307.7184723  +6.3823051     662.5033     974.1262     700.9623     84.21673     168.4335     336.4991      1.549     3.94     1011.963     59.31343     106.3692         6     0.913     0.487 -44.18   0
       240   1023.6139    717.1172 307.4980129  +6.4007041     1891.375     2082.658      2088.22     73.81604     134.4624     253.9391      1.032     2.59      995.941     59.31343     460.7367         7     0.863     0.482 -84.45  24
       241    422.6922    718.1910 307.7475525  +6.3801703     749.9313     1126.156     1048.853     83.94894     167.9649     336.2983      1.434     3.26     1014.803     59.31343     135.4092         7     0.872     0.555  57.57   0
       242    824.8273    715.6990 307.5806228  +6.3946569     1500.771     1424.598     1175.651     84.48366     168.0319     336.4656      1.129     2.78     1002.849     59.31343     282.8752        12     0.966     0.810  74.24   0
       243    650.0676    716.7977 307.6531677  +6.3883615     735.2565     565.6488     104.0367     83.68031     167.8979     336.2983      1.164     2.56     1007.567     59.31343     134.1148         7     0.798     0.638 -60.89   0
       244    911.1882    712.8124 307.5448514  +6.3987318     2030.729     2751.269     2427.547     84.21673     168.0319     336.4322      1.366     3.26     1000.026     59.31343     363.1385        17     1.290     0.956  61.33   0
       245    885.9949    708.2356 307.5554684  +6.3997805     1332.521     1521.457     1588.219      83.4108     168.0319     336.2648      1.268     3.00     1000.737     59.31343     215.8322        12     1.010     0.749 -51.32   0
       246    868.3492    704.3703 307.5629269  +6.4007872     1991.023     2542.152     2590.693     83.94894     168.4335     336.3987      1.188     2.19      1001.16     59.31343      379.582        10     0.799     0.706 -80.76   0
       247     67.4220    703.3517 307.8955956  +6.3743622     3017.891     4004.199     4411.898     83.94894     168.2997     336.3652      1.395     2.98     1020.598     59.31343     499.2295        19     1.136     0.898  79.96   0
       248    131.4596    701.7365 307.8690562  +6.3771833     1056.387     2088.875     2307.028      84.3503     168.2328     336.5325      2.224     7.16     1019.868     59.31343     176.1847        17     1.979     0.726  64.76   0
       249    680.1566    691.8006 307.6415112  +6.3996879     7798.331     10004.71     11245.23     83.68031     167.9649     336.0974      1.305     2.28     1005.745     59.31343     1528.025        25     1.105     0.915 -81.44   0
       250    537.8823    691.4868 307.7006118  +6.3950553     951.6683     1100.467     1677.747     84.08294     168.5003      336.566      1.195     2.56     1009.538     59.31343     177.3281         8     0.802     0.675  45.75   0
       251    626.9998    691.0643 307.6636134  +6.3982134     1539.214     1936.581     2244.436     83.54567     167.8979     336.1978      1.257     2.22     1007.064     59.31343     308.9376         9     0.757     0.721  35.32   0
       252    548.3988    691.2714 307.6962513  +6.3954965     762.9482     965.2897     1036.254     83.68031     167.8308     336.3318      1.255     2.77     1009.207     59.31343     116.0327         5     0.699     0.473  75.95   0
       253    329.5905    687.8221 307.7872421  +6.3895842     662.5596     868.4138     1409.463     83.94894     168.0319     336.3318      1.275     4.30     1016.534     59.31343      127.545         7     1.137     0.464 -80.94   0
       254    143.0419    687.5829 307.8647244  +6.3834158      4441.03     5721.388     5621.377     83.81474     168.0989     336.2313      1.360     2.65     1019.137     59.31343     696.2964        20     1.124     0.870 -86.63   0
       255   1017.1317    687.0251 307.5017132  +6.4129116     3352.057     3923.131     4023.584     83.94894     168.1659      334.149      1.156     1.97     996.3779     59.31343     763.3192        15     0.966     0.753  61.99  16
       256    653.9753    687.4901 307.6525299  +6.4005917     2654.455     3283.547     4017.583     84.48366     168.0989     336.3318      1.274     2.38     1006.186     59.31343     452.6258        13     0.985     0.740  85.85   0
       257    796.9574    683.8862 307.5932659  +6.4068598     25811.99     31393.04     32548.68      84.3503     168.1659     336.4991      1.250     2.18     1002.489     59.31343     5246.351        41     1.134     0.966  88.93   0
       258    478.6678    685.4717 307.7254073  +6.3955546     653.5685     892.8331     374.7885      84.3503     168.4335     336.4991      1.375     3.00     1011.474     59.31343     145.1767         5     0.926     0.441 -78.21   0
       259    342.1422    684.0392 307.7821568  +6.3915672     851.5649     1088.748     1612.267      84.3503     168.3666     336.5325      1.878     6.15     1016.051     59.31343     122.8806        11     1.292     0.842 -68.63   0
       260    524.3552    684.1649 307.7064764  +6.3976250     962.9945     1417.055     1257.216     84.08295     168.2328     336.3652      1.441     3.72     1009.792     59.31343     159.7268         8     1.063     0.528 -71.49   0
       261    496.1296    684.1858 307.7181984  +6.3966707     1569.454     2093.126     1851.164     83.81474     168.2328     336.3987      1.382     2.89     1010.825     59.31343     254.9912        14     1.001     0.881  77.62   0
       262    927.0486    683.5723 307.5392444  +6.4113328     5024.516      5591.25     6017.666     83.94894     168.2997     336.4322      1.112     2.09     998.3951     59.31343     1004.589        13     0.890     0.720  85.88   0
       263    677.4817    676.7123 307.6431293  +6.4058276     8945.596      11298.9     11569.54     84.08295     168.5003     336.5994      1.256     2.42     1005.049     59.31343     1450.175        30     1.181     0.982  88.91   0
       264    270.5034    677.5137 307.8121293  +6.3918560     7499.047      9408.29     9632.862      84.3503     168.7006     336.5325      1.345     2.53     1017.539     59.31343      1154.45        23     1.139     0.902 -86.28   0
       265    659.7847    677.7207 307.6504455  +6.4048193     1086.301     1222.001     1221.406     83.94894     168.0319     336.2983      1.231     2.91     1005.595     59.31343     197.8031         9     0.834     0.756  -1.58   0
       266    372.6426    676.4518 307.7697454  +6.3957230     854.4214     1084.832     887.0353      84.3503     168.2997     336.5325      1.387     4.64     1014.831     59.31343     137.8105         7     0.904     0.676 -64.86   0
       267    937.3633    669.4318 307.5354343  +6.4175149     1676.068     2240.411     2091.915     83.94894     168.0319     336.2313      1.269     2.77     997.6678     59.31343     319.3038        12     1.036     0.677  82.21   0
       268    749.2732    665.0924 307.6137020  +6.4130253     4529.402     5938.878     5679.251     84.21673     168.4335     336.5325      1.295     2.63     1003.132     59.31343     754.7772        21     1.180     0.862  85.13   0
       269    704.5045    665.7348 307.6322747  +6.4112634     1350.247     1547.545     1276.857      84.3503     168.4335     336.5325      1.073     2.26     1004.071     59.31343     239.2944         9     0.790     0.681 -78.56   0
       270     14.6438    663.6592 307.9188563  +6.3889717     681.7977     977.2076     1292.688     84.21673     168.2328     336.5994      1.302     4.01     1020.163     59.31343      142.223         7     1.021     0.528  43.76   0
       271   1015.5383    661.7324 307.5032223  +6.4233007     11824.93     13612.02     13731.04      84.3503     168.2328     336.4991      1.089     2.17     995.8577     59.31343      2171.35        23     0.975     0.815  80.87   0
       272   1004.0123    662.2722 307.5079915  +6.4226935     713.5649     631.7972     629.1902     83.81474     167.8979     336.2983      1.131     3.04     996.0894     59.31343     176.8593         6     0.902     0.512 -89.65   0
       273    954.0401    662.1071 307.5287531  +6.4210952     3196.472     3837.936     4277.636     84.48366     168.2328     336.5994      1.233     2.08     997.0544     59.31343     670.3123        12     0.881     0.720  86.54   0
       274     34.7880    661.4380 307.9105657  +6.3905668     2073.806     2873.079      3259.34     83.94894     168.0989     336.1978      1.460     3.35      1019.98     59.31343     323.9167        15     1.016     0.988  50.39   0
       275    568.5643    659.8224 307.6889343  +6.4091552     708.9326     1072.415     742.4377     83.81474     168.0319     336.2648      1.260     3.44     1007.601     59.31343     104.7866         5     0.789     0.434  68.61   0
       276     92.9142    656.5692 307.8865905  +6.3945330     30512.25     39854.11     41110.01      84.3503     168.0989     336.3652      1.385     2.58       1019.2     59.31343     4825.685        44     1.282     1.036 -87.42   0
       277    554.1537    657.4608 307.6949990  +6.4096477     2687.791     3352.276     3419.767     84.21673     168.1659      336.566      1.361     2.85     1007.852     59.31343     394.4437        15     1.030     0.868  77.74   0
       278    522.8364    654.8049 307.7080955  +6.4096951     1559.292     1913.595     1469.099      83.4108     168.0319     336.2983      1.330     3.31     1008.815     59.31343     241.0276        13     1.024     0.875  68.18   0
       279    943.8405    654.0160 307.5332608  +6.4240954     1392.747     1723.631     1971.188     83.81474     168.0989     336.2648      1.275     2.94     996.9104     59.31343     301.6489        10     0.877     0.823  28.76   0
       280    562.9861    651.4990 307.6915312  +6.4124047     1234.002     1515.564     1413.269     84.21673     168.0319     336.2313      1.344     3.30     1007.441     59.31343     175.3453        11     0.967     0.753  73.69   0
       281    738.8849    648.8124 307.6185636  +6.4193992     4408.498      5577.62     5654.515     83.94894     168.1659     336.3318      1.248     2.30     1002.714     59.31343     824.8134        18     1.038     0.853 -74.97   0
       282    760.9460    647.0293 307.6094605  +6.4208728     5166.002     6078.703     5790.025     84.08295     168.3666     336.4322      1.226     2.23     1002.037     59.31343     1021.251        19     1.011     0.827  85.53   0
       283    592.3691    644.9209 307.6795487  +6.4161043     3796.068     4728.343     4519.568     84.21673     168.2997     336.4656      1.272     2.40     1006.555     59.31343     641.6288        17     1.036     0.819  80.86   0
       284    428.5124    645.4675 307.7475857  +6.4103884     1425.626     1819.624     1656.267     84.48366     168.5003     336.5325      1.264     2.91     1011.789     59.31343     222.3272        13     1.001     0.814 -57.18   0
       285    252.8876    644.5065 307.8205593  +6.4048908     1971.004     2710.581     2051.352      84.3503     168.7673      336.566      1.417     3.31     1016.208     59.31343     295.8954        16     1.189     0.844 -75.59   0
       286    336.3612    643.8244 307.7859139  +6.4079753     1610.689     2485.997      2544.54     83.94894     168.0989     336.2983      1.593     4.07      1014.33     59.31343     219.0052        14     1.199     0.785 -87.23   0
       287    552.9086    643.2908 307.6959930  +6.4154559     692.3927      1040.57     931.1929      84.3503      168.834     336.5994      1.621     4.45     1007.412     59.31343     120.4407         7     0.942     0.597 -79.45   0
       288    999.1719    642.0247 307.5106804  +6.4308914     10668.94     12675.95     12800.72     83.81474     168.0989     336.3318      1.183     1.96     995.1256     59.31343     2374.318        24     1.054     0.834  78.75   0
       289    718.7390    640.7976 307.6272004  +6.4220345     1174.047       1281.2     1511.736     83.68031     168.0319     336.1978      1.171     2.53     1002.772     59.31343     227.8578         8     0.855     0.597  75.82   0
       290    110.6153    638.3630 307.8798546  +6.4026445      999.369     1242.531     2331.479     83.94894     168.0989     336.2313      1.279     3.78     1018.113     59.31343     168.7844         7     0.984     0.464  80.37   0
       291    444.5837    636.5094 307.7412126  +6.4146256     3346.582     4397.963     4481.615     84.08295     168.0989     336.3987      1.388     2.77     1010.959     59.31343      489.246        21     1.163     0.949  77.69   0
       292    826.2029    635.8522 307.5827313  +6.4276675     1590.347     1894.735     2273.749     83.68031     168.0989     336.0304      1.296     3.19     1000.029     59.31343     280.3771        13     1.054     0.802 -56.58   0
       293    157.6671    635.4614 307.8604114  +6.4054248     28159.19     37092.62     37851.82      84.3503     168.2328     336.4991      1.403     2.64      1017.45     59.31343     4318.364        39     1.244     1.039  87.71   0
       294    662.0160    636.1627 307.6509159  +6.4220509     608.0035     627.4368     166.4821     84.08295     168.0989     336.2313      1.215     3.76     1003.881     59.31343     102.2573         5     0.809     0.503 -63.18   0
       295    377.4032    630.7090 307.7693103  +6.4147670     1036.569     1444.085     1488.181     83.81474     167.9649     336.1978      1.463     4.37     1012.651     59.31343     138.7925        10     1.085     0.667 -47.74   0
       296    994.0615    625.0198 307.5133729  +6.4377415     8647.655     11344.68     11997.12     83.94894     168.2997     336.3987      1.328     2.41     994.3575     59.31343     1674.891        25     1.223     0.855  53.92   0
       297     38.9765    624.3035 307.9100823  +6.4060379     1274.898     1851.541     1985.491     84.48366     168.0319     336.3318      1.408     3.26     1019.694     59.31343     222.4255        11     1.091     0.638 -72.81   0
       298    587.6526    620.2878 307.6823364  +6.4261160     57547.64     73827.32     76601.41      84.3503     168.1659     336.6329      1.342     2.55     1005.801     59.31343     9215.312        57     1.256     1.081 -87.40   0
       299    952.4518    622.0067 307.5307570  +6.4375977     782.4607     1035.952     1390.998     83.81474     168.0989     336.0974      1.305     3.88     995.3444     59.31343     144.4637         8     0.878     0.663  45.05   0
       300    231.1446    621.3986 307.8303698  +6.4137000     747.1728     1274.256     2485.546     83.68031     167.9649     336.1644      2.592     4.76     1015.668     59.31343     99.53619         7     0.966     0.664 -48.44   0
       301      1.4294    621.2700 307.9257785  +6.4060260     605.7951     614.8151     422.6877     74.72552     135.5464     254.9567      1.129     4.08     1021.078     59.31343     93.42706         7     0.987     0.481 -82.20  24
       302    546.6943    620.6693 307.6993354  +6.4245868     846.0178     1075.251     1346.263     84.21673     168.3666     336.5325      1.156     2.86     1006.829     59.31343     166.0618         6     0.825     0.517 -46.07   0
       303    812.2003    619.7516 307.5890878  +6.4338468     669.8275     737.5425     829.0024     83.54567     167.8979     336.0304      1.294     2.92     999.7383     59.31343     150.5629         7     0.947     0.553 -70.17   0
       304    517.8146    617.6788 307.7114312  +6.4248540     716.4588     912.2505     933.8842     83.94894     168.0319     336.3318      1.379     4.37      1007.69     59.31343     113.6927         7     0.885     0.616 -36.09   0
       305    195.2183    616.9672 307.8454405  +6.4143221     3092.062     4150.121     4705.467     83.94894     168.0989     336.3652      1.392     2.77     1016.346     59.31343     527.0745        18     1.099     0.890 -87.70   0
       306    998.5228    616.7537 307.5117968  +6.4413029     743.3325     629.2215     442.1815     84.21673     168.3666     336.4991      0.934     1.87     993.8004     59.31343     172.9578         5     0.651     0.473  68.98   0
       307     87.9644    611.1893 307.8901805  +6.4131005     1688.899     2050.045     2422.685     83.81474     168.0989     336.2648      1.306     2.83     1017.475     59.31343     305.2917        12     1.048     0.694  70.79   0
       308    484.9039    604.0954 307.7255578  +6.4293589      73034.7     96283.77     99313.83      84.3503     168.9673     336.3318      1.388     2.75      1008.25     59.31343     11982.58        65     1.284     1.138  87.32   0
       309     28.5231    605.5369 307.9150585  +6.4134333     2039.685     2508.865     2654.091     84.61681     168.2997     336.4656      1.368     2.98     1020.012     59.31343      329.642        15     0.996     0.933  58.70   0
       310    670.8652    601.0181 307.6484218  +6.4368562     1013.997     1194.084     1389.484     83.94894     168.2997     336.3987      1.187     3.47     1002.223     59.31343     168.8406         7     0.894     0.508 -46.22   0
       311    159.3467    599.1822 307.8609396  +6.4204583     1998.286     2884.163     2725.009     83.81474     168.3666     336.2648      1.442     2.91     1016.741     59.31343     277.9601        16     1.082     0.859  87.65   0
       312    438.6177    597.1177 307.7450177  +6.4306880     998.1167     1435.299     1649.779     83.94894     167.9649     336.4656      1.530     3.02     1009.556     59.31343     188.3308         9     0.925     0.718 -79.60   0
       313    954.5394    597.0110 307.5307278  +6.4479868     789.4873     805.8456      917.037     83.68031     168.1659     336.1978      1.057     2.06     994.3105     59.31343     166.6016         6     0.726     0.496 -85.00   0
       314    630.7631    596.0253 307.6652465  +6.4375756     1073.318      1419.77     1586.848     83.94894     168.0989     336.2313      1.403     2.95     1003.552     59.31343      226.307         9     0.940     0.652 -60.83   0
       315    330.3116    593.4758 307.7901248  +6.4285578     2448.318     3435.438      4097.29      84.3503     168.6339     336.5994      1.564     3.81     1011.962     59.31343     372.8092        17     1.252     0.857 -88.17   0
       316     31.2107    594.8168 307.9143050  +6.4179492     695.4446     935.5176     1386.746     84.08294     167.9649     336.3652      1.435     3.89     1019.812     59.31343     97.05603         6     0.779     0.556 -40.73   0
       317    482.4946    591.9219 307.7269686  +6.4343039     984.7172     1258.174     1491.763     84.08294     168.5003     336.5325      1.305     2.63     1007.844     59.31343     159.1877         6     0.758     0.496 -83.88   0
       318    756.9617    587.5412 307.6131134  +6.4452990     6408.484     7761.892     7870.012      84.3503     168.3666      336.566      1.251     2.32      1000.08     59.31343     1158.128        22     1.037     0.908 -82.01   0
       319    810.4776    582.8594 307.5910418  +6.4490201      17362.8     21410.42     22152.29     84.48366     168.2997     336.4656      1.225     2.27     998.9547     59.31343     3067.326        34     1.095     0.973 -89.98   0
       320    634.2990    581.0588 307.6642811  +6.4438728     3452.592     4412.791     4467.466     84.08294     168.2997     336.6329      1.324     2.67     1002.862     59.31343     516.4105        21     1.105     0.951  87.77   0
       321    552.8966    582.6271 307.6980397  +6.4405000      1528.24     2143.304     1669.384     84.48366     168.0319     336.4322      1.481     3.29     1005.408     59.31343     222.0131        12     1.016     0.762 -87.90   0
       322     55.4011    582.1382 307.9046871  +6.4239976     945.4196     1244.262     1606.482     83.68031     168.0989     336.1644      1.548     4.40     1018.703     59.31343     121.2762        10     1.082     0.709 -75.05   0
       323    951.4740    577.1680 307.5326664  +6.4560767     1521.357     1914.506     2253.728     84.21673     168.2997     336.4991      1.219     2.43     993.8104     59.31343      295.226         8     0.855     0.589 -88.31   0
       324    210.9149    575.8181 307.8403109  +6.4318373     690.1889     1282.739     1722.883     83.94894     168.0319     336.4322      2.119     5.03     1014.401     59.31343     119.1313         9     1.196     0.599 -69.75   0
       325    247.0368    574.9501 307.8253373  +6.4334093     1508.502     2407.316     3192.796     84.08295     168.1659     336.3652      2.162     3.05     1013.293     59.31343     253.6726        14     1.063     0.849  86.49   0
       326    392.9370    574.8919 307.7647402  +6.4383315     944.6461     1325.394     813.5447      84.3503     168.4335      336.566      1.470     4.46      1009.64     59.31343     123.4141         8     0.882     0.642 -48.19   0
       327    886.5500    566.1810 307.5600029  +6.4584462      3475.34     4246.949     4240.984     83.81474     168.3666     336.3318      1.172     2.37     995.6484     59.31343     661.8765        15     0.932     0.762  85.93   0
       328    182.0070    566.0572 307.8526472  +6.4348952      818.739      1595.83     2456.394     83.68031     168.1659     336.1978      2.317     5.71     1015.102     59.31343     119.3109        10     1.272     0.722 -60.87   0
       329    845.2808    563.6324 307.5772308  +6.4581205     3230.821     3892.854      3532.52     84.21673     168.2328     336.4656      1.199     2.33     997.1497     59.31343     570.2569        15     0.981     0.766 -85.06   0
       330    825.8982    554.7466 307.5855802  +6.4611416     196522.4     242265.4     249511.6     84.21673     168.2997     336.7332      1.259     2.26     997.6992     59.31343     37643.36       106     1.287     1.098  87.30   0
       331    816.1849    559.5070 307.5894551  +6.4588518     3242.173     3929.811     5287.888     84.08295     168.0989     336.3318      1.216     2.27     998.3159     59.31343     614.1324        14     0.963     0.775  80.04   0
       332    758.9432    559.8675 307.6132199  +6.4567902     898.0433     1181.154     995.3381     84.48366     168.2328     336.4656      1.263     3.68     999.4711     59.31343     147.1066         9     0.934     0.685  -4.89   0
       333    273.2741    558.5241 307.8149943  +6.4410719     8998.008     11953.44     11844.59     84.61681     168.5671     336.5994      1.418     2.70      1011.94     59.31343     1236.627        28     1.213     0.991 -86.70   0
       334    207.5437    553.0682 307.8424794  +6.4411158      66957.9     91739.15      95779.1     84.48366     168.2328     336.4322      1.471     2.77     1013.606     59.31343     10614.84        68     1.364     1.183 -84.30   0
       335    755.5839    555.2119 307.6147717  +6.4586000     702.5243     784.6741     424.7672     84.21673     167.9649     336.4322      1.173     3.74     999.3972     59.31343     121.2642         7     0.954     0.486  84.44   0
       336    131.5188    549.3245 307.8741823  +6.4401051     7195.913     9933.945     10225.64     84.61681     168.5671     336.5994      1.505     2.79      1016.16     59.31343     1065.283        32     1.313     1.121  79.31   0
       337    996.8022    546.5684 307.5148634  +6.4702216     1659.026     1987.219     2267.565     83.68031     168.0989     336.2648      1.120     2.04     991.3354     59.31343     376.8942        10     0.841     0.663  89.40   0
       338   1017.6174    545.7678 307.5062437  +6.4712461     1046.362     959.2441     718.8102     83.94894     168.0989     331.1709      1.029     2.32     990.5964     59.31343     210.4468         7     0.752     0.620  16.36  16
       339    246.3554    544.7685 307.8266393  +6.4458464     685.6918     737.9409     -54.3609     83.94894     168.3666     336.3652      1.121     3.28      1012.02     59.31343     120.6301         5     0.723     0.464 -77.73   0
       340    862.4407    542.0504 307.5708272  +6.4676035     5665.345     6982.533     7269.884      84.3503     168.2997     336.4656      1.208     2.34     995.1058     59.31343     978.4832        20     1.054     0.833  86.44   0
       341    380.9251    540.2106 307.7708987  +6.4522461     18900.64     26005.05     26548.73     83.94894     167.8979     336.2983      1.451     3.01     1008.265     59.31343     2813.548        37     1.278     1.077  87.75   0
       342    471.1090    540.1840 307.7334404  +6.4552816     747.9875     1065.338     954.9843     84.08294     168.0989     336.3652      1.381     2.77     1005.807     59.31343     130.2771         7     0.785     0.671  60.83   0
       343    182.7394    539.1479 307.8532520  +6.4460287     2091.056     2780.095     3247.155      84.3503     168.2328     336.4991      1.430     3.23     1014.233     59.31343     323.2932        16     1.077     0.937  82.65   0
       344    816.4312    535.3707 307.5901631  +6.4688246     7177.388     8940.678     9212.805     83.81474     168.0319     336.2313      1.209     2.25     997.3934     59.31343     1216.395        23     1.074     0.892  82.20   0
       345    257.9850    536.8044 307.8220778  +6.4495249      1159.43     1371.876      504.125     83.94894     167.9649     336.3318      1.385     3.81     1011.385     59.31343     167.8839        10     0.973     0.715  53.96   0
       346    120.0507    536.6049 307.8793755  +6.4449704     1021.383      1148.32         1293     83.68031     168.0989     336.0974      1.230     3.53     1016.274     59.31343      146.572         7     0.763     0.626   0.25   0
       347    547.1841    535.0659 307.7020134  +6.4599438      7371.99     9867.454     9893.647     83.81474     168.1659     336.3652      1.393     2.73     1003.883     59.31343     1107.881        24     1.118     0.995 -86.27   0
       348    188.3073    536.3053 307.8510354  +6.4473894      658.275     707.9177     1103.821      84.3503      168.834     336.4991      1.285     3.94     1013.933     59.31343     133.3273         5     0.757     0.687  42.48   0
       349    405.5058    531.9174 307.7609683  +6.4564945      1596.83     2326.634     2406.517     84.08294     168.6339     336.6329      1.681     3.70     1006.858     59.31343     243.2378        15     1.187     0.877 -69.78   0
       350    591.9485    528.1667 307.6836515  +6.4642912     2562.782     3813.705     4028.522     84.21673     168.2997     336.3987      1.589     3.73     1001.985     59.31343     359.2941        22     1.427     0.932 -35.27   0
       351    194.2880    528.2814 307.8488224  +6.4509029     7552.084     10255.56     10362.48     84.08295     168.5003     336.5994      1.436     2.78     1013.458     59.31343     1125.321        25     1.215     0.970  82.67   0
       352     65.9177    526.9778 307.9021848  +6.4471231     5662.097     7849.166     8046.431     84.08295     167.9649     336.3987      1.452     3.04     1017.821     59.31343     857.0562        27     1.265     0.959  83.90   0
       353    833.0396    527.6507 307.5835233  +6.4725666     1604.635     1814.938     2112.478     84.21673     168.2997     336.4656      1.202     2.18     996.0587     59.31343      357.853        11     0.992     0.681 -77.64   0
       354    289.5192    524.7280 307.8093874  +6.4555696     97831.81     133841.8     138722.7     84.61681     168.6339     336.5325      1.500     2.89     1009.758     59.31343     14124.65        80     1.372     1.205 -87.09   0
       355    578.9227    522.2331 307.6892618  +6.4663047     996.1255     1573.139     1787.935     84.21673     168.2997     336.4656      1.469     2.90     1002.154     59.31343      157.463         8     0.836     0.605  39.62   0
       356    273.1794    519.8334 307.8163396  +6.4570414     1612.843     2168.511     2764.592     83.81474     168.0989     336.3318      1.428     3.69     1010.097     59.31343      200.745        15     1.169     0.847 -83.07   0
       357    988.9301    518.5538 307.5190723  +6.4815249     1987.983     2361.337     2152.896      84.3503     168.2328     336.4991      1.136     2.09     990.4408     59.31343     422.8182        11     0.892     0.663  75.26   0
       358    812.6350    517.1464 307.5923519  +6.4762217     19583.54     24357.79     24797.17     84.21673     168.2997     336.5325      1.252     2.39     996.4466     59.31343     3423.926        32     1.128     0.951  80.52   0
       359    516.2383    515.5430 307.7155248  +6.4669669     45724.57     67544.27     70693.53      84.3503     168.3666     336.4991      1.614     3.14      1003.64     59.31343     5852.577        66     1.410     1.339  30.79   0
       360    666.6833    514.1513 307.6530794  +6.4725787     1122.632     1855.847     2024.112      84.3503     168.2997      336.566      1.598     3.65     998.8231     59.31343      156.294        10     1.018     0.787  87.16   0
       361    228.6382    512.0952 307.8351015  +6.4587396     2023.537     2861.795     3232.687     84.48366     168.1659     336.6329      1.525     3.27     1011.553     59.31343     330.0856        18     1.209     0.891 -70.96   0
       362    114.8361    512.1450 307.8823683  +6.4548926     679.7946     809.1531     545.5723     84.21673     168.2997     336.5325      1.435     4.84     1016.026     59.31343     109.0685         6     1.048     0.633 -83.23   0
       363     64.5152    512.0840 307.9032711  +6.4532245     1244.561     1817.793     1844.597     84.08294     168.4335      336.566      1.617     4.05     1017.638     59.31343     191.7974        11     1.057     0.792  82.60   0
       364    676.3126    510.6426 307.6491975  +6.4743494     3495.615      4727.65     4829.164      84.3503     168.1659     336.5325      1.398     2.57     998.4616     59.31343     549.7244        18     1.028     0.952  74.35   0
       365    686.3673    510.5505 307.6450240  +6.4747237     1712.077     2129.101     2472.987     84.21673     168.2997     336.4322      1.255     2.51     998.3932     59.31343     271.3987        13     0.934     0.793 -57.30   0
       366    738.4222    509.5253 307.6234353  +6.4768878     1578.666     1935.776     2178.621     83.94895     168.1659     336.4322      1.365     2.90     997.9849     59.31343      251.804        10     0.933     0.713  77.37   0
       367    413.8569    506.1495 307.7583682  +6.4674126     1854.581     2412.084     2411.088      84.3503     168.2997     336.4991      1.411     3.32     1005.327     59.31343     278.5339        14     1.082     0.841 -85.73   0
       368    160.6161    503.1252 307.8636581  +6.4601560     28706.48     39635.01     40926.16     83.81474     168.0319     336.3652      1.473     2.86     1014.172     59.31343      4493.37        43     1.322     1.073  87.47   0
       369    345.4265    504.4719 307.7868489  +6.4658090     4575.865     6008.061     5815.356     83.94895     168.1659     336.3987      1.438     3.03     1006.847     59.31343     633.1672        22     1.172     0.957  83.16   0
       370    525.3696    503.8593 307.7121253  +6.4720963     2309.867     3241.346     3509.067     84.08294     168.2997     336.4656      1.458     2.86      1002.91     59.31343     373.5468        15     1.075     0.786 -84.13   0
       371    888.6467    503.2629 307.5612428  +6.4844918     1870.921     2029.424     2125.183     84.21673     168.1659      336.566      1.122     2.23     992.8716     59.31343      331.469        11     0.797     0.777  56.22   0
       372      5.7257    501.2906 307.9280544  +6.4557008     2186.572     3025.197     2998.327      84.3503     168.5003     316.3581      1.467     3.12     1019.216     59.31343     346.6865        19     1.159     1.004  66.43  16
       373    125.8406    501.2606 307.8781654  +6.4597562      2968.15      3977.01     3994.944      84.3503     168.2997     336.5325      1.465     3.18     1015.439     59.31343      447.083        17     1.098     0.935  88.65   0
       374    362.8899    499.9669 307.7797470  +6.4682550     1020.781     1563.871      1701.33     84.48366     168.1659     336.4991      1.533     2.56     1006.089     59.31343     207.6494         8     0.874     0.608 -26.52   0
       375    986.2448    497.6614 307.5208880  +6.4900608     6418.143     7607.744     7731.681     84.21673     168.2328     336.5994      1.142     2.06     989.6766     59.31343     1397.184        20     0.999     0.814  87.35   0
       376    559.2745    490.1390 307.6985036  +6.4788964     1537.687     2010.208     1406.167     84.61681     168.2997     336.4991      1.363     2.88     1001.421     59.31343     223.1807        11     0.890     0.789 -66.90   0
       377     24.8934    487.4401 307.9205618  +6.4620641      28969.7     39026.42     40520.62     84.48366     168.2328     336.5994      1.441     2.80     1018.385     59.31343     4479.311        48     1.316     1.091 -89.60   0
       378    457.5787    484.2248 307.7409459  +6.4779301     47621.81      64864.7     67100.48     83.94894     168.0989     336.4991      1.456     2.89     1003.094     59.31343     7032.759        52     1.297     1.141 -84.99   0
       379    665.6406    483.8736 307.6545306  +6.4850437     14058.55     18350.96     19283.56     84.21673     168.3666     336.5325      1.364     2.63     997.3208     59.31343      2191.29        31     1.183     1.007 -87.13   0
       380    305.5346    484.5681 307.8040904  +6.4726867     1183.326     1443.134     1118.593     84.21673     168.3666     336.4322      1.437     4.18      1006.83     59.31343     155.9643        12     1.081     0.841 -70.09   0
       381      7.4757    481.6646 307.9279917  +6.4638618     221862.2     298145.7     308698.9     84.48366     168.2997     331.9518      1.441     2.72     1018.774     59.31343     34208.19       108     1.400     1.206  89.31  16
       382    222.7568    481.7926 307.8385677  +6.4710517     20669.67     31016.61     31964.77     83.81474     168.0319     336.1978      1.614     3.21     1011.059     59.31343     2713.083        46     1.430     1.191  67.11   0
       383    999.6476    482.2899 307.5158355  +6.4968539     1373.508     1588.382     1760.746      84.3503     168.1659     336.6663      1.069     2.52      988.413     59.31343      259.131         8     0.846     0.570 -89.10   0
       384    587.5180    480.7682 307.6870868  +6.4837109     3180.287     4325.689     4772.877     84.21673     168.1659     336.4656      1.463     2.75     999.7844     59.31343     468.5507        21     1.176     0.948  88.10   0
       385    928.3257    481.8514 307.5454782  +6.4946558     832.0867     780.0275     577.5508      84.3503     168.3666     336.5325      0.881     2.05     991.4514     59.31343     223.7108         6     0.750     0.466  85.45   0
       386    839.7386    481.6489 307.5822847  +6.4917821     1253.163     1515.873     1505.428      84.3503     168.2328      336.566      1.229     2.46      993.322     59.31343     236.2577        10     0.899     0.683 -83.73   0
       387    961.2977    477.8162 307.5319166  +6.4974218     6116.544     7506.236     7412.841      84.3503     168.0319     336.2648      1.195     2.20     989.8915     59.31343     1202.558        19     1.025     0.789  83.34   0
       388    634.4998    476.1556 307.6677260  +6.4871880     7289.402     9580.294     9649.544      84.3503     168.1659     336.7332      1.387     2.73     997.8714     59.31343     1082.674        26     1.161     1.021 -71.51   0
       389    122.1556    476.9110 307.8805192  +6.4696844     1387.592     1788.613     1422.847      84.3503     168.2328     336.5325      1.377     3.09     1015.091     59.31343     213.6812        13     1.072     0.784  70.49   0
       390    188.6535    482.9164 307.8526953  +6.4694415     1828.668     2437.973     2711.467      84.3503     168.2997     336.6329      1.452     3.88     1012.465     59.31343     265.2413        17     1.210     0.971 -36.93   0
       391    533.4379    476.0094 307.7097115  +6.4838642     640.7249     1093.492     1361.074     83.54566     168.0989     336.1978      1.770     4.77     1001.404     59.31343     109.6664         7     1.270     0.507  27.51   0
       392    983.8489    470.1091 307.5228068  +6.5013559     4470.966     5232.475     5176.488      84.3503     168.0989     336.6663      1.179     2.09     988.5326     59.31343     904.2004        16     0.967     0.743  77.67   0
       393    546.6216    467.4232 307.7045242  +6.4878506     8441.843     11287.62     11542.96     84.08295     168.0989     336.4656      1.426     2.83     1000.614     59.31343     1184.977        29     1.202     1.032  85.83   0
       394    392.7191    467.6161 307.7684475  +6.4826114     3070.225     4039.605     4209.089     83.94894     168.0319     336.3318      1.443     3.03     1003.931     59.31343     406.2877        20     1.116     0.981 -89.29   0
       395   1014.4933    465.8495 307.5102194  +6.5041363     579.8303     752.3201     1040.944     84.21673     168.1659     336.6329      0.984     2.96     987.0742     59.31343      136.907         5     0.825     0.537 -40.10   0
       396    903.1490    463.3383 307.5565579  +6.5014587     3932.807     4767.376         4718      84.3503     168.2328     336.4991      1.220     2.13     991.0432     59.31343     761.1014        15     0.936     0.785  84.97   0
       397    422.5605    469.1807 307.7559990  +6.4829665     894.6131     1174.934     1773.651     83.94894     168.0989     336.1978      1.607     4.49     1003.461     59.31343     130.2122         7     0.931     0.616 -14.16   0
       398    251.1416    462.8281 307.8274178  +6.4798346     682.5925     771.2297     640.3656     83.94894     168.3666     336.3987      1.276     3.98     1008.534     59.31343     92.82922         6     0.763     0.594 -43.31   0
       399    910.5453    457.7498 307.5536728  +6.5040127     2642.339     3074.924     3069.712      84.3503     168.2997     336.5325      1.107     2.20     990.6617     59.31343     481.2482        14     0.916     0.819  79.50   0
       400    949.9471    457.1103 307.5373260  +6.5055916      1532.65     1716.248     1291.662      84.3503     168.0989     336.6329      1.133     2.04     989.3481     59.31343     347.7026         9     0.766     0.672  73.46   0
       401    129.4138    456.6949 307.8781878  +6.4782743     770.3175     925.6491     169.4965     84.08295     168.0319     336.3318      1.251     4.07     1014.059     59.31343     116.1385         7     0.989     0.478  82.25   0
       402    734.4711    453.7613 307.6269504  +6.4997775     3570.247     4625.166      4955.62     84.21673     168.2997      336.566      1.323     2.46     995.2029     59.31343     547.1201        17     0.979     0.904  69.45   0
       403    629.4183    455.1929 307.6705420  +6.4956722     559.1086     862.6006     1222.073     83.94894     167.9649     336.3318      1.221     3.43     996.8957     59.31343     110.3133         5     0.834     0.407  67.48   0
       404     96.3269    452.7900 307.8920631  +6.4787731     2052.159     2858.337     2957.012     83.81474     167.8979     336.3652      1.481     3.09     1015.211     59.31343     317.0997        13     1.013     0.797  88.96   0
       405    445.9320    452.4167 307.7468556  +6.4906711     1076.156     1592.229      1503.15     83.81474     168.2328     336.3987      1.701     4.11     1001.822     59.31343     148.9766         9     0.973     0.667 -52.91   0
       406    405.4592    451.8488 307.7636869  +6.4895481     3866.588     5460.647     5439.057      84.3503     168.2997      336.566      1.541     3.04     1003.223     59.31343     578.9088        22     1.210     0.998  88.06   0
       407    633.1634    448.4319 307.6692137  +6.4985887     11468.61     15292.23     15503.16     83.94894     168.0319     336.2313      1.406     2.66     996.4064     59.31343     1711.891        31     1.203     1.027 -83.62   0
       408    795.7683    445.0097 307.6017807  +6.5054395     19470.65     24640.09     25988.13     83.81474     168.0319     336.3318      1.287     2.39     993.4412     59.31343     3416.978        33     1.147     0.992  73.14   0
       409    315.6942    445.2318 307.8011977  +6.4892671     2940.927     4410.434     4523.312     84.48366     168.0989     336.5994      1.630     4.05     1004.964     59.31343     442.3495        24     1.302     1.097 -61.10   0
       410    439.0987    444.6394 307.7499563  +6.4936527     695.8407     723.2222     577.2122      84.3503     168.1659     336.7332      1.311     4.57     1001.794     59.31343     106.1652         7     0.968     0.612 -81.41   0
       411    824.9289    442.3942 307.5897547  +6.5074935     1585.248     2050.393     1875.373     83.81474     167.8979     336.3987      1.309     3.14     992.4377     59.31343     280.7397        11     0.984     0.762  63.50   0
       412    398.5873    442.1711 307.7668678  +6.4933129     1768.338     2258.527      1995.79     83.81474     168.0319     336.3987      1.415     3.14     1002.962     59.31343     285.2854        13     1.009     0.829  75.19   0
       413    925.7704    442.4155 307.5478623  +6.5108516     508.7317     592.2192     271.7451     83.94894     168.0319     336.4322      1.151     3.47     989.5751     59.31343      95.7395         5     0.745     0.466 -16.05   0
       414    981.0190    439.9414 307.5249937  +6.5137162     2647.539     3314.319     3097.527     83.94894     168.1659     336.2983      1.267     1.94     987.2388     59.31343     620.6877        13     0.920     0.750 -88.76   0
       415    799.8983    440.4284 307.6002189  +6.5074689     1747.722     2508.439     2823.745     84.48366     168.0319     336.4656      1.476     2.49     993.1807     59.31343     316.1049        12     0.969     0.712 -88.57   0
       416    729.5258    439.2606 307.6294921  +6.5055987     653.3856     869.7996     641.5336     84.61681     168.2997     336.4991      1.196     3.79     994.2777     59.31343     125.9241         6     0.859     0.527  48.36   0
       417    387.0916    438.0020 307.7717836  +6.4946483     722.1214     750.3826     783.5251     83.68031     167.9649     336.2313      1.264     3.63     1003.002     59.31343     131.0615         8     0.915     0.688  88.52   0
       418    133.2303    436.9389 307.8772703  +6.4865584     5011.843     7136.958     7196.456     84.08294     168.2997     336.4656      1.480     3.07     1013.178     59.31343      727.951        26     1.254     1.009 -85.21   0
       419    771.3527    436.0145 307.6122255  +6.5083371     2752.581     3572.356     3678.916     83.68031     168.0989     336.2313      1.325     2.47     993.4878     59.31343     458.8456        19     1.078     0.935  82.13   0
       420    291.1255    433.9139 307.8117853  +6.4931145     1429.508     1669.398     2546.354     84.48366     168.6339      336.566      1.293     3.05     1005.397     59.31343     221.6362        11     0.981     0.726 -83.59   0
       421    369.3668    431.8096 307.7793553  +6.4966100     3508.621     4720.897     4134.385     83.81474     168.0989     336.3318      1.434     2.99     1003.076     59.31343     515.8018        21     1.186     0.955 -81.19   0
       422    724.8707    429.3944 307.6317574  +6.5095163     1811.623     2200.376     2293.526     83.81474     167.8979     336.3652      1.357     3.38     993.7017     59.31343     244.2878        13     1.029     0.808 -83.63   0
       423    998.9108    427.9770 307.5179620  +6.5192524     802.1717     860.9024     1464.101      84.3503     168.0989     336.3652      1.113     2.26     985.9274     59.31343     168.0701         6     0.724     0.546  51.94   0
       424    256.9576    427.5594 307.8261928  +6.4945900     990.2407     1220.682     1032.717     84.08294     168.2997     336.3652      1.404     4.13     1006.545     59.31343     167.8453         9     1.010     0.710 -85.72   0
       425    566.3326    422.3428 307.6978537  +6.5071218     939.6968     1646.261     2029.962     84.48366     168.2328     336.4656      1.870     5.18     997.0828     59.31343     133.5958         8     1.375     0.552 -58.28   0
       426    715.0772    420.9966 307.6361081  +6.5126557      626.048     1058.278     1308.749     83.81474     167.7637     336.2983      1.390     2.23     993.3348     59.31343     131.0168         5     0.603     0.583   0.63   0
       427    488.6493    420.4994 307.7301863  +6.5052799     1394.543     1610.149     1756.266      84.3503     168.2997     336.6998      1.284     3.10     998.1074     59.31343     194.1127        11     0.939     0.753 -71.27   0
       428    851.4470    419.4186 307.5795098  +6.5178646     1850.287     2197.792     2179.071     83.81474     168.2328     336.2983      1.156     2.64     990.8004     59.31343     325.7432        13     0.987     0.772 -87.05   0
       429    837.0093    418.5507 307.5855367  +6.5177408     2582.979     2963.583     2800.683     83.81474     168.0989     336.1644      1.258     2.77     991.2508     59.31343     461.6715        12     0.990     0.719  84.84   0
       430    734.3048    416.7108 307.6282646  +6.5150680     17612.96     22825.68      24039.5      84.3503     168.7006      336.566      1.314     2.46     992.8292     59.31343     2940.191        36     1.176     1.036  88.54   0
       431    655.4553    412.7070 307.6611550  +6.5140835     2946.076     3965.994     5110.646     84.21673     168.2997     336.6998      1.570     2.90      993.949     59.31343     415.2998        18     1.092     0.917 -80.20   0
       432    636.4222    418.4897 307.6688672  +6.5110592     756.0319     907.5709     1009.557      84.3503     168.0989     336.3652      1.484     5.21     994.7241     59.31343     90.71277         9     1.172     0.656 -61.53   0
       433    630.5610    409.8464 307.6715928  +6.5144313     6126.456     8171.308     8560.336     84.21673     168.2997     336.3318      1.431     2.88     994.3868     59.31343     870.0809        23     1.180     0.981 -86.86   3
       434    626.7651    407.2399 307.6732573  +6.5153803     16561.47     22727.83      23657.8     84.08295     168.1659     336.2983      1.454     2.81     994.3042     59.31343     2458.755        35     1.250     1.064 -84.24   3
       435    959.5646    406.6432 307.5350229  +6.5267477     4692.596     5645.453     5405.169     84.08295     168.2997     336.2983      1.116     2.24     986.5792     59.31343     889.7421        18     0.972     0.781  83.65   0
       436    398.6944    402.6088 307.7681572  +6.5096492     31596.46     44311.96     46121.76     83.94894     167.8979     336.2648      1.528     3.09     1000.861     59.31343     4092.874        48     1.348     1.151  88.15   0
       437    915.2183    402.4540 307.5535865  +6.5269974     1744.597     2226.333     955.9463     83.81474     168.2997     336.2648      1.215     2.45     988.0742     59.31343     361.2353        10     0.855     0.736  75.75   0
       438    144.8313    402.0914 307.8736294  +6.5013346     2564.778     3660.296     3722.759     84.48366     168.0989     336.4991      1.493     3.48     1011.784     59.31343     342.2938        18     1.176     0.965 -80.97   0
       439    928.3489    397.0295 307.5483135  +6.5296752     6243.711     7496.882     7468.334     83.94894     168.4335     336.3987      1.168     2.15     987.4747     59.31343      1282.05        19     1.028     0.770  83.17   0
       440    911.9176    398.5272 307.5550894  +6.5285085     838.1484    -99.89528     192.6031     84.61681     168.6339     336.5325      1.622     3.91     988.0345     59.31343     111.7128         9     1.098     0.688  80.96   0
       441    610.3815    398.2823 307.6803648  +6.5185299     682.7985     939.8938     1045.171     83.94894     167.9649     336.4322      1.516     4.08     994.1269     59.31343     113.4053         7     0.998     0.477 -83.96   0
       442     78.4532    397.8624 307.9013452  +6.5008470      1574.75     2695.039     3490.789      84.3503     168.2328     336.4656      2.005     3.76     1014.051     59.31343     218.3679        14     1.082     0.938  30.48   0
       443    256.2260    393.1309 307.8276592  +6.5087786     15080.51     21393.63     22205.71     83.94894     168.1659     336.4322      1.511     3.08     1005.166     59.31343     2107.602        38     1.322     1.113  83.44   0
       444     92.0093    387.3882 307.8960684  +6.5056272     779.9371     1123.118     995.6732     84.08294     168.0989     336.4322      1.595     4.30     1013.027     59.31343     121.3136         6     1.014     0.520 -78.42   0
       445    750.9623    386.8151 307.6223492  +6.5279672     908.4875     1158.233     1822.131     84.08295     168.0989     336.2313      1.311     2.99     991.2084     59.31343     173.0234         6     0.722     0.584  54.26   0
       446    719.4000    385.8464 307.6354938  +6.5273118     788.0286     1173.836     1397.327     83.54567     167.8979     335.9969      1.602     4.07     991.5583     59.31343     142.9041         9     1.088     0.706  69.79   0
       447    979.5764    385.3171 307.5274242  +6.5362197     1379.529     1519.555     1496.158     84.21673     168.0319     336.4322      1.118     2.38     984.7849     59.31343     228.5542        10     0.809     0.764  57.79   0
       448    369.2750    382.9858 307.7810401  +6.5167630     1499.726      1982.61     2051.636     83.81474     168.0319     336.3318      1.462     3.43     999.9771     59.31343     231.8286        15     1.044     0.956  46.36   0
       449    202.1297    383.2738 307.8504638  +6.5110297     926.6777     1367.333     1156.461     84.48366     168.4335     336.4991      1.637     4.36     1007.851     59.31343      135.213        10     1.216     0.752 -73.14   0
       450    156.5470    381.8435 307.8694472  +6.5100875     5645.115      8049.24     8100.191      84.3503     168.2997     336.4991      1.520     2.99     1011.149     59.31343     840.7953        29     1.290     1.096  72.69   0
       451    396.8003    382.5993 307.7696188  +6.5178462      613.283     935.9957     552.5227     83.68031     167.8308     336.1644      1.411     3.09     999.1472     59.31343     93.91455         5     0.729     0.454  18.87   0
       452    261.2922    380.7928 307.8259713  +6.5140423     1373.165     1777.614     2053.956     83.94894     167.9649     336.2983      1.369     3.30     1004.519     59.31343     188.4529        11     0.945     0.812  64.60   0
       453    454.2269    379.9591 307.7458518  +6.5208624      721.587     891.8267     802.8304     83.94894     168.0989     336.3318      1.355     4.97      996.713     59.31343     121.4264         9     0.981     0.712 -87.19   0
       454    842.5788    378.3292 307.5845733  +6.5345320     902.6143     1226.727     1312.448     83.94894     168.1659     336.4656      1.482     3.10     989.0269     59.31343     140.5731         7     0.926     0.474  80.09   0
       455    178.5867    377.5425 307.8604372  +6.5126042     2563.998     4054.336     3971.061     83.68031     168.1659     336.1644      1.665     3.86     1009.561     59.31343     374.0547        24     1.446     0.990 -84.74   0
       456    574.1258    376.5740 307.6961570  +6.5262779     1008.202     1451.427     1430.661     83.94894     168.1659     336.4656      1.470     4.02     993.5553     59.31343     141.6169         8     0.846     0.669  86.89   0
       457     20.8136    372.8420 307.9261346  +6.5092352     801.1123     818.2419     876.3893     83.68031     168.0989     336.2313      1.444     5.42     1017.034     59.31343     113.1719        11     1.233     0.672  86.37   0
       458    402.0358    372.3783 307.7677885  +6.5222414     2244.255     3088.021     2546.958     83.81474     168.0319     336.2313      1.477     3.38     998.0111     59.31343     267.6874        18     1.086     0.996  87.90   0
       459    290.0365    372.9405 307.8142957  +6.5182496       878.65     1293.756     755.1318      84.3503     168.2997     336.4656      1.499     2.37     1003.009     59.31343     187.8651         6     0.816     0.627  44.78   0
       460    990.5586    371.5699 307.5233226  +6.5422614     1061.765     1359.056     1479.011     83.94895     168.1659     336.3318      1.375     2.45     983.7421     59.31343     219.5352         7     0.864     0.475 -78.37   0
       461    335.9850    370.9986 307.7952737  +6.5205942     584.2269     751.9595     558.3595     83.94894     167.9649     336.2648      1.227     3.55     1000.499     59.31343     113.0961         5     0.987     0.368 -32.83   0
       462      3.3949    370.4994 307.9334495  +6.5096156     925.5763     1339.423     1154.054     84.08295     160.7733     286.2818      1.432     3.32     1018.194     59.31343     176.0707        10     1.193     0.513  44.24  16
       463    609.0213    368.6917 307.6819256  +6.5307006     611.1755     886.9176      809.566     84.21673     168.0989     336.3318      1.362     4.08     992.2488     59.31343     118.1067         5     1.059     0.448  64.31   0
       464     52.1876    366.7625 307.9133078  +6.5128014     3506.528     5249.743     4699.548     83.81474     168.0989     336.1978      1.565     3.41     1015.045     59.31343      505.045        26     1.474     0.930 -70.54   0
       465    455.8632    366.0060 307.7456423  +6.5266776     7963.345     11299.21     11232.36     83.68031     168.0319     336.2313      1.478     3.02     995.5543     59.31343      1105.38        30     1.246     1.089  87.32   0
       466    788.4271    365.1148 307.6075140  +6.5381783     2449.226     3158.719     3848.963     84.48366     168.0319     336.3652      1.318     2.52     989.5982     59.31343      407.725        14     0.995     0.815 -78.06   0
       467    796.4903    363.3439 307.6042236  +6.5391789     15505.29      19562.2     20090.18     84.21673     168.1659     336.6329      1.269     2.36     989.3737     59.31343     2506.136        29     1.124     0.951  82.69   0
       468    360.0839    361.8845 307.7855701  +6.5251658     1016.949     1377.761     1124.118     84.08295     168.4335     336.5994      1.401     3.35        998.7     59.31343     138.4116         9     0.801     0.768  -8.00   0
       469    971.4172    354.9565 307.5318320  +6.5484818     633.8505      612.102     1271.294     83.81474     168.1659     336.2648      1.058     1.93     983.8597     59.31343     153.5643         6     0.733     0.492  87.41   0
       470    204.9837    354.2249 307.8502597  +6.5231179     942.2264     1324.426      1558.24     84.08295     168.1659     336.4322      1.439     4.19     1006.822     59.31343     128.6902        10     0.921     0.760 -73.34   0
       471      9.5481    353.3900 307.9314726  +6.5168859     1000.475     2337.189     3429.002     83.68031     168.1659     336.2313      3.387     6.69      1017.92     59.31343     121.4693        15     1.647     0.763 -39.28  16
       472    921.5239    353.3009 307.5526158  +6.5475006     602.2137     559.6607     601.4402     83.94894     168.4335     336.4991      1.141     3.45     985.7886     59.31343     103.5789         5     0.735     0.468 -71.96   0
       473    503.9198    349.6292 307.7262300  +6.5350496     3468.527     4660.706     4414.718     84.21673     168.2997     336.4656      1.448     3.06     993.0671     59.31343     450.0543        24     1.220     1.065 -55.87   0
       474    476.3105    350.0993 307.7376839  +6.5339300      2430.74     3369.521     3403.418      84.3503     168.7673     336.4656      1.509     3.07      993.779     59.31343     348.5789        18     1.115     0.940 -80.56   0
       475    932.4710    349.3015 307.5482019  +6.5495171     921.2695      836.652     718.2901     84.21673     168.5003     336.4656      1.056     3.29     985.2391     59.31343     172.3644         5     0.722     0.475  73.48   0
       476    861.8325    346.2291 307.5776520  +6.5484274     39721.59      52105.5     54479.97     83.81474     168.0319     336.2313      1.354     2.75     987.0005     59.31343     6256.111        54     1.352     0.999 -87.91   0
       477     79.7771    342.9596 307.9026524  +6.5235566     640.8322     882.1456      1130.83     83.94894     168.0989     336.2648      1.241     2.70     1012.712     59.31343     119.5607         5     0.789     0.472  31.20   0
       478    353.9786    341.9368 307.7887793  +6.5331959     922.9285     1449.619     1045.055     83.94894     168.2997     336.3652      1.610     3.70     997.8326     59.31343     134.9287         9     0.941     0.702  75.59   0
       479    633.6020    338.8039 307.6727195  +6.5438623     3102.101     4220.298     4310.856     83.68031     167.8308     336.2313      1.412     2.78     990.1495     59.31343     461.0374        17     1.151     0.823  73.34   0
       480     41.7390    339.1492 307.9185825  +6.5238490     1300.517     1917.725     1989.928      84.3503     168.2328     336.4991      1.499     4.45      1014.85     59.31343     183.2507        13     1.084     0.907  78.86   0
       481    718.2734    332.2096 307.6377648  +6.5494177     92399.12       121004       125292     83.81474     167.8979     336.3652      1.364     2.51     989.0901     59.31343     14990.02        71     1.287     1.134  84.68   0
       482    165.2699    337.0519 307.8673376  +6.5288720     707.0988     740.4898     610.8688     84.21673     168.1659     336.4656      1.174     3.58     1009.492     59.31343     107.4891         7     0.756     0.653 -89.90   0
       483    876.4838    333.6091 307.5719887  +6.5541268     1469.048     1802.898     1698.045     83.94895     167.9649     336.3318      1.258     2.79     986.0255     59.31343     223.5402        11     0.973     0.720  46.78   0
       484     97.6719    331.9063 307.8955926  +6.5287219     1492.578     2078.509     2282.497     84.21673     168.3666      336.566      1.446     3.50     1011.607     59.31343      238.808        12     1.145     0.730 -72.86   0
       485    118.0499    327.8445 307.8872647  +6.5310845     6629.855     9380.474     10016.49      84.3503     168.1659     336.5325      1.499     3.11     1010.874     59.31343     883.8937        30     1.338     1.029  88.06   0
       486    959.8961    329.3143 307.5374784  +6.5586838     978.7106     1312.559      1043.62      84.3503     168.7006      336.566      1.295     2.74     982.8474     59.31343     245.2048         7     0.840     0.614  69.18   0
       487    580.6952    329.0632 307.6950271  +6.5461122     3055.259       4173.8     4244.296     84.21673     168.4335     336.5325      1.463     2.92     990.1931     59.31343     437.4938        18     1.016     1.004   8.70   0
       488    788.3711    326.5760 307.6088318  +6.5540869     542.6931     595.5307     1156.475     83.81474     168.1659     336.3318      1.399     5.29     988.2131     59.31343     93.52039         5     1.011     0.781 -87.95   0
       489    563.9915    325.1451 307.7020985  +6.5471703     8018.728     11094.08     11257.17     83.68031     168.2328     336.1978      1.444     2.94     990.2152     59.31343     1204.551        28     1.229     1.024 -89.27   0
       490    292.9904    322.7718 307.8147622  +6.5390599      2886.71     4159.166     3848.055     83.94894     168.0989     336.3652      1.490     3.19     1000.207     59.31343     369.7858        20     1.076     0.995 -65.17   0
       491    426.9157    320.3073 307.7592083  +6.5445727     28396.21     40126.15     41527.97     84.08295     168.7673     336.6329      1.517     3.15     994.0003     59.31343     3788.815        47     1.339     1.141 -84.40   0
       492    605.6116    319.9483 307.6849825  +6.5507096     809.1339     1026.582     857.0304     83.68031     168.2328     336.2313      1.431     4.09      989.253     59.31343     115.9667         6     0.779     0.613 -37.80   0
       493    406.8742    318.5450 307.7675938  +6.5446279     1295.337      1736.53     2229.038     84.21673     168.2328     336.4322      1.453     3.99      994.805     59.31343     179.5768        13     1.169     0.786 -76.89   0
       494    693.3530    318.7891 307.6485692  +6.5541247     545.8142     828.9974     1086.397     83.81474     168.1659     336.1309      1.417     2.98     988.6634     59.31343     102.3092         5     0.726     0.454 -74.80   0
       495    534.9050    318.9346 307.7143914  +6.5487598     1425.764     1804.446     1607.657      84.3503     168.4335     336.5325      1.326     3.09     990.3532     59.31343     249.4066        10     0.916     0.730  65.03   0
       496    506.3605    315.8531 307.7263539  +6.5490753      1326.38     1723.846     2150.821     84.21673     168.2997     336.4656      1.370     3.83     990.7725     59.31343     187.3201        13     1.105     0.898 -41.92   0
       497    183.0453    317.7444 307.8606059  +6.5374404     1354.508     1520.083     1799.784      84.3503     168.2997     336.4991      0.607     0.76     1007.235     59.31343     788.9332         6     0.490     0.435   8.65   0
       498    821.5851    312.7654 307.5954967  +6.5608984     1015.349     1421.897     1353.184     83.94894     168.0319     336.3318      1.600     4.55     986.9403     59.31343     178.4861         9     1.284     0.479  84.36   0
       499    403.9773    312.7419 307.7689929  +6.5469264      862.897      1435.98     1944.934     83.94894     168.2997     336.3318      1.959     5.53     994.6934     59.31343     117.8969        10     1.216     0.708  84.51   0
       500    657.7795    312.6658 307.6635543  +6.5554623     652.5024     999.7289     1009.845     83.94894     168.2997     336.3652      1.351     4.28       988.53     59.31343     126.6255         9     0.913     0.760  86.21   0
       501    516.0112    310.7008 307.7225181  +6.5515259     9556.952      13073.7     13456.09     84.08294     167.9649     336.2648      1.451     3.03     990.2372     59.31343     1273.364        26     1.192     1.026  89.21   0
       502    785.0430    309.4785 307.6107889  +6.5610343     3810.916     4874.803     5348.696     84.21673     168.2997     336.5325      1.325     2.38     987.7259     59.31343     644.4166        20     1.123     0.886  70.14   0
       503    940.4958    309.1226 307.5462157  +6.5663726      1038.34     1013.147     687.2913     84.08294     168.5003      336.566      0.984     2.22     982.5239     59.31343     212.4875         6     0.729     0.495  82.29   0
       504    732.6318    309.1839 307.6325736  +6.5594038     789.0872      947.877     1099.393     83.94894     168.0319     336.3987      1.160     2.44     988.0516     59.31343      163.825         7     0.775     0.603  56.66   0
       505    342.3908    307.7312 307.7947473  +6.5469280     1152.478     1718.271     1605.964     83.81474     168.0989     336.3652      1.611     3.49     996.9896     59.31343     162.0358        12     1.000     0.838 -89.05   0
       506    178.1149    300.8762 307.8632242  +6.5442382     1224.206     1835.511     1652.809     84.48366     168.6339      336.566      1.649     5.42     1006.806     59.31343     158.8996        15     1.261     0.888 -80.55   0
       507    278.0305    300.8145 307.8217183  +6.5476220     540.7339     831.9469     431.2377     83.94894     168.0319     336.4322      1.635     6.05     999.9052     59.31343     72.78174         6     1.414     0.728  40.67   0
       508      1.4452    298.7668 307.9366878  +6.5391625      504.937     738.4375     721.0062     74.72552     135.7125     255.0892      1.334     4.12     1013.432     59.31343      92.7196         7     1.011     0.480  81.61  24
       509    405.9223    294.8948 307.7687867  +6.5543595     8209.535     11393.77      11669.3     84.08295     168.5003     336.5325      1.488     3.13     993.9299     59.31343     1136.592        27     1.218     1.055  88.06   0
       510    247.2007    296.9809 307.8346555  +6.5481687     5774.095     5997.412     5974.204     83.94894     167.8308     336.1644      0.471     0.89     1002.137     59.31343     3888.741         9     0.582     0.286   8.40   0
       511    261.6983    295.2736 307.8286904  +6.5493607     2362.533      3290.75      3175.74     83.94894     168.4335     336.4656      1.516     3.47     1000.864     59.31343     291.9347        21     1.154     1.080  34.69   0
       512    773.7648    290.7442 307.6161040  +6.5683917     64283.49     81983.29     84560.02     84.21673     168.2997     336.5325      1.319     2.58     987.2377     59.31343     10602.24        57     1.241     1.055  77.34   0
       513    759.5430    294.7780 307.6218771  +6.5662509      1101.05      1291.01     1316.321     83.94894     168.2328     336.2983      1.204     2.74     987.4119     59.31343     198.2122         7     0.731     0.700 -24.15   0
       514    445.3444    290.2506 307.7525656  +6.5575992      2442.53       3508.4      3233.51      84.3503     168.2997     336.5325      1.503     3.26     991.6597     59.31343     326.5405        18     1.166     0.944 -85.52   0
       515   1008.7213    287.8336 307.5185838  +6.5774374     2292.234     3009.867     2469.476     84.21673     168.2997     336.4991      1.198     2.54     978.4174     59.31343     452.1283        12     0.987     0.657  70.21   0
       516    949.5883    286.9625 307.5431814  +6.5758247     2902.861     3497.406     3568.959     83.81474     168.0989     336.1644      1.188     2.41      980.841     59.31343     553.6089        15     0.968     0.751  85.49   0
       517    591.7562    287.8281 307.6918198  +6.5635061     1408.601     1499.241     1328.498     83.94894     168.3666     336.3987      1.256     2.89     987.5174     59.31343     218.7372        11     0.958     0.721  41.44   0
       518    482.3598    286.7885 307.7373042  +6.5602697     1133.278     1411.014      1852.81     83.68031     168.0989     336.2313      1.516     3.58     989.2706     59.31343      168.906        11     1.019     0.766  64.40   0
       519    431.9449    285.8577 307.7582804  +6.5589634     2056.591     2821.677     2393.014     84.48366     168.3666     336.5325      1.493     3.48     992.1954     59.31343     261.1605        16     1.107     0.928 -86.92   0
       520    312.1266    285.0283 307.8080864  +6.5552843     605.3658     775.4879     373.0376     84.21673     168.2997     336.4322      1.209     3.27     997.3363     59.31343     109.8168         6     0.766     0.684  86.63   0
       521    853.1294    280.4225 307.5834771  +6.5753047     1343.194     1738.534     1979.504     83.94894     168.1659     336.4656      1.290     2.57     984.3167     59.31343     264.4505         9     0.879     0.618  75.49   0
       522    482.4215    280.7175 307.7374831  +6.5627781     767.9619     1106.546     948.4465     84.08295     167.9649     336.3987      1.515     3.46     988.7946     59.31343     98.53925         5     0.746     0.464 -73.29   0
       523    985.1626    278.4315 307.5286871  +6.5805334     692.6141     919.2308     448.5858     83.94894     168.0319     336.2983      1.481     3.65     979.0329     59.31343     119.8058         5     1.056     0.362 -85.90   0
       524    208.5315    277.1776 307.8513890  +6.5550443      2635.38     3677.099      4078.09     83.94894     168.2328     336.4656      1.525     3.19     1004.519     59.31343     391.6011        18     1.129     0.943  82.09   0
       525    772.2318    275.2658 307.6172610  +6.5747306     7344.298     9404.479     10175.21     84.21673     168.3666     336.4322      1.341     2.56     986.5411     59.31343     1139.716        26     1.244     0.913  80.12   0
       526    462.5588    277.2417 307.7458523  +6.5635470     1150.601     1489.072     1775.484     84.08295     168.2997     336.3652      1.463     3.36     989.6409     59.31343     165.7385        10     0.937     0.723   0.74   0
       527    362.8131    274.9614 307.7873687  +6.5611420     723.2832     908.2771     295.8255     83.94894     168.0989     336.1978      1.440     4.65     994.8378     59.31343     108.6159         7     1.044     0.587 -74.06   0
       528    244.0802    274.9875 307.8366947  +6.5571433      768.076     1226.205     957.9227     83.94894     167.9649     336.3318      1.743     5.19     1002.113     59.31343     115.2267         9     1.027     0.740 -74.79   0
       529    104.9380    274.2989 307.8945226  +6.5527481     1164.938     1371.583     1420.963     84.08294     168.4335     336.5994      1.326     3.91     1010.781     59.31343     148.7306        12     1.022     0.835  70.03   0
       530    788.6480    273.2903 307.6105069  +6.5760948     3219.263     4247.331     4357.019      84.3503     168.1659     336.6663      1.342     2.61     986.4095     59.31343     479.7466        15     0.978     0.823  85.82   0
       531     91.8071    268.5207 307.9001730  +6.5546915     1485.215     1984.299     2133.829     83.94894     167.7637     336.2648      1.532     3.76     1011.318     59.31343      221.228        16     1.194     0.948  71.30   0
       532    378.1610    267.9528 307.7812288  +6.5645505     1776.102     3238.941     3381.481     84.21673     168.2997     336.2983      1.924     5.87     993.8866     59.31343     214.3634        22     1.606     1.042  -3.44   0
       533    504.8472    264.0147 307.7287290  +6.5704253     2233.265     3271.552       3628.5     83.68031     168.0989     336.2313      1.573     3.36      987.053     59.31343     291.5037        17     1.107     0.927 -67.21   0
       534    275.7404    261.0547 307.8240122  +6.5639590     665.2563     783.3347      1807.34     84.48366     168.2328     336.4656      1.278     3.58     999.4209     59.31343     98.15747         7     0.729     0.682  68.04   0
       535    267.4320    259.6942 307.8275099  +6.5642415     6214.564     8806.044     9361.021     84.48366     168.0989     336.5994      1.561     3.10     1000.178     59.31343      822.137        28     1.227     1.103  77.78   0
       536    832.1117    258.5161 307.5929450  +6.5836465      689.927     647.5699     907.9428     84.08294     168.5003      336.566      1.083     3.38     984.3127     59.31343     138.8958         5     0.770     0.430 -23.54   0
       537      1.4658    252.0668 307.9382603  +6.5584417     1404.563     2383.462     3275.075     75.17612     135.9611     255.6622      1.902     4.59     1012.333     59.31343     275.9449        14     1.511     0.712 -86.08  24
       538    786.9037    252.9890 307.6119137  +6.5844177     817.6793     1034.786     1202.726     84.08295     167.8979     336.2983      1.329     2.90     985.5001     59.31343     150.4161         6     0.770     0.654 -82.98   0
       539    244.6908    252.7102 307.8371935  +6.5663605     676.3888     941.1898     924.4704      84.3503      168.834     336.5994      1.284     3.99     1002.029     59.31343     92.57715         6     1.117     0.408 -77.97   0
       540    401.6722    250.3616 307.7720543  +6.5726017     1925.331     2662.184     2136.239     84.21673     168.2328      336.566      1.498     3.52     991.7939     59.31343     257.1949        17     1.129     0.975 -77.17   0
       541    988.7993    249.5047 307.5281460  +6.5925970     1305.725         1471     1879.392     83.81474     167.8979     336.1309      1.196     3.34      977.791     59.31343      219.938        12     1.061     0.782  53.20   0
       542    208.5492    247.7884 307.8523747  +6.5671775     697.5203     1084.541     1254.443     83.68031     168.1659     336.1978      1.649     6.42     1004.377     59.31343     82.80029        11     1.103     1.048 -72.22   0
       543    324.0248    246.3999 307.8044471  +6.5716307     1297.701     1837.638     1608.552     83.81474     167.8979     336.2983      1.450     4.42     996.2017     59.31343     165.7418        13     1.157     0.836  74.96   0
       544    171.4158    246.1897 307.8678557  +6.5665888     2011.348     2902.039     2953.763     84.08295     168.0319     336.3652      1.539     3.79     1005.925     59.31343     257.3321        17     1.211     0.916 -88.05   0
       545    581.0701    241.7913 307.6978093  +6.5821539     2415.951     3312.445      3287.49     83.81474     167.8979     336.3652      1.440     2.99     984.5532     59.31343     334.8045        18     1.032     0.974  24.43   0
       546    924.3907    240.9201 307.5551951  +6.5939922     1874.382     2931.389     3503.153     83.94894     167.8979     336.3318      1.797     5.14     979.9623     59.31343     363.6825        15     1.546     0.742  30.04   0
       547    862.5057    241.5555 307.5808863  +6.5916638     610.1848     905.6507     700.1371     84.21673     168.2328     336.6329      1.315     3.74     982.0978     59.31343     101.2289         6     0.930     0.432 -72.23   0
       548    744.5924    239.4369 307.6299487  +6.5885982     6029.871     7747.809     7467.649     83.54567     168.0989     336.1978      1.316     2.62     984.9672     59.31343     822.7124        20     1.094     0.874  78.70   0
       549    685.4919    239.4343 307.6545039  +6.5866225     2403.797     3129.517     3161.969     84.48366     168.1659      336.566      1.367     3.32     984.9736     59.31343     367.4642        17     1.194     0.822 -71.87   0
       550    982.5986    239.2967 307.5310647  +6.5966045     859.6115     703.0439      850.041     83.81474     168.0319     336.1309      1.056     2.80      977.602     59.31343     155.3247         5     0.701     0.470 -74.39   0
       551    400.2576    233.6477 307.7732057  +6.5794542     743.3353     967.2025     806.5741      84.3503     168.2997     336.6329      1.548     4.61     991.0783     59.31343     105.3143         7     1.033     0.583  23.39   0
       552    940.6705    231.5496 307.5487454  +6.5984040     1548.589     1548.708     1424.612      84.3503     168.2328     336.5325      1.077     2.50     978.9531     59.31343     281.1449        10     0.895     0.661  80.71   0
       553    244.1036    224.9182 307.8383762  +6.5778140     2463.423      3745.26     3520.162     84.21673     168.6339     336.5994      1.622     3.69     1002.113     59.31343     332.7627        20     1.254     1.000 -83.91   0
       554    886.8504    223.6626 307.5713720  +6.5998637     2247.616     2841.463     3077.849      84.3503     168.2328      336.566      1.225     2.36     980.4451     59.31343     426.2806        11     0.915     0.692  72.22   0
       555    777.1351    223.1170 307.6169761  +6.5964236     1867.092     2261.329     2463.839     84.48366     168.5671      336.566      1.278     3.10      984.162     59.31343      303.388        11     0.988     0.698  89.70   0
       556    265.6684    218.4304 307.8296361  +6.5812170     642.2408     942.7838     871.8242     84.21673     168.2997     336.4656      1.725     5.77     1000.444     59.31343     105.7556         7     1.265     0.742 -27.48   0
       557    478.0715    214.6295 307.7415176  +6.5899156     25414.97     36157.34     37493.31     84.21673     168.2997     336.4656      1.512     3.09     984.4008     59.31343     3195.916        45     1.325     1.159  86.01   0
       558    339.0537    216.6370 307.7992077  +6.5844224     706.4548     1039.297     603.7892     84.21673     168.2997     336.5325      1.561     3.60      994.661     59.31343      114.476         6     0.840     0.692   8.85   0
       559    804.0940    213.7140 307.6060908  +6.6012066     15714.76      20386.2     21734.61      84.3503     168.7673      336.566      1.348     2.57     983.4891     59.31343     2848.888        41     1.210     1.177 -62.30   0
       560    742.5109    209.5176 307.6318192  +6.6008804     859.5235     1066.693     1126.078     84.08295     168.5003      336.566      1.284     3.78     983.8687     59.31343     128.6489         6     0.916     0.447  73.78   0
       561    483.7595    209.2117 307.7393369  +6.5923429     1490.698     2133.276     2138.715     83.68031     168.0989     336.2313      1.513     3.63      984.046     59.31343     188.9498        13     1.064     0.834 -84.75   0
       562    166.3804    207.9449 307.8712404  +6.5822077     2559.416      3744.21     3744.642     83.81474     168.2997     336.2983      1.558     3.42     1005.341     59.31343     345.6266        19     1.203     0.957 -81.60   0
       563    141.1055    206.8855 307.8817769  +6.5817948     1293.984     1940.348     2181.317      84.3503     168.7006      336.566      1.624     3.97     1006.869     59.31343     158.6718        14     1.065     0.943  77.29   0
       564    940.4229    204.3701 307.5497601  +6.6096167      1686.44     1918.083     2007.194     83.81474     168.0989     336.3318      1.089     2.61     977.8339     59.31343     308.4496        11     0.865     0.806  82.69   0
       565    193.7060    205.6785 307.8599644  +6.5840623     742.8915     822.0133      948.348     84.08295     168.5003     336.5325      1.291     2.23     1004.482     59.31343     140.9739         5     0.715     0.434  17.70   0
       566      4.2272    201.3798 307.9388294  +6.5794592     5595.056     7843.135     8486.379     83.81474     167.3606       298.11      1.491     3.05     1012.815     59.31343     753.8149        26     1.266     0.992  84.17  16
       567    602.0920    200.3702 307.6904696  +6.5999580     5194.014     7045.771     7469.919     84.48366     168.0319     336.4322      1.426     2.73     983.1315     59.31343     772.0951        24     1.140     0.996  88.37   0
       568    564.7592    200.3312 307.7059822  +6.5987237     2521.963     3354.468     3050.532     84.21673     168.2997     336.5994      1.415     3.34     983.1315     59.31343     302.6788        18     1.131     0.974  60.96   0
       569    322.6663    201.2542 307.8065354  +6.5902225     1318.213     1862.063     1918.874      84.3503     168.2328     336.4656      1.509     3.94     995.9645     59.31343     160.1098        12     1.005     0.829 -26.35   0
       570    406.6666    199.5812 307.7716919  +6.5937329     1626.097     2213.641     1850.228     83.94894     168.2997     336.3987      1.501     4.06     988.3131     59.31343     190.8257        11     0.946     0.829 -75.08   0
       571    909.1711    196.9773 307.5629934  +6.6116257     13781.29     17101.05      16934.2     83.81474     168.0989     336.3318      1.248     2.14     978.5128     59.31343     2819.172        28     1.103     0.896  80.82   0
       572    963.0790    197.5504 307.5405751  +6.6131881     3353.096     4040.974     4111.533      84.3503     168.3666     336.4991      1.134     2.09      976.528     59.31343     681.7208        13     0.911     0.725  73.28   0
       573    584.0339    196.8717 307.6980902  +6.6007976     916.3058     1277.265     1087.504     84.21673     168.2328     336.4991      1.411     4.06     983.0994     59.31343      147.746        11     1.063     0.808 -56.64   0
       574    337.0017    197.3519 307.8007111  +6.5923149      905.365      1292.77     1759.196     83.68031     167.8979     336.0639      1.866     5.27     994.4861     59.31343     112.5407        10     1.102     0.721 -71.74   0
       575    228.3309    197.1558 307.8458671  +6.5887449     733.3314     971.4745     787.4073      84.3503     168.2328     336.5325      1.379     3.81     1003.341     59.31343     111.7454         5     1.142     0.621  68.66   0
       576     35.3771    193.5935 307.9261518  +6.5837229     28826.34     40414.41     42473.21     83.81474     168.0989     336.3318      1.527     2.87     1011.843     59.31343     4166.926        49     1.369     1.147  86.20   0
       577    995.8142    194.7660 307.5270668  +6.6154296     12383.63     14812.87     15254.09     83.94894     168.0319     336.3652      1.172     2.03     974.8383     59.31343     2733.478        26     1.060     0.830  78.66   0
       578    707.1915    194.8151 307.6469885  +6.6057689     3272.845     4376.028     4308.138     83.94894     168.0319     336.3318      1.369     2.79     983.5331     59.31343     554.6658        18     1.103     0.876  83.62   0
       579    281.6715    194.6040 307.8237920  +6.5915909     1326.104     1679.551     1588.203     83.81474     167.8979     336.3318      1.466     3.62     1000.079     59.31343     161.0051        13     0.963     0.904  42.02   0
       580    515.7658    189.7603 307.7266943  +6.6014460     2218.081     3112.374     2857.915     84.08295     168.1659     336.2983      1.422     3.51     983.3543     59.31343     303.5575        17     1.277     0.816  80.86   0
       581    847.7785    186.3734 307.5888583  +6.6139534      2398.23      3076.37     2707.823     83.81474     168.0989     336.4322      1.260     2.80     979.7554     59.31343       421.04        15     1.146     0.763  64.42   0
       582    899.9922    185.5138 307.5671920  +6.6160519     2503.669     3140.818     3622.997     83.94894     167.9649     336.2983      1.234     2.30     978.1882     59.31343     493.6873        13     0.994     0.687  86.60   0
       583    527.8351    185.5487 307.7218215  +6.6035892      2712.38     3529.332     3539.441     84.21673     168.2997     336.4322      1.410     3.19     983.1677     59.31343     355.5159        17     1.078     0.928 -82.06   0
       584    759.3450    182.8617 307.6257206  +6.6124479     47128.91     60959.47     62269.07     84.48366     168.2328     336.4656      1.344     2.54     982.7677     59.31343     7896.212        51     1.254     1.039  79.94   0
       585    362.4697    182.3672 307.7906355  +6.5993561      6287.06     12315.99     13277.86     84.21673     168.2997     336.5325      2.062     5.88     991.3624     59.31343     683.7957        42     1.947     1.119 -79.14   0
       586    993.1711    181.5745 307.5286074  +6.6207874     3552.741     4309.092     4422.973     83.81474     168.0989     336.3652      1.186     2.17     974.2433     59.31343     762.9611        14     0.974     0.722  84.46   0
       587    927.2264    180.0152 307.5560605  +6.6192310     9222.893     11119.04     11685.31     83.94894     168.1659     336.4322      1.235     2.24     977.4371     59.31343     1772.837        20     1.054     0.806  81.34   0
       588    470.7556    179.0912 307.7457550  +6.6043416     5556.555     7808.298     8138.631      84.3503     168.2328     336.6329      1.490     2.90     983.9087     59.31343     845.7833        23     1.140     1.048  83.97   0
       589    245.2123    175.8780 307.8395722  +6.5980963     783.6605     1113.314     371.7337     83.94894     167.8979     336.3318      1.391     4.25     1002.485     59.31343     142.7992         9     0.962     0.742 -82.58   0
       590    128.2257    170.4882 307.8883588  +6.5963870      5456.51     7546.208     7746.486     84.48366     168.0989     336.3318      1.509     3.19     1006.681     59.31343     664.2996        26     1.252     1.036 -89.49   0
       591    947.5794    169.6543 307.5479511  +6.6241877     1131.543      1376.77     2004.727     83.81474     168.2997     336.2983      1.071     2.55     975.9944     59.31343      197.082         8     0.861     0.603  88.52   0
       592    298.4399    167.1269 307.8177529  +6.6034975     36694.68     52496.56      54703.8     84.21673     168.3666      336.566      1.564     3.15     999.6026     59.31343     5059.013        57     1.388     1.206 -87.79   0
       593    273.7959    168.1144 307.8279587  +6.6022618     7202.275      10287.4      10457.7     83.81474     167.8979     336.1644      1.517     3.24     1001.436     59.31343     1032.824        29     1.271     1.084  82.54   0
       594    624.9622    168.8077 307.6820295  +6.6137539     733.4179     1049.007     1392.212     83.54567     168.0319     336.2313      1.418     3.78     982.8361     59.31343     113.3915         5     0.808     0.509 -53.47   0
       595    727.7090    166.3095 307.6394219  +6.6182234      1138.05     1449.833     1596.515      84.3503      168.834     336.5994      1.370     5.04     982.6636     59.31343     156.1174        11     1.141     0.820  62.36   0
       596    422.5215    162.5766 307.7663525  +6.6095415     55928.56     78194.76     80840.66     83.94895     168.0989     336.4656      1.549     3.07      984.409     59.31343      7155.75        59     1.360     1.191 -89.08   0
       597    178.4720    163.8617 307.8677071  +6.6008129     4453.418     6375.559     6735.958     84.48366     168.2997      336.566      1.560     3.14     1004.082     59.31343     661.8293        26     1.253     1.054  84.71   0
       598    439.9204    162.7701 307.7591169  +6.6100453     1502.618     2117.115     2460.537     84.21673     168.2997     336.4656      1.585     3.90     984.0776     59.31343     185.9224        14     1.029     0.930  11.15   0
       599    333.8328    160.0937 307.8032853  +6.6075897     2241.097     3622.384     3884.008     84.48366     168.1659      336.566      1.810     4.55     994.3369     59.31343      289.402        25     1.438     1.147 -66.94   1
       600    326.5231    160.2987 307.8063154  +6.6072596     20316.72     28457.81     29597.57     83.94894     168.5003     336.4991      1.535     3.11     995.3992     59.31343     2712.225        42     1.299     1.152  89.68   0
       601    761.7911    158.7509 307.6255147  +6.6224835     39287.03     50674.08     52050.54     83.81474     168.0989     336.1644      1.338     2.61     981.7623     59.31343     6474.451        45     1.220     1.031  78.71   0
       602    709.8861    160.4299 307.6470252  +6.6200546     1208.729     1504.761     1314.101     84.48366     168.0319     336.3987      1.251     2.32     982.5338     59.31343     211.3261         9     0.834     0.657  68.91   0
       603    810.0500    159.0673 307.6054519  +6.6239660     1437.917      1930.96     2175.643     84.21673     168.1659     336.4656      1.382     2.65     980.3281     59.31343     250.7078        12     0.918     0.805  86.22   0
       604     49.5361    159.0070 307.9214401  +6.5984776     675.5704     1131.858    -63.11552     83.68031     167.9649     336.2983      1.582     5.28     1011.136     59.31343     91.94373         8     1.187     0.663  84.91   0
       605     78.6974    156.0924 307.9094232  +6.6006628     10327.24     14263.88     14579.15      84.3503      168.834     336.4322      1.477     2.95     1009.337     59.31343     1596.837        31     1.290     1.022 -89.40   0
       606    112.5331    154.1918 307.8954298  +6.6025864     1707.039     2444.121     2452.414     83.81474     168.0319     336.3318      1.518     3.93     1007.204     59.31343     223.3221        14     1.210     0.814 -85.90   0
       607   1020.3950    153.1938 307.5182469  +6.6334121     1394.646      1687.02     2084.271     83.68031     168.0319     303.0539      1.143     2.58     971.1749     59.31343     272.3793         9     0.943     0.582  87.47  16
       608    746.3045    147.3128 307.6323340  +6.6266879     627.7436     792.9473      866.046      84.3503     168.7006      336.566      1.222     4.03      981.366     59.31343     116.5017         6     1.060     0.438 -81.66   0
       609    595.5511    143.2846 307.6951090  +6.6233059     961.7206     1331.413     1440.043      84.3503     168.2997     336.5325      1.319     3.79     981.8401     59.31343     162.0065         7     0.963     0.480  81.02   0
       610     12.0612    141.3958 307.9376058  +6.6044854     1072.277     1280.129     619.1962     83.68031     168.0989     336.1978      1.277     3.12     1013.163     59.31343     180.5817        10     0.954     0.719 -49.97   0
       611   1021.2004    139.4163 307.5183741  +6.6391269     2976.578     3756.056     4562.527     83.94894     164.3057     292.1209      1.322     2.48     970.5098     59.31343     566.6547        16     1.053     0.763  64.10  24
       612    604.0718    136.9554 307.6917817  +6.6262041     1327.938     1560.245     1597.186     84.21673     168.2997     336.5325      1.349     3.33     981.4474     59.31343     219.4636        12     1.080     0.719 -87.78   0
       613    612.4772    135.1309 307.6883506  +6.6272388     2220.182     2994.659     2443.149     84.48366     168.4335     336.4656      1.425     3.17     981.2742     59.31343     303.8189        15     1.042     0.896  48.80   0
       614    356.9075    135.3009 307.7945347  +6.6185996     1145.837     1316.502     1447.447      84.3503     168.9007     336.4322      1.472     4.09      991.009     59.31343      129.616        11     0.979     0.778 -78.26   0
       615    297.3878    133.3822 307.8193295  +6.6173928     34205.19      48481.7     50680.16     84.08295     167.9649     336.3987      1.564     3.04     999.9517     59.31343     4608.375        55     1.379     1.196  86.35   0
       616     42.5968    131.8559 307.9252422  +6.6094523     5038.141     6782.095     6495.825     83.68031     168.0989     336.1644      1.440     2.96     1011.033     59.31343     795.8855        20     1.184     0.906 -88.48   0
       617    206.7735    131.3350 307.8570478  +6.6151924     1083.807     1230.331     1444.064     83.94894     168.2328     336.3987      1.296     3.46      1003.12     59.31343     167.5533        10     0.963     0.711  88.53   0
       618    728.9943    129.8977 307.6401122  +6.6332985     9564.802     12316.76     12823.94     84.08295     167.9649     336.2313      1.352     2.70     980.5895     59.31343     1610.544        27     1.168     0.936  73.04   0
       619    283.2700    128.1876 307.8253708  +6.6190629     916.5283     1514.597     1598.077     83.81474     168.0319     336.3318      1.714     4.94      1001.31     59.31343     124.6763        10     1.071     0.753 -79.20   0
       620    139.7937    127.0310 307.8850223  +6.6147162     5417.697     7777.728     8133.242     83.68031     168.0319     336.2648      1.506     3.22     1005.106     59.31343     785.4525        31     1.342     1.136  54.63   0
       621    601.6037    125.0185 307.6932091  +6.6310494     866.1014     1046.145     1069.411     83.94894     167.8308     336.2983      1.193     2.65     980.8521     59.31343     159.1434         7     0.733     0.656 -86.19   0
       622    478.8323    124.4868 307.7442397  +6.6271548     1523.011     2086.219     1509.494      84.3503     168.0989     336.4991      1.439     3.11      982.765     59.31343     257.2658        13     0.986     0.866  79.96   0
       623    410.5547    123.1822 307.7726533  +6.6254031     4099.675     6529.688     6516.919     83.94894     168.1659     336.2313      1.735     3.78     984.9934     59.31343     531.4865        28     1.425     1.101  85.67   0
       624    667.6289    123.8583 307.6658137  +6.6337388     976.5498     1266.045      1324.82     83.94894     168.3666     336.3987      1.280     3.68     980.6754     59.31343     143.9193         9     0.911     0.713 -69.39   0
       625    374.8867    122.0897 307.7875103  +6.6246571     3594.808     5088.826     4789.359     84.08295     168.7673     336.6329      1.494     3.37     989.0029     59.31343     489.2623        21     1.197     0.976 -87.75   0
       626    586.5424    121.3751 307.6995900  +6.6320492     834.9581     1322.209     1627.687     83.94895     168.2997     336.3652      1.723     5.91     980.9619     59.31343     110.9907         9     1.370     0.718 -71.54   0
       627    129.2567    121.9149 307.8895733  +6.6164737     1923.831     2608.495     2499.856      84.3503     168.2997     336.6663      1.431     3.23     1005.586     59.31343     302.6628        16     1.157     0.841  71.77   0
       628    957.3186    121.1569 307.5455313  +6.6445344     560.9035     625.6634     420.1671      84.3503     168.2997     336.4656      1.227     4.57      972.392     59.31343     118.7299         5     0.964     0.616  58.59   0
       629    765.0726    119.9762 307.6254544  +6.6386009     624.7299     696.9529     272.3566     83.94894     168.0989     336.4322      1.256     3.65     979.0206     59.31343     133.3224         7     0.884     0.549  35.68   0
       630   1021.8250    116.1646 307.5188942  +6.6487470     1882.449     2234.615     2694.132     83.81474     158.6587     283.1184      1.148     1.97     969.4654     59.31343     421.4273        11     0.897     0.658  74.50  16
       631    747.5355    116.3075 307.6328648  +6.6395292     678.4767     914.4287      534.627      84.3503     168.5003      336.566      1.135     3.11      979.293     59.31343     159.4076         7     0.942     0.473  78.70   0
       632    226.7645    110.9857 307.8494295  +6.6242652     6173.339     8709.322     8799.692     83.94894     168.0989     336.2983      1.505     2.99     1002.372     59.31343     934.5417        31     1.350     1.069 -83.93   0
       633    109.5309    110.7400 307.8981470  +6.6204230     2364.912     3240.789     3557.221     84.48366     168.2997     336.4991      1.492     3.41     1006.261     59.31343     323.9888        19     1.229     0.946  86.03   0
       634    688.5436    109.6521 307.6576011  +6.6403035      7324.79     9544.876     9793.314      84.3503     168.2997     336.4991      1.390     2.71     979.7375     59.31343      1031.67        30     1.210     1.004  70.74   0
       635    865.4022    110.3456 307.5840883  +6.6459294     751.7065     1076.376     1343.883     83.68031     168.0989     336.0974      1.206     2.77     974.6561     59.31343      140.455         5     0.705     0.461  71.67   0
       636    836.5575    109.4296 307.5961049  +6.6453440      1409.07     1887.275     1494.878     83.94895     168.2328     336.3318      1.292     2.48     975.6791     59.31343     230.8225        12     0.913     0.778  58.51   0
       637    640.7270    107.0010 307.6775592  +6.6397977     10822.09     14540.81     15257.18     83.68031     167.7637     336.3318      1.405     2.78     979.7241     59.31343      1656.81        30     1.235     0.990 -89.92   0
       638    275.1323    107.6692 307.8294449  +6.6272600     873.0607     1292.555     1497.463      84.3503     168.4335     336.4991      1.563     5.15     1001.426     59.31343     130.2014        10     1.080     0.786 -15.08   0
       639     39.6134    105.8281 307.9273628  +6.6200965     1003.384     1700.641     1519.505     83.94894     168.0989     336.3987      1.773     5.11     1010.745     59.31343     143.3757        13     1.420     0.714 -69.84   0
       640    578.9773    106.1858 307.7032448  +6.6380664      700.186     1032.734     1302.524     84.08295     168.0989     336.3987      1.501     3.28     980.5369     59.31343      114.037         6     0.892     0.466  37.84   0
       641    367.8665    102.5977 307.7910849  +6.6324683     4006.171     6367.682     7009.963     83.68031     167.9649     336.2648      1.720     3.71     989.7777     59.31343     524.0984        31     1.519     1.173 -61.92   0
       642   1013.8818    101.8325 307.5226754  +6.6543991      1006.04     1278.815     430.1589     84.21673     168.2328     336.4656      1.265     3.22      969.136     59.31343     185.7878        10     1.098     0.623 -79.75   0
       643    549.6814    102.0099 307.7155585  +6.6388088     2027.327     2704.727     2889.147     83.94894     167.8979     336.3318      1.442     3.14     981.2814     59.31343     262.1039        15     1.080     0.859  86.02   0
       644    644.2798     98.4987 307.6763691  +6.6434266     62378.42     82110.88     85191.02     84.21673     168.7006     336.5325      1.400     2.62     979.2232     59.31343     9310.394        61     1.310     1.109  78.61   0
       645    323.4766     92.2215 307.8098794  +6.6352613     3913.184     5640.739     6283.398     83.94894     168.0989     336.4322      1.611     3.22     996.0211     59.31343     497.4183        21     1.196     1.002  89.57   0
       646    777.0284   1021.5696 307.5902075  +6.2667823     920.6528     1274.881     1212.217     83.81474     161.3326     286.9103      1.428     2.78     1015.121     59.31343     188.6371         8     0.841     0.636 -87.13  16
       647    694.6919     85.5801 307.6558561  +6.6504470      1526.03     2173.855     2236.623     84.21673     168.0319     336.3318      1.439     3.33     978.3515     59.31343     252.6533        14     1.169     0.734  48.94   0
       648    519.1647     89.2314 307.7286692  +6.6430615      594.047      672.315      672.443     83.94894     168.0319     336.2313      1.203     3.50      981.415     59.31343     94.73096         5     1.023     0.345 -44.05   0
       649    708.6275     82.3205 307.6501750  +6.6522589     3816.354     5039.416     5305.125     84.21673     168.2328     336.4991      1.343     2.62     977.8961     59.31343     590.9283        20     1.162     0.874 -89.80   0
       650    277.5836     82.6024 307.8292731  +6.6376905     460.4082     491.5373    -3.539011     83.94895     167.8979     336.2983      1.094     4.29     1001.088     59.31343     80.92657         5     0.993     0.529 -47.82   0
       651    450.4416     73.5143 307.7577549  +6.6472456     4773.261     6723.332     6643.729      84.3503     168.2328     336.4991      1.557     2.89     983.2147     59.31343     605.7904        24     1.216     1.024 -84.37   0
       652    904.9667     69.6874 307.5690128  +6.6640358     2711.692     3457.474     3965.552      84.3503     168.1659     336.4991      1.314     2.37     971.3563     59.31343     548.3084        17     1.029     0.851  88.82   0
       653    922.8489     68.8114 307.5616113  +6.6649944     4878.198     6063.313     6915.482     83.68031     168.2328     336.1644      1.242     2.23      970.934     59.31343     1015.273        20     1.082     0.806  74.15   0
       654    603.0795     69.1595 307.6944765  +6.6541593     953.1639     1245.177     1432.185     84.21673     168.2997     336.4656      1.382     3.21     978.4649     59.31343     148.9818         7     0.873     0.525  45.29   0
       655    615.1547     67.4646 307.6895160  +6.6552634     2183.364     2837.057     3216.374      84.3503     168.2328     336.4991      1.428     2.81     978.2365     59.31343     327.6256        14     0.930     0.914 -81.79   0
       656    261.1327     66.7750 307.8366432  +6.6436715     1089.625     1686.844     2451.176     83.94894     168.1659     336.3987      1.882     4.95     1001.131     59.31343     145.5873        10     1.133     0.655 -89.95   0
       657    634.7704     67.3148 307.6813700  +6.6559820       643.51     618.6461     605.7335      84.3503     168.0989     336.3652      1.191     4.26     978.1216     59.31343     103.8666         6     0.753     0.685  79.24   0
       658    413.7473     65.6250 307.7732682  +6.6492715     2255.506     3236.721     2805.487     83.81474     168.2997     336.3987      1.487     3.29     985.0125     59.31343     354.7107        15     1.044     0.920 -72.65   0
       659    161.6872     62.2015 307.8781181  +6.6422156     3681.327     5346.028     5443.767     83.54567     167.8308     336.1978      1.545     3.21     1002.478     59.31343     515.5991        24     1.329     0.965 -88.28   0
       660    310.0517     60.7864 307.8165189  +6.6477875       1636.7     2396.485      2400.37     83.68031     168.2328     336.2313      1.526     3.76     997.7812     59.31343     236.0353        15     1.045     0.974  78.40   0
       661     43.6174     60.0663 307.9272484  +6.6391225     14099.91     19437.03     20413.66     83.81474     168.2328     336.3652      1.459     2.94     1008.424     59.31343     2188.888        35     1.260     1.046  83.27   0
       662    964.5764     58.7189 307.5446101  +6.6705535     693.2911     1052.915     1676.759     84.08295     167.9649     336.3987      1.691     4.06      967.936     59.31343     115.7109         7     1.161     0.407  75.04   0
       663    583.7094     59.7783 307.7028414  +6.6573834      842.319     766.1956     104.1679      84.3503     168.0989     336.3652      1.265     4.57     978.5291     59.31343     128.7874         8     0.948     0.624 -81.00   0
       664    723.1480     86.6826 307.6439946  +6.6509438     1085.772     1467.324     1207.413      84.3503     168.2997      336.566      1.398     3.14     977.9668     59.31343     158.4174         9     0.902     0.655  72.73   0
       665    570.6311     59.2590 307.7082933  +6.6571597     952.9164     1016.552      891.191     84.08295     168.2997     336.4656      1.174     2.75     978.7267     59.31343     164.0135         9     0.851     0.714  25.34   0
       666    911.9636     55.5847 307.5665786  +6.6700916     710.0477     881.7896      474.681     83.94894     168.0989     336.2648      1.254     2.92     970.6406     59.31343     134.1487         6     0.903     0.482 -76.90   0
       667    845.3026     54.5483 307.5943144  +6.6682933     7659.629      9507.76     10179.45     84.21673     168.2997     336.7332      1.240     2.33     972.2912     59.31343     1351.767        24     1.144     0.922  81.60   0
       668    790.4305     54.9342 307.6171034  +6.6663004     4000.416     5198.121      5376.47     84.08294     168.2997     336.4322      1.314     2.48     974.7512     59.31343     702.2835        19     1.055     0.894  67.67   0
       669    435.4463     55.6891 307.7645869  +6.6541013     1252.575     1611.893     1452.895      84.3503     168.1659     336.6329      1.472     2.91     983.8971     59.31343     210.3368        12     0.964     0.799 -26.71   0
       670    115.4853     55.8091 307.8975314  +6.6432998     572.9664     741.3066     1098.501     83.94894     167.9649     336.3318      1.232     2.87     1004.031     59.31343     112.9747         5     0.734     0.463 -70.79   0
       671    936.2224     54.6146 307.5565304  +6.6713018     699.4105     1059.778     1651.356     84.08295     168.0989     336.3987      1.174     3.64     969.8418     59.31343     132.1983         5     0.944     0.403  83.19   0
       672    777.5366     54.0124 307.6224924  +6.6662499     720.3159     1044.269     1906.438     83.81474     168.0989     336.2648      1.637     4.41     974.8739     59.31343     137.8839         8     1.191     0.578 -70.59   0
       673    552.8620     53.3650 307.7158755  +6.6589975     1269.475     1854.874     2665.137     84.21673     168.2997     336.4656      1.552     4.14     978.7396     59.31343     160.3831        11     0.970     0.836 -70.68   0
       674     83.9316     52.0088 307.9107707  +6.6438063     3571.315     5188.163      5157.69     83.81474     168.0319     336.3987      1.477     3.05     1005.402     59.31343     528.8372        22     1.165     1.013  62.82   0
       675     68.2538     52.8441 307.9172565  +6.6429336     1116.329     1436.073     1201.448      84.3503     168.2997     336.4991      1.356     4.59     1006.496     59.31343     179.8063         8     1.084     0.611  48.02   0
       676    445.1870     51.5232 307.7606798  +6.6561479     1187.349     1576.649     1800.678     83.94894     167.8979     336.2983      1.342     3.13     983.4043     59.31343     180.4512        10     0.948     0.675  89.14   0
       677    607.7687     48.2607 307.6932316  +6.6629440     1532.321     2119.051      1912.95     84.08295     168.3666     336.4322      1.437     3.50     977.7169     59.31343     214.6378        12     1.121     0.723  84.43   0
       678     26.3859     47.4288 307.9348360  +6.6437589     2942.078     4005.971     5006.213     83.94895     168.0989     336.3987      1.470     3.20     1008.933     59.31343     389.5558        18     1.197     0.865  67.71   0
       679     98.9021     43.3860 307.9048421  +6.6478700     974.1014     1186.357     1099.298     84.21673     168.0319     336.2648      1.427     5.06     1004.099     59.31343     146.0498         9     1.241     0.603 -39.57   0
       680    784.9432     42.3658 307.6198060  +6.6713057     2423.535     2950.016     3120.266     84.21673     168.2997     336.4991      1.273     2.55     974.2324     59.31343     430.6861        13     1.040     0.712  77.67   0
       681    425.8972     42.5123 307.7689992  +6.6592207     1288.412     1483.954     1472.337      84.3503     168.7673     336.5325      1.353     3.23     984.4391     59.31343     180.2084        12     0.998     0.787 -89.30   0
       682    676.2617     42.1571 307.6649754  +6.6677568     571.9875     508.5941     1261.126      84.3503     168.2328     336.5994      1.001     3.74     976.7444     59.31343     111.3326         6     0.759     0.575  45.87   0
       683    122.7714     41.5695 307.8949857  +6.6494234     1083.464     1406.109     1788.055     83.81474     168.0319     336.2313      1.426     4.74     1003.171     59.31343     140.7714        11     1.085     0.712 -50.01   0
       684    111.6568     36.2975 307.8997823  +6.6512256     10881.14     14995.85     15846.01     84.21673     168.2328     336.7332      1.484     3.04     1003.333     59.31343     1614.574        34     1.302     1.079 -88.75   0
       685    440.7770     36.1072 307.7630322  +6.6623641      2848.94     3876.036     4097.361      84.3503     168.0989     336.3318      1.468     3.19     983.6248     59.31343     363.4899        20     1.159     0.978 -67.76   0
       686    261.9962     35.2672 307.8373488  +6.6567076     779.0021     1098.144     1013.565     83.68031     167.9649     336.2648      1.388     3.11     1000.605     59.31343     133.9357         7     0.765     0.630 -18.38   0
       687    278.4750     30.0966 307.8306762  +6.6593960     1706.035     2361.069     3455.653     83.94894     168.4335     336.5325      1.543     3.68     1000.144     59.31343     241.6852        16     1.165     0.936 -80.63   0
       688    654.4197     28.2076 307.6745211  +6.6727845     21603.73     28166.45     29266.91     83.94894     168.0319     336.2983      1.353     2.54     976.5109     59.31343       3311.3        37     1.193     1.026  76.84   0
       689    710.3011     29.1053 307.6512694  +6.6742839     613.6451     687.8544     913.1388      84.3503      168.834     336.3318      1.152     3.33     974.7921     59.31343     119.5557         5     0.780     0.411  72.16   0
       690    963.3724     27.8645 307.5461456  +6.6832513     662.6921     830.9483      1172.01     83.94894     168.2997     336.3987      1.212     2.78     966.0408     59.31343     139.3328         6     0.791     0.473  80.78   0
       691    554.2192     24.2648 307.7162918  +6.6710564     6168.728     8195.102     8463.318     83.94894     168.2997     336.3318      1.397     2.76      977.207     59.31343      879.782        25     1.173     0.987 -84.09   0
       692    272.4792     24.5874 307.8333537  +6.6614688     2153.033     3274.426     4638.604     83.94895     167.9649     336.3318      1.789     3.24     1000.202     59.31343     283.0709        17     1.080     0.968  77.25   0
       693    710.4299     22.9972 307.6514214  +6.6768099     635.0839     966.2436     1369.404     83.81474     168.0989     336.2983      1.352     1.93     974.4427     59.31343     145.8469         6     0.735     0.495 -88.77   0
       694     21.6278     22.5191 307.9376565  +6.6538816     1338.029     1950.117     1787.271     84.21673     168.0989     336.4656      1.592     3.90     1007.899     59.31343      203.645        13     1.154     0.795  45.69   0
       695    983.1653   1019.8533 307.5046712  +6.2743705     703.3272     802.4076     685.8386     84.21673     168.2997     309.7411      1.174     4.45     1010.414     59.31343      142.397         7     0.992     0.627  86.38  16
       696    812.3840   1016.5928 307.5756940  +6.2700179     8740.629     10621.71     10587.35     83.94894     168.0319     336.3318      1.174     2.32     1014.104     59.31343      1589.77        22     1.051     0.875  78.24  16
       697    340.3628     21.1246 307.8052630  +6.6651789      1218.61     1766.824      1993.27     84.21673     168.3666     336.5325      1.712     3.85     994.4938     59.31343     187.0456        14     1.211     0.812 -58.98   0
       698    852.1723   1015.5317 307.5592084  +6.2717845     679.4688     809.9362     840.2599     83.94894     168.2328     336.3987      1.039     3.08     1013.601     59.31343     157.7342         6     0.880     0.547 -66.06   0
       699    937.5720     19.7647 307.5571391  +6.6857342     2518.266     3091.708     2799.561     83.94894     168.0319     336.2983      1.222     2.53     968.2728     59.31343     464.2619        15     1.039     0.726  67.71   0
       700    525.2719     21.1539 307.7284254  +6.6713706     585.4873     768.8789     269.9311      84.3503     168.3666     336.4991      1.300     3.44     978.3196     59.31343     113.3714         5     0.987     0.348 -42.63   0
       701    910.1719   1013.3480 307.5351984  +6.2746218     1760.935     1914.824     1905.357     84.08295     168.4335     336.3987      1.098     2.32     1013.368     59.31343     324.7805         9     0.834     0.646 -81.54   0
       702    572.8358     19.6879 307.7087099  +6.6735697     726.2206     842.5603     996.0074      84.3503     168.1659     336.4991      1.351     4.18     976.9524     59.31343     101.6138         7     0.867     0.594 -29.15   0
       703    545.0035     19.8495 307.7202701  +6.6725704     740.0899     1103.699     1388.559     83.68031     168.0989     336.0639      1.404     2.64     977.0193     59.31343     140.4993         5     0.632     0.574  89.57   0
       704    232.9266   1011.8972 307.8164499  +6.2525498     2859.607     3570.638     3815.707     83.94894     168.5003     336.4991      1.265     2.53     1024.628     59.31343     543.3989        13     1.024     0.693  88.34   0
       705    321.7101     15.2167 307.8132133  +6.6669913     1133.996     1559.824     1407.668     84.08295     168.0319     336.3987      1.483     3.11     996.3483     59.31343     170.4674        11     0.988     0.736 -43.40   0
       706    451.0346   1009.2093 307.7259813  +6.2609770      4953.25     6258.935     6655.225     83.81474     168.0989     336.2983      1.260     2.18     1022.023     59.31343     1044.134        19     1.167     0.821 -74.16   0
       707    736.1275   1009.0284 307.6076116  +6.2705932     9589.144     11578.09      11875.8     84.21673     168.2997     336.4656      1.217     2.19     1016.089     59.31343     1984.054        22     1.023     0.833  88.41   0
       708    592.3111   1008.0143 307.6673614  +6.2662019     5143.297     6396.485     7360.181     84.08294     168.0989     336.3652      1.263     2.52     1020.826     59.31343     976.8625        21     1.159     0.852 -88.34   0
       709    728.4255   1008.4272 307.6108298  +6.2705840     1719.764     2191.947     2315.512     83.81474     168.0989     336.3652      1.198     2.81     1016.125     59.31343     294.6282         9     0.982     0.563 -84.61   0
       710    768.2335   1004.2548 307.5944405  +6.2736368     1547.906     1931.843     2800.678     84.21673     168.2997     336.4656      1.340     2.63         1015     59.31343     274.9755        10     0.951     0.637  71.37   0
       711    217.5273   1002.7957 307.8231507  +6.2557899     651.2249     877.0745     1007.169     83.94894     167.8308     336.3652      1.369     4.47     1024.589     59.31343     126.0352         8     0.840     0.806  -6.57   0
       712    975.7258    998.5393 307.5084743  +6.2829220     8763.405     10646.18     10802.48     84.61681     168.2997     336.4991      1.242     2.48     1009.811     59.31343      1345.93        25     1.100     0.889  74.91   0
       713    730.2654    999.2256 307.6103748  +6.2744443     1532.811     2033.052     2664.807     83.94894     168.2328     336.3987      1.299     2.89     1015.869     59.31343     259.9711        11     0.974     0.717 -75.90   0
