#   1 NUMBER                 Running object number                                     
#   2 X_IMAGE                Object position along x                                    [pixel]
#   3 Y_IMAGE                Object position along y                                    [pixel]
#   4 ALPHA_J2000            Right ascension of barycenter (J2000)                      [deg]
#   5 DELTA_J2000            Declination of barycenter (J2000)                          [deg]
#   6 FLUX_APER              Flux vector within fixed circular aperture(s)              [count]
#   9 FLUXERR_APER           RMS error vector for aperture flux(es)                     [count]
#  12 FLUX_RADIUS            Fraction-of-light radii                                    [pixel]
#  13 FWHM_IMAGE             FWHM assuming a gaussian core                              [pixel]
#  14 BACKGROUND             Background at centroid position                            [count]
#  15 THRESHOLD              Detection threshold above background                       [count]
#  16 FLUX_MAX               Peak flux above background                                 [count]
#  17 ISOAREA_IMAGE          Isophotal area above Analysis threshold                    [pixel**2]
#  18 A_IMAGE                Profile RMS along major axis                               [pixel]
#  19 B_IMAGE                Profile RMS along minor axis                               [pixel]
#  20 THETA_IMAGE            Position angle (CCW/x)                                     [deg]
#  21 FLAGS                  Extraction flags                                          
         1    185.0783     18.0810 307.8650345  +6.6681935     12456.49     16870.08     17541.12     77.50266     154.3948     308.3611      1.418     3.05      824.149     54.32666     2000.325        37     1.342     0.986 -58.74   0
         2    930.7331     15.9103 307.5553127  +6.6940874     4796.496     6107.147     6467.044      77.3807     154.2724     308.1773      1.364     3.00      811.511     54.32666     721.9102        20     1.148     0.862 -62.79   0
         3    529.3268     16.2251 307.7220773  +6.6805245     3350.477     4378.623      4062.46     76.89094     154.0273     308.1466      1.363     3.17     813.3174     54.32666     533.6612        18     1.186     0.788 -63.95   0
         4    731.5626     14.4743 307.6381128  +6.6880221     2393.922     3262.967     2638.979     77.13621     154.2112     308.2386      1.428     3.02     813.4703     54.32666     397.2956        16     1.157     0.776 -69.65   0
         5    467.5847     14.7241 307.7477795  +6.6790730     2139.523     2873.465     2793.194     76.76801     153.9047     308.0853      1.396     3.00     814.2745     54.32666     320.4209        15     1.161     0.738 -67.44   0
         6    995.5705     12.2092 307.5284976  +6.6977799     2269.876      3091.61     3309.723     76.76801      153.966      308.024      1.413     3.82     807.8955     54.32666     362.8173        17     1.284     0.783 -60.31   0
         7    714.9050      8.5762 307.6452320  +6.6898996      8629.23     11402.72     11569.74      77.3807     153.9047     308.0853      1.406     3.42      813.319     54.32666     1303.541        29     1.309     0.898 -67.05  16
         8    635.1919      7.8189 307.6783764  +6.6875431     4458.186     5782.334     6482.632     76.89094     153.8433     305.8393      1.379     3.10      813.106     54.32666     718.1163        22     1.299     0.819 -63.23  16
         9    337.1154      7.6333 307.8022235  +6.6776193     1038.039     1358.867      1256.43     77.25854      153.966     304.9734      1.255     2.83      823.302     54.32666     173.5475        11     0.972     0.690 -66.88   0
        10    435.3040      4.0416 307.7615511  +6.6823997     7329.827     9995.235     10669.07     77.25854     152.3628     271.0677      1.426     3.04     816.0466     54.32666     1123.661        26     1.273     0.885 -60.29  24
        11    390.8415      5.9769 307.7799584  +6.6801079     789.2561      975.425     761.0947     76.89094      153.966     292.0006      1.285     3.05     819.5008     54.32666     126.9701         8     0.826     0.650 -34.73  16
        12     36.2212      3.6247 307.9273645  +6.6691478     9915.096      13556.6     13765.99     76.89094     149.4842     265.4345      1.443     2.93     823.4081     54.32666     1599.451        34     1.340     0.991 -60.54  24
        13    682.2280      2.6656 307.6590073  +6.6912458     1053.351      1393.02     1450.631     76.89094     140.2259      252.263      1.444     4.35     813.1667     54.32666     178.2075        10     1.109     0.658 -58.33  24
        14    510.7857      1.3616 307.7302812  +6.6860388     807.9596     904.0832     824.8985     67.18958     122.6195     232.1828      1.029     3.41     812.8351     54.32666     168.0573         5     0.774     0.434 -18.85  24
        15    331.0631      1.1711 307.8049560  +6.6800837     1969.818     2516.506     3174.759      64.9016     119.8934     229.1117      1.029     2.64     823.4778     54.32666     658.4784         9     1.070     0.366  -5.16  24
        16    105.1404      1.2317 307.8988137  +6.6724579     606.3924     799.6171     845.3679     65.76892     121.2252      230.345      1.052     1.80     823.2666     54.32666     197.9359         5     0.705     0.399  13.60  24
        17    273.2168    996.2510 307.7954123  +6.2673338     1001.286     1455.557     1429.153     76.76801     154.2112      307.932      1.387     4.08     847.7632     54.32666     164.1347        10     1.226     0.566 -59.88   0
        18    755.8533   1020.4763 307.5942378  +6.2735064      1575.74     2422.642     2140.678      77.3807     154.1499     276.6886      1.668     4.36     845.3955     54.32666     209.7672        18     1.293     0.981 -81.94  24
        19    723.6996   1023.6055 307.6074812  +6.2711393     3828.165     4404.098     4638.278     67.88876     123.2341     232.6704      1.025     2.58     845.9873     54.32666     940.7257        11     0.975     0.567   0.05  24
        20    715.7839   1023.5803 307.6107682  +6.2708850     875.6779     1090.201      1182.44     68.30484     123.5403      233.157      1.064     3.12     845.9234     54.32666     186.8799         7     0.922     0.448 -14.84  24
        21    591.2820   1023.8630 307.6624442  +6.2666017     507.1685     799.5009     1069.036      64.9016     119.5779     228.5752      1.833     3.40     849.4578     54.32666      135.261         5     1.112     0.301   8.92  25
        22    579.6821   1023.1827 307.6672826  +6.2664941     3609.775     4376.871       5064.2     72.59473     129.3659      239.708      1.257     2.79     849.5178     54.32666     607.2759        17     1.057     0.848  -4.38  24
        23    438.5176   1023.6331 307.7258692  +6.2615774     1830.729     2422.099     2785.273     67.60996      123.004     232.2234      1.169     2.37     849.6332     54.32666      452.474         9     0.948     0.544   5.47  24
        24    917.6114    993.0255 307.5280039  +6.2902433       8926.4     13960.34      14284.8     76.89094      153.966     308.1466      1.678     3.55     843.2991     54.32666     1165.609        37     1.463     1.143 -62.73   0
        25    635.4034    995.0410 307.6450961  +6.2799780     577.8997     850.1832     729.1096     76.52157     153.9047     307.9627      1.492     4.62     847.1783     54.32666     91.73297         6     0.847     0.715  89.40   0
        26    548.9454    992.3162 307.6810803  +6.2782078     9514.777     12981.58     13807.25     77.25854     154.1499     308.3611      1.452     3.16     848.5413     54.32666     1312.844        28     1.261     0.946 -60.44   0
        27    891.2160    989.1588 307.5390918  +6.2909585     12838.05     20083.88     21596.43     76.76801     153.9047     307.9933      1.675     3.46     843.3242     54.32666     1638.309        48     1.534     1.231 -51.45   0
        28   1012.9329    988.6114 307.4885778  +6.2952460     4731.549     7869.914     8094.668     76.76801     154.0273     308.0853      1.790     3.70     838.1856     54.32666     598.7146        31     1.457     1.135 -70.67   0
        29    604.1001    989.4431 307.6582797  +6.2812412     1551.536     1982.877     2155.701     77.25854     154.0273     308.4224      1.478     3.93     848.1031     54.32666     197.0535        14     1.168     0.821 -55.74   0
        30      1.4301    990.8403 307.9084181  +6.2604260      464.021     723.9716     566.2405     68.16643     123.8457     233.3999      1.522     3.35     845.3466     54.32666     96.22131         5     0.755     0.431 -66.89  24
        31    535.4831    988.1904 307.6868078  +6.2794601      4629.24     6411.563     6908.124     76.89094     153.8433     308.0547      1.529     3.25     848.4116     54.32666     716.5846        28     1.328     1.212   7.67   0
        32    644.8553    987.5534 307.6414237  +6.2833856     1603.762     2198.967     2426.735     77.25854     154.1499     308.2692      1.455     3.05     846.6435     54.32666      242.184        13     0.983     0.838 -46.36   0
        33     69.9417    986.7117 307.8801177  +6.2644371     965.3377     1351.496     1503.701     77.25854     154.1499     308.3305      1.536     3.69     845.2437     54.32666     153.6175         9     0.929     0.679 -72.03   0
        34    488.3934    984.6200 307.7064769  +6.2793560     2654.391     3761.809     3442.297     76.89094     153.9047      308.024      1.508     3.50     848.3597     54.32666     383.6382        19     1.289     0.855 -66.92   0
        35    396.9550    983.3171 307.7444805  +6.2768274     545.0361     836.1209     241.4325     77.25854     154.1499     308.2079      1.435     4.32     848.1648     54.32666     89.84991         6     1.124     0.472 -70.70   0
        36    922.9904    976.7634 307.5263156  +6.2971368     45060.21     69482.37     73014.54     76.76801     153.9047     307.9627      1.639     3.37     842.6405     54.32666     5476.697        68     1.500     1.280 -59.33   0
        37    230.1974    975.0057 307.8139873  +6.2746593     1865.183      2858.76     2414.554     76.64489     153.8433      308.024      1.484     3.71     846.2631     54.32666     260.2509        16     1.269     0.834 -65.49   0
        38    118.0289    974.1743 307.8605793  +6.2712310     731.2839      1088.08      1112.83     76.76801      153.966     308.0853      1.884     5.04     844.9933     54.32666     125.0547         8     1.185     0.605 -77.31   0
        39    629.0461    972.9719 307.6484768  +6.2888764     855.6689     1245.665     1129.298     76.76801     154.2112      308.116      1.504     3.75     846.9003     54.32666     152.1392         9     1.141     0.546 -44.79   0
        40    769.1323    968.4624 307.5904702  +6.2954244     7248.938     10400.82     11437.05     77.25854     154.0886     308.2079      1.580     3.37     844.4222     54.32666      1022.64        37     1.660     1.022 -66.19   0
        41    820.9280    970.5177 307.5688977  +6.2963069     2563.573     3674.565     3405.435     77.50265      154.456     308.2386      1.573     3.44     843.6837     54.32666     326.9957        21     1.255     0.973 -52.85   0
        42    238.2960    967.2946 307.8108854  +6.2781149     1443.129     2299.465     2265.707     77.25855     154.7614     308.0853      1.591     3.67     846.3888     54.32666     215.0336        16     1.214     0.916 -65.90   0
        43    555.7410    967.8601 307.6790814  +6.2885321     900.5597     1407.065     1495.402     77.25854     154.1499     308.2386      1.458     3.59     847.5472     54.32666      173.067         9     1.076     0.610 -54.23   0
        44    202.6490    967.2805 307.8256840  +6.2769226     964.0918     1308.539      1269.32     77.25855     154.2112     308.2079      1.377     4.77     845.7584     54.32666     154.9362         9     1.248     0.580 -63.41   0
        45     63.4773    965.5319 307.8835168  +6.2729632     3112.843     4290.932     3575.033      77.3807     154.2724     308.1773      1.499     3.25      844.704     54.32666     431.5636        21     1.264     0.880 -52.32   0
        46    957.3547    963.4940 307.5124930  +6.3037620     7124.505      10852.3     11134.39     77.13621     154.0886     308.3305      1.680     3.61       840.84     54.32666     846.5609        33     1.363     1.174 -66.67   0
        47    213.8752    959.5153 307.8212857  +6.2805058     561.1345     763.4499     808.3364      77.3807      154.456     308.2692      1.563     4.12     845.9044     54.32666     133.0212         5     0.942     0.514 -49.28   0
        48    931.0172    955.2003 307.5237054  +6.3063072     2315.472     3364.205     3407.249     76.89094     153.7204     307.9013      1.536     3.48     841.5986     54.32666     322.7083        20     1.215     0.959 -46.68   0
        49    790.4716    951.8188 307.5821693  +6.3030091     1458.194         2287     2646.673     76.89094     154.0273     308.1466      1.657     4.61     844.0538     54.32666     191.7816        16     1.291     0.860 -73.15   0
        50    264.0206    951.2844 307.8007461  +6.2855889     4980.973     7010.707     7288.982     77.01367     153.8433     308.1466      1.455     3.25     846.6306     54.32666     770.7689        25     1.267     0.930 -54.47   0
        51    651.7494    951.0585 307.6397875  +6.2986834     5221.789     6893.208     6916.276     77.25854     154.1499     308.2079      1.419     3.06     845.9323     54.32666     725.6258        22     1.158     0.937 -63.06   0
        52   1000.8742    950.7576 307.4948513  +6.3104721     735.9788      1254.23     1181.458     77.13621     154.2112     308.2386      1.885     5.21     839.0751     54.32666     114.2574         8     1.017     0.835  26.25   0
        53    473.9124    949.6469 307.7136654  +6.2933091     1281.771     1731.156     1882.857     77.25854     154.0273     308.2386      1.350     3.23     847.3082     54.32666     224.8492        12     1.118     0.673 -59.00   0
        54     32.8052    948.9523 307.8968097  +6.2787752     2455.521     3352.363     3144.267     76.64489      153.966     307.9013      1.429     3.64      844.267     54.32666     408.8905        16     1.191     0.887 -68.75   0
        55    883.4548    947.4766 307.5437109  +6.3079081     1001.934     1396.463     977.0853     77.25855     154.1499     308.2079      1.560     4.04      842.222     54.32666     131.4637        10     1.095     0.669 -68.46   0
        56    954.7788    944.6674 307.5141930  +6.3114487      894.454     1337.488     940.0549     76.89094     154.1499      308.116      1.617     5.14     840.4808     54.32666     113.3506        10     1.077     0.692 -38.64   0
        57    299.8789    945.0026 307.7860716  +6.2893867     955.5417     1262.476     1682.277     76.64489      153.659     307.9933      1.351     2.64     846.8638     54.32666     169.3878         9     0.782     0.731 -80.22   0
        58   1007.8608    942.9146 307.4922131  +6.3139432     828.0361     1795.587      1677.35      77.3807     154.2724     308.2692      2.349     7.17      838.915     54.32666      133.317        12     1.663     0.865 -55.15   0
        59    576.4432    943.5358 307.6713045  +6.2992678     1924.032     2325.468     1862.788     77.25855     154.0886     308.2079      1.353     3.06     846.5596     54.32666     299.4341        14     1.088     0.748 -48.72   0
        60    615.4998    940.1727 307.6552028  +6.3019641     1295.626      1379.71      1255.05     77.25855     153.9047      308.116      1.242     3.22     846.2827     54.32666     202.5125        13     1.067     0.792 -64.69   0
        61     65.6004    940.6660 307.8834756  +6.2833001     806.8972     995.3017      1414.48     76.52157     153.7205     307.9627      1.305     2.43     844.0614     54.32666     133.2514         6     0.658     0.626 -25.88   0
        62     60.3931    939.9474 307.8856615  +6.2834214     653.5859     1249.212     1135.407     76.76801      153.966     307.9013      1.924     5.49     844.0357     54.32666     102.2014         7     1.262     0.673 -62.64   0
        63    295.3855    937.6873 307.7881837  +6.2922559     1762.598     2455.029     3089.014     76.89094      153.966     308.0853      1.546     3.07     846.6459     54.32666     305.3544        15     1.169     0.757 -54.96   0
        64    563.1749    936.0842 307.6770636  +6.3018998     875.8106      1183.84     1051.705     77.13621     153.9047     308.1773      1.456     3.85     846.2706     54.32666     135.1647         8     0.997     0.776  15.78   0
        65    762.2894    933.7963 307.5944744  +6.3095077       963.61     1066.951     696.0033     76.76801     153.8433     307.9013      1.319     3.79     844.0825     54.32666      150.176        11     1.053     0.726 -48.08   0
        66    900.0002    930.3479 307.5374157  +6.3155322     7528.849     11082.69     10969.39     76.52157      153.659     307.7786      1.571     3.31     841.3423     54.32666     981.9998        34     1.352     1.109 -58.15   0
        67    138.1107    931.9559 307.8536683  +6.2893358     672.9313     907.3873     825.8033     77.25854     154.0273     308.2386      1.318     4.16     844.3251     54.32666     110.2479         7     0.915     0.539 -48.33   0
        68    435.7621    927.5012 307.7302491  +6.3011725     2454.281     3168.816     3406.518     77.25855     154.0273     308.4224      1.354     3.14     846.4481     54.32666     398.8706        17     1.228     0.797 -56.18   0
        69    337.5092    925.8466 307.7710951  +6.2985587     11067.63     14888.36     15274.73     77.25855     154.0886     308.3305      1.401     3.01     846.6021     54.32666     1667.962        30     1.304     0.908 -59.89   0
        70    604.4800    926.9265 307.6602230  +6.3070639     570.9881     762.3957     590.7474     77.50265     154.3948     308.2692      1.417     5.77     845.9106     54.32666      93.9718         8     1.107     0.846  75.53   0
        71    257.6855    924.8039 307.8042691  +6.2963082     8155.062     11221.62     11845.16     76.76801     153.7819      307.932      1.439     2.97     846.1683     54.32666     1225.536        29     1.288     0.982 -61.46   0
        72    585.7456    919.4533 307.6682521  +6.3095218     1449.028     1987.089     1839.959     77.50266     154.0886     308.2079      1.389     3.96     845.6788     54.32666     197.3666        12     1.150     0.694 -62.81   0
        73    770.4249    919.0087 307.5915930  +6.3158848     669.2811      898.239     1037.121     76.89094      153.966     308.0547      1.385     3.80     843.8141     54.32666     132.3778         6     0.858     0.483 -81.56   0
        74    148.1934    915.7718 307.8500290  +6.2963563     627.7704     720.2823     958.5493     76.76801     154.0273      308.024      1.373     4.38     844.0919     54.32666     122.0745         7     1.332     0.410 -56.81   0
        75    915.7451    915.7159 307.5313690  +6.3220988     1244.005     1660.464     1595.736     77.25855     154.1499     308.3611      1.529     5.38     840.6659     54.32666     163.4322        13     1.133     0.845 -45.12   0
        76    872.3884    914.1286 307.5494232  +6.3213065     882.2496     1347.481     1222.019     76.76801     153.7819      308.024      1.678     5.41      841.723     54.32666     96.93274        11     1.136     0.728 -40.96   0
        77    219.3749    915.4050 307.8204907  +6.2989010      520.865      632.126     967.6563     76.76801     153.9047     308.0547      1.168     2.46     845.7877     54.32666     130.7047         5     0.782     0.641 -45.62   0
        78    414.0896    913.6916 307.7397117  +6.3061467     706.2134     1025.158     1256.918     77.25854     154.6393     308.2998      1.499     3.70     846.0934     54.32666     123.3636         5     0.820     0.480 -60.12   0
        79    983.4066    911.1223 307.5034305  +6.3262533     725.2024     1358.019      1627.62     76.89094      153.659      308.024      2.174     6.83     838.5285     54.32666     102.1323        11     1.429     0.951 -80.11   0
        80    575.9790    908.8508 307.6726634  +6.3135719     777.8585     956.9579     1002.003     76.76801     154.2112     308.0853      1.374     4.98       845.41     54.32666     123.2119        10     1.278     0.549 -64.54   0
        81    844.4243    909.1822 307.5611993  +6.3224146     626.3691     912.0257     675.5125     77.01367     154.0886     308.1466      1.585     4.09     842.2986     54.32666        87.19         6     0.727     0.662 -29.52   0
        82    752.0656    908.4209 307.5995707  +6.3196422     1990.547      2614.42     3092.886     76.89094     154.1499      308.116      1.465     3.56     843.7983     54.32666      282.868        16     1.194     0.832 -56.87   0
        83    615.9666    905.1685 307.6561853  +6.3164313     900.7823     1213.285     794.7047     76.76801     153.9047     307.9627      1.248     3.52     845.1107     54.32666     156.1143         9     0.966     0.656 -74.15   0
        84    537.1228    904.4099 307.6889447  +6.3141036     1426.604      2219.75      2289.36     76.89094     153.8433      308.024      1.571     3.40     845.4967     54.32666     257.4089        16     1.242     0.823 -73.72   0
        85      2.4935    905.5493 307.9108602  +6.2956725     1138.439     1601.619     1820.075     77.13621     138.0539     249.9688      1.545     3.39     842.6728     54.32666     191.5333        10     1.139     0.595 -70.45  24
        86    983.4734    904.2487 307.5036329  +6.3290933     1362.675     2257.545     2345.677     77.25855     154.2112     308.2386      1.711     3.85     838.1357     54.32666     174.6606        16     1.193     0.924 -53.35   0
        87    627.5019    904.8461 307.6514070  +6.3169505     721.2078     940.4711     779.9298     77.25855     154.0273     308.3917      1.543     5.43     845.0574     54.32666     98.40399         7     1.040     0.800 -60.18   0
        88    670.5940    901.8383 307.6336171  +6.3196346     2955.649     3848.193      4037.02     76.39804     153.9047     307.9627      1.367     3.01     844.7829     54.32666     433.2748        18     1.173     0.849 -54.50   0
        89    478.2289    901.6730 307.7134878  +6.3132596     395.9153     575.3004     705.8561     77.13621     154.1499     308.1773      1.379     4.21     846.0234     54.32666     76.73444         5     0.941     0.537  52.35   0
        90   1022.3256    901.0699 307.4876082  +6.3317016     710.9824     954.3452     1488.531      77.3807     140.2933     252.4875      1.604     4.93     836.4641     54.32666     88.30762         9     0.985     0.700 -21.20  24
        91    960.6351    900.2528 307.5132491  +6.3299811     648.7053     1159.447     2057.126     77.13621     154.1499     308.2079      1.946     4.03      838.774     54.32666     99.47308         5     0.974     0.477 -85.43   0
        92    831.8883    898.3572 307.5667671  +6.3264649     804.7132     994.5441     888.3489     77.25854     154.0886     308.2386      1.446     5.01     842.3004     54.32666     118.5963        10     1.334     0.631 -38.56   0
        93     67.1859    897.8673 307.8842635  +6.3010222     3285.871     4842.098      4835.59     76.76801     154.0273     308.1466      1.519     3.30      842.748     54.32666     524.5424        22     1.322     0.866 -60.07   0
        94    568.1555    898.3010 307.6762662  +6.3176653      740.955     1066.012     1227.869     77.25854     154.0886     308.4224      1.398     3.76     845.1369     54.32666     139.1594         6     0.945     0.541 -27.90   0
        95    210.9097    896.8229 307.8246320  +6.3062879     2664.393     3664.872     3390.842     77.25854      153.966     308.0853      1.436     3.27     845.4303     54.32666     414.1407        21     1.392     0.845 -55.15   0
        96     84.7708    897.2363 307.8769845  +6.3018746     2197.494     2967.772     3535.258     76.89094     153.9047      308.024      1.412     2.86     842.8445     54.32666     360.8547        15     1.141     0.751 -57.58   0
        97    948.9425    897.1487 307.5182077  +6.3308724      846.537     1191.987     1242.496     77.25854     154.1499     308.2079      1.423     3.08     839.1452     54.32666     137.1428         6     0.739     0.571 -54.41   0
        98    967.5084    894.2044 307.5105979  +6.3327075     542.4109     726.7205     1413.865     76.89094     153.8433     307.9933      1.862     4.57     838.2236     54.32666      84.1825         6     1.006     0.589 -27.48   0
        99    349.8369    893.0082 307.7670837  +6.3125296      1012.51     1568.254     2128.131     76.52157     153.9047      307.932      1.958     4.10     846.3311     54.32666     143.6295        10     1.074     0.772 -79.50   0
       100    244.6810    893.5571 307.8107218  +6.3087712     1044.143     1114.609     1278.219     77.25855     154.1499     308.1773      1.283     3.24     845.9683     54.32666     156.3867         9     0.970     0.643 -78.43   0
       101    802.9525    891.6362 307.5790063  +6.3282729     770.9627     1054.951     781.0138     76.89094     154.1499     308.1466      1.567     5.35     842.7188     54.32666      136.636        10     1.275     0.714 -67.49   0
       102    665.3032    891.0151 307.6361773  +6.3239260     7944.147     10909.27      11314.5     77.01367     153.9047     307.9933      1.448     3.00     844.4935     54.32666     1249.477        31     1.332     0.970 -56.39   0
       103     25.1303    889.3172 307.9020115  +6.3031360     1304.717     1786.081     1885.383     77.50266     154.3948     308.2386      1.489     3.95     842.0803     54.32666     196.6069        14     1.267     0.724 -63.99   0
       104    903.0013    887.2957 307.5376124  +6.3334069     2941.737     4349.791     4252.257     76.76801     153.8433       307.84      1.544     3.37     840.4378     54.32666     399.7393        25     1.452     0.921 -56.98   0
       105    454.3763    888.4412 307.7238360  +6.3179225     579.0566     391.9999     36.89625     76.89095      153.966     307.9933      1.260     4.18     845.6284     54.32666     86.17969         5     0.979     0.510 -46.45   0
       106     38.2123    887.6810 307.8966359  +6.3042520     1255.075     1710.844     1380.265     76.89094     153.8433     308.0547      1.484     3.87     842.1578     54.32666     200.6531        12     1.099     0.875 -75.49   0
       107    348.2175    884.1140 307.7680557  +6.3161471     19046.38     25753.79     27315.81     76.89094     153.9047     308.1466      1.414     3.01     846.2366     54.32666      2994.08        43     1.365     0.995 -56.71   0
       108     82.7938    885.2000 307.8782119  +6.3067770     1556.138     2072.898     2481.385     76.64489     153.8433      308.024      1.298     3.16     842.4842     54.32666     271.7166        10     1.027     0.614 -66.85   0
       109    356.4197    884.6893 307.7646311  +6.3161849     572.1591     924.4243     1209.682     77.13621     153.9047     308.0547      1.369     3.49     846.2197     54.32666     92.22351         5     0.779     0.451 -71.61   0
       110    219.1290    883.7081 307.8216622  +6.3119785     1372.873     1592.186     1246.684     77.13621     154.2724     308.2079      1.292     3.55     845.6141     54.32666     245.3809        11     1.196     0.614 -58.00   0
       111    398.8102    883.1170 307.7470848  +6.3182567     825.9786     916.1304     248.0684     76.89094     153.9047     308.0547      1.234     3.10     845.6763     54.32666     146.5003         6     0.751     0.560 -46.82   0
       112    266.7207    878.3970 307.8020831  +6.3157704     342.7953     279.3794     -4.25758     76.64489      153.659     307.9627      0.966     4.56     846.0065     54.32666     84.12915         5     1.152     0.514 -57.40   0
       113    425.8566    875.0377 307.7361279  +6.3224996     1101.549     1216.658     508.5035     77.25854     154.2112     308.2079      1.270     3.28     845.3073     54.32666     199.1857        10     1.075     0.597 -59.43   0
       114    111.5504    874.9340 307.8666203  +6.3119829     2073.101      2990.76     2723.521     77.13621     154.0273     308.1773      1.476     3.23     842.5889     54.32666     320.0499        19     1.185     0.963 -49.60   0
       115    679.4044    871.2775 307.6309857  +6.3325465     965.5673     1590.355     1823.526     76.89094      153.659      308.024      2.076     4.26     843.9042     54.32666     147.5542         9     1.194     0.565 -52.52   0
       116    506.5520    871.7329 307.7027362  +6.3265698     815.5862     1245.241     1542.551     77.25855     154.0886     308.2386      1.297     4.34     845.0248     54.32666      135.084         9     1.184     0.541 -60.93   0
       117    893.3722    868.9546 307.5422250  +6.3406576     2153.684     3043.917     2771.533     76.76801     154.2112      308.116      1.464     3.13     840.3551     54.32666     309.7715        18     1.219     0.869 -59.56   0
       118    827.4850    867.9217 307.5696160  +6.3388833     3465.415     4603.507     4915.097     77.25854      154.456     308.3305      1.438     3.00     841.6105     54.32666     521.9419        22     1.304     0.930 -66.21   0
       119     94.9768    868.2347 307.8737272  +6.3141909     2852.863     3780.405     4044.234     76.76801     153.9047     307.9933      1.393     3.28     842.1578     54.32666     450.5792        17     1.198     0.798 -69.72   0
       120    864.1045    868.4405 307.5543943  +6.3398925     2299.662     2980.348     2701.159     77.25854     154.0886     308.3611      1.407     3.24     841.0779     54.32666     340.8287        16     1.095     0.856 -55.44   0
       121    563.3785    859.3652 307.6795587  +6.3335799     394022.5     522400.3     543382.2     76.76801      153.966     307.9627      1.413     3.70     844.1098     54.32666     64564.35       173     1.531     1.194 -63.57   4
       122    343.1942    865.9702 307.7707526  +6.3234690     723.0681       957.48     907.7991     76.76801      153.966     307.9933      1.470     4.79     846.0571     54.32666     103.4907         8     1.025     0.636 -74.10   0
       123    407.5996    861.9781 307.7441476  +6.3272787     8754.534     11764.97     12696.13     76.89094     153.8433      307.932      1.409     2.85     845.1518     54.32666     1312.845        30     1.240     0.975 -68.64   0
       124    651.2369    862.3438 307.6429806  +6.3352922     1327.624      1716.53     1567.416     77.25855     154.1499     308.2386      1.400     3.75     843.6701     54.32666     197.7523        11     1.001     0.810 -66.76   0
       125    350.8203    860.3151 307.7677771  +6.3260597     14776.83     19583.11     20040.75     76.89094     153.8433     308.1466      1.384     3.00     845.8737     54.32666     2217.406        36     1.320     0.955 -56.71   0
       126    669.2197    856.6949 307.6357041  +6.3382262      4246.64     5720.951     5955.508     77.13621      153.966      308.024      1.387     3.12     843.5339     54.32666     683.9664        22     1.235     0.862 -62.87   0
       127    901.7209    855.5408 307.5392082  +6.3464744      5789.62     7906.616     9256.095      77.3807     154.1499     308.1466      1.523     3.11     839.7556     54.32666     767.7695        27     1.259     0.991 -54.01   0
       128    741.0653    853.1712 307.6059923  +6.3420844     808.3569     837.0717     643.8704     77.01367     154.1499     308.1466      1.172     2.93     843.2832     54.32666     129.7293         8     0.814     0.662 -51.95   0
       129    644.1753    850.5909 307.6463075  +6.3399080     4054.866     5473.899     5434.436     76.89094      153.966     308.0853      1.456     3.16     843.3741     54.32666     631.8629        24     1.232     0.943 -50.66   0
       130    832.5063    849.7305 307.5681412  +6.3465614      1716.54      2434.87     2597.639     77.13621     154.2724     308.2079      1.536     3.47     841.0652     54.32666      255.771        17     1.157     0.922 -50.35   0
       131    634.4082    849.8021 307.6503892  +6.3399067     1126.201     1465.173     1601.927     76.64489     153.8433     307.9933      1.412     3.92     843.3486     54.32666     190.5126        11     1.197     0.604 -50.13   3
       132    636.9088    845.2692 307.6495033  +6.3418619     2543.658     3609.413     3940.597     77.25854     154.2724     308.2079      1.475     3.29     843.2139     54.32666     379.9344        19     1.254     0.862 -58.82   3
       133    457.4460    866.3755 307.7233044  +6.3271352     583.4767     648.5975     1518.062     76.89095     154.1499     308.0853      1.105     3.97     845.1252     54.32666     116.5432         6     1.055     0.427 -55.94   0
       134    958.8663    848.2807 307.5157243  +6.3513792     749.5823     1243.191     1397.062      77.3807     154.3336     308.2079      2.015     4.05     837.1931     54.32666     116.8771         9     1.087     0.700 -20.60   0
       135    920.4689    843.3711 307.5318317  +6.3521246     3734.517     5371.481     5652.472     77.01367     154.1499     308.1466      1.527     3.29      838.923     54.32666     523.2147        24     1.271     1.001 -57.60   0
       136    330.7346    844.3078 307.7766556  +6.3319938     1210.141     1727.704     2213.517     77.13621     154.3336     308.2079      1.489     3.38     845.3297     54.32666     210.6777        11     1.147     0.596 -53.77   0
       137    181.1647    845.5784 307.8387103  +6.3264435     512.9576     734.8934     835.5664     76.76801     153.9047     307.9627      1.612     3.48     843.4766     54.32666     71.15454         5     0.784     0.446 -19.16   0
       138    378.6349    839.3488 307.7569354  +6.3356491     3031.276      3962.18     3676.469     77.13621     154.1499      308.116      1.356     2.95     844.8448     54.32666      463.447        18     1.216     0.775 -55.86   0
       139    859.3864    835.1533 307.5574693  +6.3534777     501.0361     920.1106     1191.541     76.64489      153.966     307.9933      2.342     3.90     840.0365     54.32666     94.85199         5     0.897     0.487 -89.12   0
       140    347.1246    831.5456 307.7702809  +6.3378129     570.2345     649.3221     111.7572     77.13621     154.1499     308.2386      1.426     4.96     844.9034     54.32666     85.24982         5     1.114     0.625 -59.67   0
       141    514.9311    829.0486 307.7006934  +6.3444727     3513.006      4717.42     5091.433     77.25854     154.0886     308.2079      1.393     3.05     843.5715     54.32666     609.0719        21     1.229     0.868 -60.58   0
       142    859.6709    827.8598 307.5575957  +6.3564984      1143.16     1496.102     1634.317      77.3807     154.1499     308.2692      1.451     3.22     839.7629     54.32666      176.767        11     0.965     0.749   4.49   0
       143    579.9568    827.0192 307.6737631  +6.3474893     855.9674     1028.537     772.0702     76.76801     154.0273     307.9933      1.241     3.48     843.0277     54.32666      139.025         7     0.870     0.538 -52.48   0
       144    561.8061    825.1653 307.6813616  +6.3476467     7052.688     9358.035     9847.793     76.52157     153.9047     307.9933      1.371     3.07     843.1489     54.32666     1062.448        24     1.236     0.893 -65.02   0
       145    568.5596    824.3116 307.6785863  +6.3482253     1575.313     2471.267      2346.38     77.25855     154.0886     308.2386      1.662     3.89     843.0518     54.32666     257.5781        15     1.292     0.770 -74.10   0
       146    273.2686    825.2922 307.8011555  +6.3379142     793.0499     979.0908     1090.481     77.25855     154.2724     308.2079      1.444     4.49     844.5724     54.32666     110.0182         8     1.001     0.573 -73.01   0
       147    897.4489    823.3096 307.5420622  +6.3596386     1600.878     2288.037      2124.21     77.25855      153.966     308.3611      1.572     3.70     838.7929     54.32666     210.8505        14     1.133     0.843 -65.82   0
       148    479.5605    824.0992 307.7155457  +6.3453303     1943.982     2479.908     2079.867     77.25854     154.0273     308.4224      1.332     2.87      843.545     54.32666     300.7178        13     1.060     0.724 -61.97   0
       149    121.3031    823.1710 307.8643197  +6.3336806     1673.659      2189.55      1905.65      77.3807     153.9047     308.2079      1.388     3.27     841.7748     54.32666      258.688        13     1.144     0.699 -53.44   0
       150    532.4612    819.0376 307.6937517  +6.3491932     22975.95     30218.43     31048.45     77.25854     154.2112     308.2079      1.380     2.94     843.1819     54.32666     3401.362        44     1.314     0.994 -64.81   0
       151    697.4451    822.1756 307.6251443  +6.3534220       786.21     1036.244     1232.707     76.76801     154.1499     308.0853      1.219     4.35     842.5313     54.32666     135.3017         8     1.008     0.593 -44.84   0
       152    373.8256    820.6071 307.7595636  +6.3432251     918.6602     1220.702     839.5109     76.76801     154.0273     308.0547      1.410     4.24     844.3234     54.32666     128.1757         9     1.032     0.702 -50.34   0
       153    946.0731    817.4371 307.5220694  +6.3636863     4187.745     5841.515     5956.354     77.13621     154.1499     308.2692      1.503     3.06     837.2605     54.32666     589.9449        24     1.237     0.998 -68.97   0
       154    178.8149    818.5630 307.8405978  +6.3375175     621.6545     888.8884       290.66     76.89094      153.966     307.9933      1.266     3.40     842.7955     54.32666     134.2425         6     1.000     0.431 -61.69   0
       155    418.0549    814.9521 307.7413904  +6.3470439     591.5347     584.5884     1075.201     77.25854     154.1499     308.2998      1.114     3.91     843.7646     54.32666     90.77875         7     0.881     0.541 -47.33   0
       156     66.1016    815.0356 307.8875126  +6.3351813     652.1005     954.5432     1107.439     77.25854     154.0273     308.3917      1.559     5.14     840.7737     54.32666     92.16937         7     0.982     0.761   4.60   0
       157     42.7674    809.4248 307.8973899  +6.3367120     1755.005      2545.88     2598.264     76.64489      153.966      308.024      1.476     2.92     840.3254     54.32666     275.7802        12     1.017     0.702 -58.11   0
       158    325.0781    807.8464 307.7802332  +6.3468567     3902.665     5073.614     5132.416     77.13621     154.2112     308.2079      1.371     3.07     844.1094     54.32666     668.4805        21     1.180     0.844 -55.49   0
       159    790.6443    803.6235 307.5870695  +6.3641980     64292.43     85564.77     88701.09     76.76801     154.1499     308.0547      1.422     2.96     841.1833     54.32666     9758.531        67     1.382     1.063 -57.42   0
       160     24.9526    805.8591 307.9049066  +6.3375841     2594.318     3539.535      3398.31     77.25854     154.1499     308.2998      1.384     3.06     840.0035     54.32666     424.7404        16     1.115     0.800 -68.28   0
       161    729.2850    805.0612 307.6124987  +6.3615528      790.975     1024.621     1328.851      77.3807     154.2724     308.2386      1.341     4.30     841.9552     54.32666     130.2734        10     0.946     0.806 -70.27   0
       162    247.4753    780.0035 307.8133922  +6.3557445     752426.6      1508938      1659972     76.76801      153.659      308.116      2.128     4.59     842.6507     54.32666     63172.14       625     2.882     2.071 -82.93   4
       163    915.9398    798.8725 307.5352034  +6.3703450     9704.588        13379     14194.05      77.3807     154.1499     308.2386      1.457     3.12     837.6946     54.32666      1416.44        32     1.286     1.036 -52.33   0
       164    718.9040    798.2232 307.6170386  +6.3640287     25015.82     33784.46     35826.77     77.25854     153.9047     308.0547      1.414     2.96     841.7571     54.32666      3857.52        50     1.369     1.062 -60.49   3
       165    712.5978    794.7291 307.6197744  +6.3652603     103448.2     136519.3     141470.4     76.76801     153.7819     308.0547      1.413     2.93     841.6683     54.32666     16305.13        79     1.408     1.066 -61.41   3
       166    357.4708    795.5246 307.7671992  +6.3530312     24581.88     32085.87     33680.08     77.50266     154.2724     308.2079      1.403     2.87     843.5564     54.32666     3927.896        43     1.305     1.020 -56.51   0
       167    406.6251    795.8085 307.7467808  +6.3545637     1644.809     2112.183     1951.517     76.89094      153.966     308.0547      1.338     3.52     843.1998     54.32666     258.2698        13     1.196     0.642 -56.00   0
       168    419.3497    793.3358 307.7415808  +6.3560115     26416.95     34985.23     36250.46     77.25855     154.0886     308.2386      1.394     3.00     842.9443     54.32666      4227.26        47     1.350     0.999 -58.02   0
       169    646.1479    794.6585 307.6473678  +6.3630658     1035.684     1469.746     1737.826     77.25854     154.1499     308.2079      1.518     4.88     841.8218     54.32666     155.3376        10     1.297     0.617 -49.69   0
       170    956.4609    792.3454 307.5185967  +6.3743923     2307.504     3604.512     3572.689      77.3807     154.0886     308.1773      1.695     3.28      836.404     54.32666     317.9606        19     1.250     0.937 -71.17   0
       171    912.7984    790.2002 307.5367985  +6.3738205      7536.32     10647.05     11542.53     76.64489     153.7204     307.9013      1.504     3.16     837.5322     54.32666     1022.961        30     1.269     1.013 -52.13   0
       172    885.6767    790.9750 307.5480342  +6.3725950     735.0576     863.0111     685.7554     76.89094     154.0886     308.1773      1.272     3.59     838.0563     54.32666     110.9105         7     0.745     0.661 -65.53   0
       173    653.4113    789.2569 307.6445334  +6.3655390     7643.994     10009.78     10647.37     76.64489     154.0886     307.9013      1.379     2.98     841.6133     54.32666      1205.33        25     1.211     0.897 -62.15   0
       174    143.0411    789.5403 307.8564303  +6.3482959     567.2924     626.5775     699.5002     77.25854     154.1499     308.2692      1.152     3.95     841.6216     54.32666     110.5627         6     0.943     0.494 -77.11   0
       175    442.0988    787.2853 307.7323390  +6.3592726     2039.126     2603.323     2613.199     77.25854     154.5782     308.2692      1.370     3.60     842.4104     54.32666     303.1461        13     1.118     0.703 -49.24   0
       176    167.1252    786.5920 307.8465305  +6.3503231     905.7869      1112.63     1235.682     76.89094     153.7204     308.0547      1.296     3.65     841.9111     54.32666     159.0568        10     0.982     0.737 -51.07   0
       177    741.2408    783.7736 307.6082491  +6.3707413     648.6566     746.3851     417.0587     76.89094      153.966     308.0547      1.251     2.61     841.1144     54.32666     113.3143         6     0.705     0.586 -51.71   0
       178    881.1360    781.2490 307.5502457  +6.3764589     642.3781     786.2078     684.8455     77.13621     154.0273     308.2692      1.257     4.12     837.9552     54.32666     123.9863         7     1.009     0.600 -83.52   0
       179    606.3808    781.5985 307.6643187  +6.3671262     1036.377     1346.588     817.0565     76.89094     153.7205      307.932      1.428     4.18     841.4125     54.32666     168.1644         9     1.112     0.558 -72.56   0
       180    688.3809    779.6271 307.6303369  +6.3706850     2903.752     3725.258     3637.308     76.89094      153.966      308.116      1.352     3.13     841.2334     54.32666     464.2806        19     1.158     0.844 -54.06   0
       181    157.7054    780.0861 307.8506612  +6.3526922     1140.453      1509.93     1761.339     77.25854     154.5171     308.2692      1.360     3.36     841.6567     54.32666     185.5222        10     1.061     0.602 -66.25   0
       182    132.5964    779.8715 307.8610934  +6.3519361     1225.219      1323.45       1450.2     76.76801     153.7819     308.0547      1.359     3.37      841.339     54.32666     207.7166        11     1.038     0.695 -45.44   0
       183    965.1666    777.4659 307.5154802  +6.3808259     1602.714     1701.566     1504.751     77.13621     154.2112     308.1773      0.838     0.00     835.8688     54.32666     845.9103         7     0.762     0.510  80.98   0
       184    422.2669    776.0443 307.7409519  +6.3632481     63057.92     83644.02     86464.24     77.25854     154.0886     308.2386      1.387     2.92     842.0004     54.32666     10184.87        61     1.377     1.024 -54.67   0
       185    540.0032    775.0834 307.6920988  +6.3675924     8179.528     10692.46     10801.54     76.64489     153.7819     307.9013      1.370     3.07     841.5145     54.32666     1316.928        28     1.248     0.893 -60.56   0
       186    456.7907    773.6133 307.7266992  +6.3654097     5261.457     6964.872     7951.326     77.01367     153.9047      308.116      1.391     3.29     841.6584     54.32666     779.7338        22     1.211     0.842 -52.54   0
       187    785.2354    771.7229 307.5903859  +6.3771875     13510.75     17971.95     18271.56     77.13621     154.2112     308.2386      1.416     2.98     839.9734     54.32666     2113.652        35     1.268     0.997 -59.43   0
       188    433.9449    802.3130 307.7352186  +6.3527949     1188.097     1527.571     1515.347     77.25854     154.0273     308.3611      1.334     3.31     843.2344     54.32666     198.5975        10     1.103     0.591 -53.59   0
       189    806.7239    766.2129 307.5816481  +6.3801806     1592.954      2009.93     2440.704     76.89094     153.8433      308.024      1.331     3.90     839.3234     54.32666     230.1396        13     1.220     0.703 -52.85   0
       190    453.3070    767.0038 307.7283682  +6.3680216     2574.088     3568.664     4126.953     76.89094     153.8433      307.932      1.432     3.17     841.3483     54.32666     418.1971        18     1.223     0.801 -65.08   0
       191     14.5677    767.7755 307.9105058  +6.3529565     1322.084     1793.176     1518.806     76.64489      153.966      308.024      1.403     3.06       839.81     54.32666     225.8708        10     1.092     0.558 -54.96   0
       192    974.8425    765.5378 307.5118620  +6.3860733     751.7841      962.583     1508.393     77.25854     154.0886     308.2998      1.535     3.90     835.4374     54.32666     142.2928         9     1.093     0.596 -70.64   0
       193    143.0155    763.6610 307.8573149  +6.3589789     13405.66     17966.02     19231.09     76.76801     154.0886     307.9933      1.413     3.17     841.2173     54.32666     2190.842        38     1.336     0.951 -57.28   0
       194    151.1939    763.8845 307.8539117  +6.3591618     3362.118      4509.87     4763.382     76.76801     153.8433      308.024      1.404     3.08     841.2896     54.32666     590.7164        20     1.267     0.821 -60.27   0
       195    930.8044    760.3508 307.5303221  +6.3867452     7213.835     10106.18     10623.75     76.64489      153.966     307.8707      1.470     2.96     836.4036     54.32666     1007.378        28     1.245     1.010 -54.71   0
       196    135.0942    760.9835 307.8606942  +6.3598178     3455.436     4703.203     5054.831     77.01367      153.966     308.0547      1.424     3.03     841.1037     54.32666     558.2377        20     1.193     0.823 -58.66   0
       197    979.9008    760.4844 307.5099308  +6.3883285       1504.7     2174.834      2562.69     77.25854     154.6393     308.2998      1.568     3.65     835.2387     54.32666     233.4979        12     1.111     0.702 -58.69   0
       198    686.2341    757.9691 307.6319558  +6.3795547     2020.353      2488.24     2471.357     76.76801     153.9047     307.9627      1.296     3.02     840.4794     54.32666     326.8389        12     0.998     0.732 -59.31   0
       199    573.1611    757.2424 307.6789311  +6.3760690     2878.099     3734.796     4314.537     77.01367     154.1499     308.0853      1.417     3.02     840.6542     54.32666     422.6995        18     1.225     0.790 -64.88   0
       200    420.9449    756.0430 307.7421745  +6.3714612     1141.987     1612.952     1895.402     77.25854     154.1499     308.2079      1.570     6.30     840.9291     54.32666     207.4879        14     1.626     0.686 -81.21   0
       201    704.8226    755.3799 307.6243243  +6.3812456     736.9813     1014.323      976.825     77.01367     154.0273     308.1466      1.448     4.68     840.2661     54.32666     115.7516         7     1.007     0.617  81.35   0
       202    135.2397    754.6104 307.8608490  +6.3624538     2280.601     3016.968     3102.493     76.64489      153.966     307.9627      1.342     3.20     841.0214     54.32666     377.5508        13     1.097     0.701 -56.59   0
       203    985.2543    751.6727 307.5080030  +6.3921450     2259.081     3008.743     3245.273     77.13621     154.0273     308.1466      1.456     3.30     835.0356     54.32666     338.8263        17     1.217     0.849 -47.14   0
       204    954.5013    751.8881 307.5207657  +6.3910300     3498.334     4958.369     5177.333     77.25854     154.5782     308.2386      1.538     3.29     835.6821     54.32666     479.5826        22     1.273     0.935 -44.32   0
       205    924.9610    752.2588 307.5330197  +6.3898910     3368.251     4403.369     4542.876     77.25854     154.2112     308.2692      1.397     2.98     836.3384     54.32666     480.4386        20     1.110     0.958 -50.17   0
       206    677.4103    751.3631 307.6358416  +6.3819867     1795.277     2472.394     3113.754     76.76801      153.966     307.9013      1.443     3.06     840.2906     54.32666     331.9596        16     1.134     0.818 -55.75   0
       207    824.7144    749.9540 307.5747233  +6.3874943     1179.027     1493.617     1703.421     77.25854     154.0886     308.2079      1.347     3.30     838.3722     54.32666     174.9883        11     0.985     0.751 -64.71   0
       208    900.1569    747.6876 307.5434726  +6.3909501      867.432     1104.521      1699.94     77.25854     154.0273     308.2386      1.425     3.57     836.8499     54.32666     149.5936         9     0.906     0.735 -87.46   0
       209    249.8131    746.5038 307.8135517  +6.3696530     2311.401     2905.897     4041.529     77.01367     153.9047      308.024      1.336     3.19     841.4972     54.32666     368.3612        15     1.189     0.728 -61.36   0
       210    767.8214    746.2911 307.5984703  +6.3871049     445.2599      584.849     838.9301     77.25854      153.966     308.0853      1.464     4.47     839.1763     54.32666     88.85498         5     1.187     0.480 -60.58   0
       211    942.6599    742.0188 307.5260135  +6.3947094     1163.831     1628.351     1675.549     76.89094     154.0273     308.0547      1.559     4.10     835.7188     54.32666     163.0242        11     1.183     0.626 -56.72   0
       212    687.0305    743.5599 307.6321092  +6.3855302     739.9279     1321.356     1765.351     76.76801      153.966     308.0547      1.515     2.98     839.9877     54.32666     134.7971         6     0.788     0.496  -1.97   0
       213    916.7628    740.8061 307.5368078  +6.3943456     1122.722      1649.85     1372.615     76.39804     153.9047     307.9627      1.552     3.73     836.2618     54.32666     190.9026        12     1.084     0.822 -46.92   0
       214    270.1815    741.7990 307.8052533  +6.3722798     847.3885     1156.998     1299.714     76.89094     153.7204      307.932      1.411     3.76     841.3389     54.32666     147.1807         7     0.988     0.548 -68.40   0
       215    165.3419    741.4069 307.8487965  +6.3689173     778.3078     890.4594     873.8171     76.64489     154.0273      307.932      1.232     4.12     840.9485     54.32666     145.3618         7     0.986     0.492 -56.87   0
       216    969.2823    739.5826 307.5150403  +6.3966036     2742.115     3631.956     3808.017     76.89094     153.8433     308.1466      1.477     3.65     835.2007     54.32666     407.0219        18     1.238     0.852 -66.06   0
       217    689.0356    738.5857 307.6314437  +6.3876509      1102.69         1538     1254.299     76.89094      153.966      308.024      1.420     3.07     839.8007     54.32666     202.8878         9     0.916     0.636 -66.47   0
       218   1011.0883    733.0084 307.4979005  +6.4007125     1748.406     2414.144     2245.242     76.89094     153.8433     307.9627      1.432     3.12     834.2704     54.32666      296.217        16     1.129     0.889 -56.55   0
       219    480.2077    733.9673 307.7183106  +6.3825627     613.1298     760.6183     1186.766     76.76801     154.0273      308.024      1.421     3.95     839.8528     54.32666     121.6248         6     0.805     0.553 -58.15   0
       220    409.6599    733.8176 307.7476088  +6.3802582     670.5336     773.4239     1055.302     76.89094     154.0886     307.9627      1.245     4.91     839.9485     54.32666     111.0336         7     1.032     0.661 -73.44   0
       221    637.5816    732.2714 307.6530213  +6.3885356     852.7078     1044.814     820.8654     76.76801     154.0273     308.1466      1.344     4.36     839.7407     54.32666     116.6633         8     0.948     0.631 -72.76   0
       222    906.1480    731.9246 307.5415132  +6.3976580     432.7639     455.3144     551.0648     77.25854     154.2112     308.2079      1.169     4.45     836.3622     54.32666     83.59698         6     1.144     0.493 -60.72   0
       223    812.4615    731.4855 307.5804307  +6.3947097     1547.743     1925.837     1567.078      77.3807     154.2724     308.2079      1.467     3.22     837.9233     54.32666     266.1913        12     0.985     0.794 -48.62   0
       224    898.4711    728.6385 307.5448111  +6.3987584     1742.253      2704.09     2655.389     77.13621     154.1499     308.2692      1.621     4.18     836.5165     54.32666     248.7402        17     1.269     0.941 -85.20   0
       225    873.0006    724.1129 307.5555394  +6.3997762     1012.883       1367.3      1229.87     76.52157      153.659     307.9013      1.369     2.93     837.0735     54.32666     155.0924         9     0.794     0.737 -39.85   0
       226    658.8126    722.9709 307.6445180  +6.3930861     530.4546     523.2774     572.4843     76.76801     153.9047      308.116      1.184     4.48     839.5145     54.32666     97.36896         7     0.975     0.585 -73.30   0
       227    855.5184    720.2556 307.5629282  +6.4007847      1691.54     2088.249     1763.002     77.25855     154.1499     308.2386      1.301     2.95     837.2853     54.32666     279.4943        12     1.009     0.715 -60.57   0
       228    118.4771    717.4602 307.8690638  +6.3772266     1021.606     1997.505      1734.91      77.3807     154.2112     308.1773      2.045     6.93     840.1603     54.32666     138.8798        17     1.687     0.797  86.30   0
       229     54.5704    719.0208 307.8955453  +6.3744311     2805.184     3881.504     4232.953     76.76801      153.966      308.116      1.452     3.07     839.9039     54.32666     426.8851        17     1.120     0.797 -66.25   0
       230    466.7846    718.2789 307.7244124  +6.3885895     660.5794     866.5031     571.1249     76.89094     153.9047     308.0547      1.427     3.65     839.5765     54.32666     104.1142         6     0.766     0.548 -46.04   0
       231    710.1533    710.8413 307.6236067  +6.3998118      658.006     879.0914     921.7072     77.13621     154.1499     308.0547      1.385     4.78     838.6871     54.32666     123.1039         8     1.127     0.919  10.70   0
       232    667.3335    707.6774 307.6414936  +6.3996852     7602.942     10132.03     10729.27      77.3807     154.2112     308.1773      1.403     2.98     839.1282     54.32666     1266.939        29     1.274     0.918 -58.89   0
       233    524.9098    707.4721 307.7006406  +6.3949998     955.6296     1205.482     1305.669     77.25854     154.3948     308.2079      1.345     3.77     839.4114     54.32666     133.3865         8     0.815     0.704 -80.91   0
       234    614.2679    706.7805 307.6635589  +6.3982790     1667.317      2276.26     2784.661     76.89094     154.0273     308.1466      1.471     2.94     839.3636     54.32666       305.17        12     1.030     0.719 -54.80   0
       235    535.9830    707.0927 307.6960554  +6.3955275     653.6484     946.6918      488.838     77.01367      153.966     308.0547      1.142     4.16     839.4176     54.32666     113.0093         7     0.903     0.547 -48.81   0
       236   1004.4683    702.9750 307.5016552  +6.4128913     2771.443     3969.894      4297.24     76.89094     154.0273      308.116      1.560     3.35     833.2902     54.32666     402.9575        20     1.283     0.884 -58.89   0
       237    130.2585    703.4539 307.8646451  +6.3834053     4467.062     5970.326     5630.049      77.3807     154.1499     308.2079      1.404     2.90     839.7493     54.32666     736.3795        24     1.238     0.883 -55.23   0
       238    641.2379    703.2151 307.6524797  +6.4006540     2610.048     3279.803     3785.212     77.01367      153.966     307.9627      1.327     3.28     839.1501     54.32666     397.6505        16     1.126     0.772 -60.09   0
       239    317.0379    703.1882 307.7870998  +6.3897940     900.3322     1348.065     1107.004     76.76801      153.966     307.9013      1.496     3.04     839.5785     54.32666     139.4348         8     0.849     0.616 -50.50   0
       240    252.8145    702.7764 307.8137807  +6.3878063     791.6582     1184.362     1111.637     77.01367      153.966      308.116      1.435     3.48     839.6492     54.32666     119.2384         9     0.928     0.653 -67.59   0
       241    784.2449    699.7407 307.5932129  +6.4068726     23532.41     30878.99     32152.16     77.13621     154.0886     308.3305      1.401     3.04     837.4433     54.32666     3949.577        37     1.279     0.950 -61.08   0
       242    914.2535    699.5273 307.5392333  +6.4113041     4405.916     5886.237     5602.437     77.13621     154.0886     308.1773      1.447     3.25     835.5898     54.32666     685.5109        21     1.249     0.873 -60.56   0
       243    483.1659    700.0491 307.7182240  +6.3966650     1568.045     1982.913     2223.544     77.13621     154.1499     308.1466      1.285     3.15     839.2672     54.32666      267.376        12     1.164     0.604 -70.64   0
       244    466.2238    700.8526 307.7252320  +6.3957651     542.6185     682.4507     342.0597     76.76801     154.1499     308.0853      1.342     4.43     839.2831     54.32666     88.92596         5     0.769     0.726  83.76   0
       245    511.8075    699.7958 307.7063395  +6.3977298     1033.157      1281.31     549.7303     76.64489     153.8433     308.0547      1.324     3.01     839.2873     54.32666     217.5659         7     0.926     0.618 -66.88   0
       246    329.0860    699.6234 307.7822173  +6.3916703     777.4539     1217.257     1183.495     77.25854      153.966     308.0853      1.588     3.97     839.4289     54.32666     119.8353         7     0.972     0.623  87.95   0
       247    285.4632    699.6008 307.8003314  +6.3902144     622.3015     534.1813     325.6145     76.52157      153.966     307.9627      1.237     3.71     839.5074     54.32666     89.39386         6     0.949     0.416 -71.20   0
       248    257.7301    693.3093 307.8120590  +6.3918799     7202.338     9328.375     9266.927     77.25855     154.2724     308.2079      1.348     3.02      839.209     54.32666     1143.295        22     1.239     0.817 -59.90   0
       249    664.7645    692.4962 307.6430705  +6.4058668     8421.462      10994.9     11358.84      77.3807     154.0273     308.3611      1.403     3.03     838.7505     54.32666     1280.124        26     1.270     0.880 -62.65   0
       250    647.2073    693.8898 307.6503143  +6.4047038     1047.953     1449.306     1784.618     76.76801     153.8433     307.9933      1.531     4.25     838.9254     54.32666      161.132        11     1.206     0.623 -42.35   0
       251    360.0327    692.4216 307.7696101  +6.3956826     921.7163     1213.319     1411.942     76.76801      153.966      308.024      1.474     3.94     839.0728     54.32666     137.6271         8     1.120     0.513 -60.72   0
       252    924.7298    685.0834 307.5353670  +6.4176171     1320.585     1726.835     1330.689     77.50266     154.3948     308.2386      1.329     3.00      835.048     54.32666     216.9689        12     1.045     0.714 -62.53   0
       253    736.4518    680.9034 307.6136915  +6.4130515     4265.662     5951.974      6576.17     77.13621     154.1499      308.453      1.476     3.08     837.1099     54.32666     580.8582        22     1.274     0.883 -70.52   0
       254   1002.8087    677.5302 307.5031965  +6.4233411     10181.51     13984.93     14667.65     76.76801     153.8433     308.0853      1.457     2.93     832.3986     54.32666     1400.292        33     1.363     0.978 -62.58   0
       255      2.0830    679.8561 307.9186626  +6.3888317     848.8962     1085.335     1007.604     75.02589     132.9661     243.8099      1.377     3.83     839.0972     54.32666     140.6414        10     1.044     0.673 -71.42  24
       256    941.3186    677.9291 307.5287180  +6.4211246     2763.436     3772.114     3799.871     77.50266      154.456     308.2386      1.434     3.20     834.4319     54.32666      408.871        19     1.171     0.899 -65.50   0
       257    691.8876    681.4161 307.6321799  +6.4113490     1268.617     1742.676     1540.581     77.01367     153.9047     308.0853      1.346     4.41     838.0186     54.32666     180.3054        10     1.068     0.593 -61.49   0
       258     21.8610    677.1516 307.9105420  +6.3906145     2112.946     3160.406     3560.904     77.25854     154.0886     308.2692      1.577     3.75     839.0765     54.32666     369.4625        17     1.143     1.091 -78.95   0
       259    555.2295    675.9834 307.6891100  +6.4090159     737.5056     859.4584     1023.898     76.89094     153.9047     308.1466      1.367     4.21     838.9242     54.32666     128.8654         8     1.054     0.617 -57.11   0
       260     80.1637    672.3101 307.8864976  +6.3945766     29443.67     39545.75     40961.78      77.3807     154.0886     308.2386      1.411     3.09     839.0087     54.32666     4655.374        44     1.360     0.983 -58.80   0
       261    541.4374    673.3177 307.6949268  +6.4096543     2458.149     3084.992     3070.805     77.25855     154.1499     308.1773      1.360     3.12     838.8716     54.32666     379.0858        17     1.110     0.869 -56.10   0
       262    413.7380    673.2557 307.7479555  +6.4053977      415.759     655.3806     948.3782      77.3807     154.1499     308.2079      1.392     3.84     838.7769     54.32666     77.61359         5     0.965     0.437 -44.88   0
       263    278.9183    673.4321 307.8039316  +6.4007980     577.6867     874.8124     544.8813     77.13621     154.0886     308.1466      1.578     3.74     838.3198     54.32666     89.75122         5     0.754     0.619 -75.01   0
       264    510.1597    670.4194 307.7080123  +6.4098025     1664.103     2080.412     2131.152     76.89094      153.966      307.932      1.409     3.14     838.7279     54.32666     306.3706        14     1.114     0.822 -54.58   0
       265    931.1141    669.4708 307.5332391  +6.4242760     1321.782     1876.406     1548.702      77.3807     154.3948     308.2386      1.474     3.51     834.5366     54.32666     204.1321        13     1.082     0.828 -83.48   0
       266    550.4955    667.0750 307.6913754  +6.4125351     1241.175     1608.228     1779.151     77.01367     154.3336     308.2079      1.456     3.94     838.6755     54.32666     174.1425        12     1.183     0.754 -43.51   0
       267    726.1785    664.5463 307.6185069  +6.4194609     4079.228     5187.617     5267.327     76.76801     154.1499      308.024      1.332     2.94     836.9117     54.32666     753.1404        19     1.139     0.849 -62.54   0
       268    748.1635    662.8631 307.6094339  +6.4208912     4800.322     6255.402     6281.902     77.25854     154.2112     308.2079      1.366     2.99     836.6501     54.32666      839.306        21     1.184     0.823 -61.76   0
       269    579.6048    660.7999 307.6794988  +6.4161011     3891.125     4969.021     5235.759     76.64489     153.7204     307.9627      1.325     3.00     838.4364     54.32666     589.3722        19     1.160     0.793 -58.40   0
       270    415.6589    661.1872 307.7475644  +6.4104445     1604.595     2087.234     2311.824     76.64489     154.0886     307.9013      1.297     3.10     838.3416     54.32666     237.2974        12     1.090     0.674 -61.11   0
       271   1020.9982    659.0721 307.4962610  +6.4315684     5567.774     7832.548     7894.387     76.76801     151.8661       270.37      1.457     3.13     831.3947     54.32666     825.0654        26     1.275     0.964 -50.97  24
       272    986.4108    657.9266 307.5106627  +6.4308875      9396.63     12635.34     12937.18     76.76801     153.7819     308.0853      1.423     2.95     832.4645     54.32666     1408.789        30     1.257     0.977 -60.23   0
       273    323.6751    659.5925 307.7858137  +6.4080150     1618.726     2155.837     2427.261     76.89094      153.659     308.0853      1.428     4.03     837.9522     54.32666     245.1473        17     1.367     0.854 -83.47   0
       274    240.0569    660.3051 307.8205111  +6.4049113     2082.707     2790.323     2378.331     77.13621     154.1499     308.3917      1.377     3.25     838.1136     54.32666     336.6884        15     1.158     0.715 -46.97   0
       275    540.1957    658.3596 307.6959457  +6.4157881     684.4156     867.0607     687.4073     76.52157     153.9047      307.932      1.262     5.26     838.3705     54.32666     94.11157         8     1.098     0.712 -74.79   0
       276    706.3492    656.6429 307.6270067  +6.4220605     1274.825     1839.565     1930.975      77.3807     154.1499     308.2386      1.752     3.46     837.1557     54.32666     180.2011        11     1.070     0.697 -57.27   0
       277     97.7521    654.6465 307.8797914  +6.4024607     911.2966     1261.407     1652.308     77.25855     154.0273     308.2079      1.646     4.31     838.7526     54.32666     135.4099         8     1.003     0.557 -69.70   0
       278    144.9110    651.2272 307.8603252  +6.4054594     28114.32     37650.75     38248.12      77.3807     153.9047     308.0853      1.392     3.11     838.3441     54.32666      4304.89        43     1.340     0.974 -60.56   0
       279    431.7936    652.0657 307.7411717  +6.4147517     3400.104     4774.632     5057.462     76.76801     153.9047      308.024      1.472     3.25     838.0099     54.32666      527.358        20     1.211     0.888 -64.60   0
       280    813.3834    651.6798 307.5827256  +6.4276887     1261.899     1623.149     1780.133     76.89094     153.9047     308.0547      1.314     3.68     836.3211     54.32666     199.0479        12     1.172     0.666 -66.77   0
       281    649.3454    651.8713 307.6508386  +6.4221227     512.5811     703.6951     572.7074     77.13621     154.0273     308.1773      1.387     3.94     837.7422     54.32666     75.69635         6     1.048     0.423  76.95   0
       282    364.2384    645.9346 307.7694305  +6.4150157      856.233     984.7391     724.6099     77.13621     154.0886     308.2998      1.256     2.89     837.4853     54.32666     164.2215         6     0.857     0.458 -59.35   0
       283    981.3455    640.8635 307.5133378  +6.4377632     7641.807     11428.59     12032.36      77.3807     154.0886     308.1773      1.587     3.01     832.2274     54.32666     1029.313        38     1.384     1.233  61.12   0
       284     25.7803    640.1594 307.9101656  +6.4060180     1317.049     1856.507     1901.285     76.89094      153.966     307.9627      1.471     3.97     838.9843     54.32666     229.4056        14     1.354     0.652 -66.57   0
       285    574.8929    636.1087 307.6822859  +6.4261370     56437.29     74222.38     76969.09     77.25854     154.6393     308.2079      1.378     3.07     837.5392     54.32666     9017.911        62     1.362     1.031 -61.74   0
       286    939.2538    637.7426 307.5309222  +6.4376469     862.2639      997.913     1584.091      77.3807     154.1499     308.2079      1.268     2.73     833.2852     54.32666     164.5746         9     0.872     0.777 -65.38   0
       287    799.5567    636.0981 307.5889904  +6.4336595     658.5253     713.0725     641.9487     77.25854     154.0886     308.4224      1.118     3.94     836.1884     54.32666     146.4495         6     0.980     0.493  85.97   0
       288    533.8700    636.2812 307.6993153  +6.4246911     933.9867     1122.484     1998.021     77.50266     154.3948     308.2386      1.254     2.84      837.614     54.32666     166.8032         8     0.861     0.647 -87.85   0
       289    218.4898    637.0843 307.8302502  +6.4137728     768.2133     1087.875      1328.43     77.01367     154.3948     308.3305      1.178     3.61     837.7812     54.32666     119.5436         6     0.785     0.496 -83.93   0
       290    985.9153    632.2198 307.5117296  +6.4414843     605.5839     1041.503     1556.708     76.89094     153.8433     308.1466      2.103     6.17     831.8919     54.32666     103.5192        11     1.513     0.707 -60.37   0
       291    504.8583    633.1348 307.7114687  +6.4250176     780.0059     955.2446      731.938      77.3807     154.0886     308.2386      1.357     3.89     837.3938     54.32666     129.2606        10     1.169     0.621 -56.88   0
       292    182.4003    632.7449 307.8453825  +6.4143507     3088.969     4273.447     4504.245     76.52157     153.7819     307.9013      1.442     3.11     837.7886     54.32666     505.9768        19     1.273     0.800 -66.65   0
       293     74.9827    627.0066 307.8901800  +6.4131049     1712.648     2228.586     2272.468     76.89094     153.9047     308.0547      1.385     3.51     838.5453     54.32666     252.6173        13     1.158     0.649 -67.18   0
       294    472.1545    619.8928 307.7254950  +6.4293879      73196.4     96904.98     100949.1     77.25854     154.0886     308.3305      1.399     2.99     836.8065     54.32666     12416.65        78     1.425     1.074 -61.33   0
       295     15.4545    621.6994 307.9150775  +6.4132910      1980.94     2878.438     3098.503     77.13621     154.1499     308.4836      1.610     3.39     839.0705     54.32666     312.7559        17     1.361     0.767 -58.34   0
       296    658.1349    617.0667 307.6483584  +6.4367861      951.176     1214.959     1344.431     77.25854     154.1499     308.2386      1.388     4.47     836.5264     54.32666     149.2411         8     1.167     0.486 -63.40   0
       297    146.6098    614.9310 307.8608458  +6.4205009      1997.49     2884.159     2684.967     76.76801      153.966     308.0547      1.505     3.27     837.6019     54.32666     284.3189        16     1.173     0.812 -70.56   0
       298    942.5131    612.3274 307.5304204  +6.4482486     704.5932     1270.089     1661.843      77.3807     154.3948     308.2079      2.177     6.62     832.3732     54.32666     113.1814        11     1.469     0.838 -18.73   0
       299    425.6935    612.6545 307.7450323  +6.4308177     1041.357     1246.743     1694.749     77.13621     154.0886     308.4224      1.339     3.60     836.5433     54.32666     169.2883        10     0.983     0.672 -56.21   0
       300    618.0557    611.5227 307.6651885  +6.4377330     1082.971     1533.565     1828.352     77.25854     154.1499     308.2079      1.471     3.19     836.4359     54.32666     191.8895         9     1.052     0.557 -62.04   0
       301    317.7326    609.2247 307.7899797  +6.4286093     2452.409     3653.119     3712.122     76.89094     154.0273      308.116      1.538     3.23     836.6002     54.32666     380.4711        18     1.134     0.958  89.87   0
       302     18.5205    611.0367 307.9141650  +6.4177962     827.1411     1191.614     1220.213     77.13621     154.2112     308.2079      1.734     3.37     839.0346     54.32666     141.5616         8     0.876     0.733  -0.81   0
       303     25.3488    609.0257 307.9113976  +6.4188564     565.1249     621.5938     546.1559     76.89094     154.2112      308.116      1.194     4.27     838.9627     54.32666     98.78021         7     0.900     0.577 -58.63   0
       304    469.6493    608.0760 307.7269332  +6.4341824     948.7122     1336.948     1911.681     77.13621     154.2112     308.2079      1.443     3.58     836.3831     54.32666     154.8455         8     1.032     0.507 -38.08   0
       305    744.2087    603.4301 307.6130719  +6.4452960     6418.536     8328.861      8366.42     76.76801      153.966      308.024      1.375     2.96     836.1239     54.32666     1056.457        23     1.221     0.854 -60.17   0
       306    797.7997    598.6917 307.5909754  +6.4490442     16278.62     21262.45     21622.11     76.52157      153.659     307.9013      1.365     2.94     835.5528     54.32666     2406.986        37     1.236     0.996 -56.59   0
       307   1015.1778    599.1851 307.5006837  +6.4560991     1201.444     1509.004     1467.752     77.01367      153.966      308.116      1.340     2.77     830.5596     54.32666     187.0437        10     0.891     0.714 -51.99   0
       308    540.0494    598.6141 307.6980167  +6.4404490     1451.978     2049.853     2125.819     76.64489     154.0886      307.932      1.588     3.64     836.4326     54.32666     232.6945        12     1.205     0.642 -71.44   2
       309    621.6215    596.8132 307.6642023  +6.4439253     3374.876     4565.362     4461.777     77.01367      153.966      308.116      1.404     3.13     836.0129     54.32666     500.8184        17     1.141     0.796 -64.59   0
       310     42.9933    597.8724 307.9044481  +6.4240552     668.9379     844.9957     770.7792     76.89094     153.7204      308.116      1.356     3.82     838.7029     54.32666     121.3939         6     0.947     0.441 -40.11   0
       311    938.7621    592.9719 307.5326269  +6.4561144     1349.703     2133.745     2572.732     76.76801     153.9047     308.0547      1.781     4.06     831.9746     54.32666     202.7191        13     1.125     0.780 -59.55   0
       312    197.5297    591.1514 307.8405044  +6.4320308     702.3009     1040.126     1013.746     77.25854     154.0886     308.2386      1.443     3.43     836.7244     54.32666     144.8209         7     0.983     0.478 -80.31   0
       313    380.0222    590.5491 307.7647428  +6.4384110     1148.254     1444.827     1251.623     76.76801     154.2112     308.0853      1.361     3.34     835.8549     54.32666     176.7181        12     1.051     0.770 -41.25   0
       314    234.1101    590.2183 307.8253457  +6.4336460     1451.405     2400.133     2891.716     77.01367     153.9047      308.116      1.769     3.79     836.3773     54.32666     217.5175        14     1.206     0.797 -80.95   0
       315    873.7962    581.9446 307.5599766  +6.4584978     3295.146     4181.385     4411.538     76.64489      153.966     307.9013      1.329     2.99     833.9285     54.32666     505.8537        18     1.147     0.800 -57.85   0
       316    168.9267    581.8691 307.8526954  +6.4349008     910.0215     1432.328     1786.194      77.3807     154.2724     308.2079      1.633     4.34     836.8354     54.32666     128.5597        10     1.054     0.690 -78.89   0
       317    832.5432    579.4090 307.5771938  +6.4581664     2875.365     4074.941     4428.529     76.64489     154.0886      307.932      1.573     3.13     834.4958     54.32666     490.7467        18     1.211     0.817 -60.53   0
       318    803.4602    575.3901 307.5894067  +6.4588536     2962.131     3958.484     5652.761     76.64489     154.0273      307.932      1.514     2.93     834.7133     54.32666     519.9432        17     1.177     0.792 -66.05   0
       319    813.1691    570.5844 307.5855360  +6.4611622     186431.1     242840.2     252227.5     76.89094     153.9047     308.1466      1.392     3.10      834.448     54.32666     31014.25       110     1.423     1.122 -63.52   0
       320    746.0900    575.8942 307.6132153  +6.4567272     809.0417     1073.931     1149.529     77.25854     154.6393     308.2386      1.307     3.95     835.7463     54.32666     147.7826         7     0.919     0.486 -42.79   0
       321    260.5901    574.3328 307.8148857  +6.4410942     9001.293     11961.41     12049.59     76.76801      153.966      308.116      1.386     2.87     835.4938     54.32666     1439.419        28     1.231     0.924 -63.45   0
       322    194.7475    568.8071 307.8424142  +6.4411618     66130.63     90616.76     95603.25     76.76801      153.966     307.9013      1.432     3.10     836.0718     54.32666     10028.77        82     1.504     1.116 -58.31   0
       323    743.0273    570.9544 307.6146531  +6.4586642     746.8365     936.9186     728.0555     76.76801     154.2112      308.116      1.319     4.07     835.7379     54.32666     106.9249         7     0.895     0.529 -46.08   0
       324    118.7794    565.0812 307.8740865  +6.4401441     6935.368     9819.295      10045.4     77.01367     153.8433     308.1466      1.465     3.13     836.9051     54.32666     1010.288        27     1.311     0.929 -62.55   0
       325   1005.2217    561.7020 307.5060738  +6.4712422       806.67     950.1731      762.832     77.13621     153.9047     307.9933      1.407     4.08     829.9327     54.32666     149.6594        12     1.116     0.814 -71.90   0
       326    984.0199    562.3391 307.5148578  +6.4702718     1535.671     1946.289     1856.614     76.89094     154.0886      308.116      1.379     3.12     830.3426     54.32666     238.0909        13     1.105     0.722 -75.43   0
       327    233.0254    560.6594 307.8267938  +6.4458125     798.6917     1071.324     1681.099     76.89094     154.1499     308.0547      1.341     3.18     835.0418     54.32666     158.9175         6     0.960     0.467 -61.13   0
       328    849.7426    557.8290 307.5707750  +6.4676505     5217.492     6657.744     6588.133     76.89094     154.2112      308.116      1.315     2.95     833.4031     54.32666     756.8711        21     1.214     0.799 -64.10   0
       329    368.1435    555.9869 307.7708406  +6.4522810     19481.75     26497.38     27261.83     76.64489     154.0273      307.932      1.409     3.06     834.7481     54.32666     3240.047        41     1.324     1.003 -60.06   0
       330    458.5998    555.9924 307.7332757  +6.4553143     885.4992     1235.182     1152.137     76.64489     153.8433      308.024      1.523     3.74     835.8713     54.32666     168.3163         7     1.107     0.415 -36.44   0
       331    169.9722    554.8548 307.8531736  +6.4460885     2132.466     2805.449      3278.13     77.01367     154.2112     308.0853      1.369     3.32     836.3342     54.32666     380.5416        12     1.123     0.617 -64.79   0
       332    803.7690    551.1944 307.5900905  +6.4688532     6688.144     8797.428     9293.357     76.64489     154.0273     307.9933      1.360     2.98     833.9008     54.32666     1055.823        26     1.289     0.868 -57.52   0
       333    534.5793    550.8391 307.7018960  +6.4599894     7432.386     9753.788     10078.67     76.89094      153.966     307.9627      1.379     2.95     835.0421     54.32666     1172.733        27     1.325     0.870 -52.40   0
       334    245.1618    552.6112 307.8220255  +6.4495431     1026.836     1434.495     860.5687     76.64489      153.966      307.932      1.333     3.37     834.6122     54.32666     182.6533         9     1.074     0.537 -60.77   0
       335    175.5499    552.1084 307.8509501  +6.4474099     684.3995      1081.85     1719.898     77.13621     154.0273     308.3917      1.484     3.38     836.1039     54.32666     109.8239         5     0.786     0.420 -66.31   0
       336    107.4998    551.9370 307.8792146  +6.4451908     1074.796     1306.803     1097.376     77.01367     154.1499     308.2386      1.229     4.40      836.659     54.32666     193.8276         8     1.068     0.516 -45.79   0
       337    392.7229    547.4005 307.7609227  +6.4566510     1475.364     2002.721     1623.073     76.52157      153.536     307.9627      1.387     3.18     835.1514     54.32666      273.101        12     1.013     0.791  83.67   0
       338    579.2014    543.9757 307.6835957  +6.4643183     2741.085     4102.822     4327.843     76.89094     153.8433     307.9933      1.540     3.89     834.6568     54.32666     415.2916        22     1.532     0.810 -40.78   0
       339    276.7612    540.4725 307.8093128  +6.4556165     100615.3     135109.1       139863     77.13621     154.0886     308.2692      1.431     3.06     833.9293     54.32666     14607.86        84     1.446     1.092 -60.04   0
       340    181.5646    544.0071 307.8487260  +6.4509567     7801.887     10293.66     10304.25     76.64489      153.966     307.9933      1.385     3.00     835.7328     54.32666     1117.166        23     1.235     0.871 -59.79   0
       341    820.3004    543.5449 307.5834817  +6.4725639     1643.272     2138.459     2009.998     77.01367     154.1499     308.4836      1.286     3.07     833.3702     54.32666     270.4517        11     1.097     0.616 -60.93   0
       342     53.0902    542.7936 307.9021178  +6.4471335     5617.041     7817.077     7948.512     76.89094     153.8433     307.9933      1.415     2.98     838.0953     54.32666     944.5936        27     1.331     0.907 -62.17   0
       343    566.1393    537.9205 307.6892240  +6.4663805     1113.309     1327.104     1169.902      77.3807     154.1499     308.2079      1.275     3.17     834.3663     54.32666     198.5601        10     1.026     0.609 -68.02   0
       344    260.7026    535.4901 307.8161496  +6.4571337     1760.714     2201.476     2220.541     77.25855     154.5782     308.2079      1.309     2.99     833.8869     54.32666     297.9388        14     1.095     0.751 -49.26   0
       345    976.1699    534.3823 307.5190546  +6.4815521      1797.34     2323.198       2107.2     76.89094      153.966     308.1466      1.391     3.62      829.913     54.32666     282.0645        12     1.087     0.690 -59.92   0
       346    799.9078    532.9731 307.5923057  +6.4762469     18845.13     24472.79     25175.55      77.3807     153.9047     308.0547      1.363     2.93     833.3192     54.32666     3192.869        38     1.264     0.940 -59.04   0
       347    503.4980    531.3469 307.7154599  +6.4669948     46248.74     67768.06     71585.59     77.13621     154.1499     308.4224      1.615     3.12     834.4975     54.32666     6576.141        73     1.499     1.297 -40.33   0
       348    653.7867    530.0467 307.6530889  +6.4725668      1030.02     1448.697     1177.298     76.64489      153.966     307.9933      1.462     3.54     833.9783     54.32666     196.6956         9     1.076     0.679 -74.71   0
       349     51.5989    528.2107 307.9032302  +6.4531035     1429.037     1934.913     1678.633     76.89094     153.8433      308.024      1.493     3.58     837.8853     54.32666     246.2081        15     1.157     0.939 -66.37   0
       350    725.8031    525.6850 307.6233267  +6.4767776     1537.816     2231.432     2195.051     76.64489     153.7819      307.932      1.653     5.67     834.2435     54.32666     330.5818        16     1.766     0.913  83.08   0
       351    663.4985    526.4066 307.6491780  +6.4743947     3506.289      4353.25       4630.7     77.01367     153.7819     307.9933      1.340     3.07     833.7747     54.32666     519.6548        18     1.261     0.759 -62.83   0
       352    215.9021    527.8339 307.8350127  +6.4587884     2232.568     3082.669     3320.711     77.25854     154.0273     308.3305      1.432     3.26     834.2922     54.32666     338.1536        17     1.229     0.833 -46.19   0
       353    263.8266    528.1926 307.8150986  +6.4602514     572.4835     961.2575     593.1073     76.76801      153.966      308.024      1.648     3.16      833.664     54.32666     100.1695         6     0.751     0.558 -39.88   0
       354    101.8393    527.6516 307.8823859  +6.4550261     661.4889     851.5959     437.5458     77.13621     154.1499     308.2079      1.255     3.21     836.0411     54.32666     143.2227         6     0.885     0.589 -67.32   0
       355    673.6392    526.3665 307.6449678  +6.4747507     1512.754     1842.624     2107.028     77.01367      153.966      308.024      1.459     3.16     833.7726     54.32666     256.1993        13     1.141     0.714 -42.30   0
       356     82.5229    523.6174 307.8905438  +6.4560412     660.5792      949.813     732.3862     76.76801     153.9047      308.116      1.226     3.80     836.5243     54.32666     126.5358         6     0.973     0.427 -72.72   0
       357    401.1496    522.1833 307.7582730  +6.4673445      1998.65     2793.098      2869.53     76.76801     154.2112      307.932      1.468     3.01     833.8199     54.32666     311.6876        14     1.050     0.822 -75.38   0
       358    332.6677    520.2872 307.7867767  +6.4658280     4430.581     5851.745      6004.09      77.3807     154.3948     308.2386      1.406     3.16      832.967     54.32666     627.1159        20     1.192     0.872 -62.12   0
       359    512.6808    519.7543 307.7120365  +6.4720886     2326.583     2793.118     2792.763     77.25855     154.1499     308.2079      1.280     2.90     833.7122     54.32666     358.3765        16     1.157     0.769 -70.10   0
       360    147.8398    518.8133 307.8635819  +6.4602230     29389.62     39686.02     40634.22     76.76801      153.966     307.9627      1.415     3.09     835.7291     54.32666     4649.737        46     1.348     0.998 -61.10   0
       361    875.7775    519.0796 307.5612622  +6.4845182     1838.896     2239.819     2292.951     76.89094     153.8433     308.1773      1.321     3.26     831.6765     54.32666     276.4215        14     1.123     0.791 -58.88   0
       362    112.9906    517.1890 307.8781088  +6.4597207     3121.681     4415.088     4638.973     76.89094      153.966     308.1466      1.449     3.06     835.7261     54.32666      480.449        23     1.299     0.932 -65.86   0
       363    349.7712    515.5380 307.7798340  +6.4683631     1268.844     1744.327     2492.157     77.01367     154.1499     308.1773      1.574     3.92     832.7115     54.32666     194.8024        12     1.132     0.726 -57.67   0
       364    973.4801    513.4357 307.5208736  +6.4901102     5966.614     7786.124     7922.667     77.13621     154.2112     308.2386      1.400     3.00     829.6044     54.32666     938.3171        20     1.204     0.806 -66.19   0
       365    546.5314    506.0446 307.6984397  +6.4788833     1572.404     2029.863     2009.398     77.25854     154.0886     308.2386      1.274     3.22     832.7778     54.32666     242.4136        11     1.087     0.618 -61.60   0
       366     12.1401    503.2028 307.9204619  +6.4620983     28504.82     38922.45     40229.26     76.64489     153.9047      307.932      1.435     3.07     839.3398     54.32666     4407.767        45     1.345     1.028 -64.13   0
       367    444.8547    500.0094 307.7408696  +6.4779655     48454.25     65250.97     67317.95     76.64489     154.0886      307.932      1.394     3.01     832.5139     54.32666      7960.82        56     1.373     1.023 -61.55   0
       368    421.2831    502.7614 307.7505661  +6.4760384     637.9975     705.5545     527.5377     77.25855     154.0886     308.1773      1.386     3.48     832.7305     54.32666      128.834         5     0.885     0.402 -44.02   0
       369    652.8865    499.7383 307.6544816  +6.4850495     14253.07      18586.9     18870.37     77.25854     154.3336     308.2079      1.375     3.14     832.5288     54.32666     2307.171        30     1.270     0.889 -63.94   0
       370    292.8241    500.2979 307.8039975  +6.4727419      1250.37     1623.565     1679.742      77.3807     153.9047     308.0547      1.429     3.33     832.4272     54.32666     230.1144        13     1.065     0.871 -77.97   0
       371    210.0206    497.5664 307.8384770  +6.4710862     21365.73      30994.3     31971.71     76.76801      153.966     308.0547      1.547     2.96     833.8391     54.32666     3203.002        48     1.364     1.184 -70.33   0
       372   1019.0025    498.6008 307.5024640  +6.4977537     452.9914     475.7117     721.5096     76.64489     153.7205       292.13      1.476     4.14     828.5663     54.32666     68.67487         5     1.087     0.449  65.10  16
       373    986.8165    498.1829 307.5158458  +6.4968525     1231.413     1581.587     1244.868     77.01367     153.8433     308.1466      1.443     3.86     829.1025     54.32666     187.9109        10     1.066     0.616 -68.06   0
       374    175.7902    498.5441 307.8526594  +6.4695312     1899.458     2572.583     2290.738     76.64489     154.0886     307.9013      1.448     3.38     834.7485     54.32666     292.7805        13     1.180     0.675 -53.97   0
       375    915.5684    497.4367 307.5454621  +6.4947824     887.5137     1125.337     1270.754     76.89095     153.9047     307.9627      1.286     3.11     830.3447     54.32666     131.2801        10     0.925     0.758 -45.56   0
       376    827.1043    497.6090 307.5821975  +6.4917561     1083.022     1466.486     1139.094     77.01367     153.7819     307.9933      1.365     4.19     831.7252     54.32666     160.3619        12     1.241     0.752 -54.69   0
       377    574.6119    496.3963 307.6871023  +6.4838076     3149.504     3988.618      4107.72     76.89094     153.8433     308.0853      1.323     2.87     832.3641     54.32666     531.3184        15     1.119     0.736 -58.60   0
       378    948.6281    493.7059 307.5318565  +6.4974264     5420.554     7382.235     7216.606      77.3807     153.9047      308.116      1.456     3.14     829.6847     54.32666     807.4164        28     1.311     0.952 -66.88   0
       379    621.7230    492.0838 307.6676816  +6.4871661     7442.156     9937.514      10638.9      77.3807      154.456     308.2998      1.374     3.12     832.2381     54.32666     1162.503        26     1.276     0.850 -55.42   0
       380    109.4376    492.6855 307.8804123  +6.4697170     1292.064     1910.034     1730.494     77.25855     154.1499     308.2079      1.465     3.13     835.0774     54.32666     226.2055        10     1.067     0.629 -40.76   0
       381    221.0066    491.5961 307.8341162  +6.4739203     769.0816     922.0322     907.8588     76.64489     153.8433     308.0853      1.211     3.52      833.436     54.32666     115.3156         8     0.824     0.676  89.04   0
       382    971.2024    486.0190 307.5227384  +6.5013534     3835.956     5125.112     4831.512     76.89094     153.7204     307.9627      1.392     3.06     829.1693     54.32666     585.1536        22     1.207     0.902 -59.17   0
       383    533.8081    483.2594 307.7044906  +6.4878637     8368.275     11375.64     12197.98     76.64489     154.0273     307.9627      1.410     3.00     831.5746     54.32666     1374.435        31     1.328     0.906 -59.43   0
       384    409.6756    484.6186 307.7559980  +6.4831390     839.5327     880.2148     1376.406     76.76801     153.9047     308.1466      1.238     2.92     831.4132     54.32666     130.2733         8     0.878     0.656  -8.27   0
       385    379.8140    483.4693 307.7684384  +6.4826111     3000.554     3961.656     4169.935     76.76801     154.0886      308.116      1.400     3.34     831.2236     54.32666     458.0961        18     1.183     0.819 -57.76   0
       386    102.9289    482.9713 307.8834436  +6.4735082     695.7207     1018.601     825.6267     77.01367     154.1499     308.1773      1.324     3.34     834.8184     54.32666     113.0865         7     0.876     0.526 -51.16   0
       387   1001.4827    481.6227 307.5103093  +6.5041788     482.4757     626.2922     760.0457     77.01367     153.8433      308.116      0.942     3.46     828.6006     54.32666     82.69983         5     1.112     0.311 -20.37   0
       388    890.3616    479.1677 307.5565437  +6.5014831     3491.522     4389.671     5056.209     76.89094      153.966     307.9933      1.320     3.03     830.4261     54.32666     543.9356        17     1.123     0.790 -66.16   0
       389    543.5420    479.6457 307.7005697  +6.4896818      960.134     1418.948     1535.053     77.25855     154.1499     308.2998      1.673     3.90     831.4742     54.32666     141.2712        10     1.082     0.692 -54.23   0
       390    238.6310    478.7339 307.8272312  +6.4798229      885.739     1087.768     1208.262     77.01367     154.1499     308.1466      1.358     3.50     832.7673     54.32666     132.2875        10     1.051     0.668 -55.46   0
       391    937.0811    472.8160 307.5373526  +6.5056655     1461.317     1988.233     1955.143     76.89094     153.8433     308.0547      1.466     3.37     829.3207     54.32666      237.516        13     1.134     0.703 -59.58   0
       392    897.7419    473.4864 307.5536690  +6.5040752     2541.915     3115.829     3198.755     77.25855     154.1499     308.3611      1.344     3.05     830.0431     54.32666     389.2828        13     1.052     0.754 -60.97   0
       393    116.5515    473.1638 307.8781178  +6.4780157     997.0947      1563.43     1707.376     77.01367     154.0886     308.0853      1.951     5.09      834.561     54.32666     132.3784        14     1.248     0.860 -35.28   0
       394    721.6960    469.5837 307.6269171  +6.4998017     3391.909      4297.75     4533.642     77.13621      153.966     308.0853      1.336     2.84      830.933     54.32666     564.6677        19     1.171     0.826 -61.39   0
       395    432.9092    468.0542 307.7469071  +6.4907571     1219.403     1659.266     1881.365     77.13621      153.966     308.3305      1.383     3.54     830.6221     54.32666     222.9205        10     1.088     0.636 -53.77   0
       396    392.6323    467.6706 307.7636474  +6.4895638     4180.288     5601.684     5849.995     77.13621     154.1499     308.2386      1.428     3.02      830.597     54.32666      636.329        20     1.200     0.827 -61.59   0
       397     83.4609    468.3578 307.8920223  +6.4788857     2132.516     2724.079     2940.321     77.25855     154.1499     308.2998      1.366     3.28     835.1265     54.32666     316.2353        16     1.152     0.826 -62.55   0
       398    620.3656    464.2685 307.6691807  +6.4986041     11566.14     15219.24     16549.63     77.13621     154.2112     308.2998      1.394     3.03     830.8856     54.32666     1809.429        31     1.310     0.887 -59.13   0
       399    783.0510    460.8430 307.6017281  +6.5054624     19190.74     24612.25     25334.35      77.3807     154.1499     308.2386      1.355     3.12      830.488     54.32666     3198.507        34     1.238     0.925 -61.13   2
       400    787.0172    456.1925 307.6002370  +6.5075150     1595.379     2162.066      2719.27     76.89094     153.9047     308.0547      1.406     3.81     830.2778     54.32666     222.8882        13     1.181     0.680 -70.63   3
       401    302.8624    461.1396 307.8011496  +6.4892453     3144.582     4033.925     3341.177     77.25854     154.1499     308.2386      1.316     2.97     830.7676     54.32666       523.58        18     1.237     0.772 -57.47   0
       402    426.3847    460.9606 307.7498558  +6.4934668     833.2642     1083.998     1018.477     77.01367      153.966     307.9627      1.192     2.67     830.3112     54.32666     181.1645         7     0.884     0.585 -36.81   0
       403    734.4247    459.3754 307.6219734  +6.5044421     506.7132     660.1268     666.5587     76.76801      153.966     308.1466      1.486     3.49      830.425     54.32666     84.52118         5     1.094     0.321 -68.93   0
       404    385.8347    457.7041 307.7668064  +6.4934502     1862.185     2607.142     2917.451      77.3807     154.0273     308.3305      1.390     3.51     830.2094     54.32666     269.3633        15     1.243     0.739 -52.57   0
       405    812.0871    457.6695 307.5897750  +6.5077433     1494.409     2065.674     1727.473      77.3807     154.3948     308.2386      1.419     3.41     830.3135     54.32666     282.8781        14     1.233     0.726 -49.79   0
       406    968.2537    455.9116 307.5249720  +6.5136850     2290.619     2842.395     2274.094     77.25854     154.0273     308.3305      1.390     3.13     828.0804     54.32666     383.1093        16     1.165     0.772 -65.12   0
       407    716.7401    454.6718 307.6294764  +6.5057923     690.4346     1034.616     1406.834      77.3807     154.1499     308.2692      1.445     2.94     830.2678     54.32666     150.5291         8     1.005     0.712 -58.75   0
       408    374.4525    453.6869 307.7716690  +6.4947265     855.8325     1079.164     1193.455     77.25855     154.0273     308.3305      1.383     3.60      830.085     54.32666     148.4715         8     1.004     0.570 -46.49   0
       409    120.4856    452.6275 307.8771780  +6.4866261     5229.201     7105.104     7411.197      77.3807     153.8433     308.0853      1.426     3.09     834.1191     54.32666     808.5033        24     1.254     0.908 -59.29   0
       410    758.6151    451.8113 307.6121805  +6.5083740     2732.744     3543.734      3740.19     76.89094     153.7819     308.1466      1.375     3.08     830.1118     54.32666     427.1691        16     1.158     0.776 -63.89   0
       411   1022.2020    450.6178 307.5027423  +6.5176706      4533.58     6602.328      6431.79     76.89094     141.2326     253.9793      1.606     3.70     826.9017     54.32666     494.5136        26     1.234     1.140  57.51  24
       412    278.4984    449.6792 307.8116548  +6.4931578      1779.14     2378.314     2494.132     77.13621     154.5171     308.2386      1.466     3.55     830.6784     54.32666     262.1569        16     1.194     0.837 -46.94   0
       413    356.5157    447.5428 307.7793255  +6.4966608     3755.912      5084.77     4893.468     77.25855     154.1499     308.2998      1.426     2.92     829.9188     54.32666     599.4313        22     1.241     0.901 -50.31   0
       414    712.5334    445.2640 307.6315397  +6.5095355      1920.45     2634.057     2862.132     77.25855     154.1499     308.2386      1.302     3.10     829.8214     54.32666     367.9106        15     1.136     0.849 -67.05   0
       415    986.0636    444.0642 307.5179718  +6.5191706     706.0123      948.468     1255.727     77.25854     154.1499     308.2386      1.325     4.43     827.2473     54.32666     115.1324         6     0.901     0.658 -48.70   0
       416    416.1633    443.6549 307.7546840  +6.5002683     586.3857     919.2026     1288.684     77.13621     154.1499     308.2386      1.429     3.53     829.5358     54.32666     88.88446         5     1.156     0.311  79.63   0
       417    244.2515    442.7055 307.8261131  +6.4948857     915.2632      1220.07      812.704     77.13621     154.0886      308.453      1.392     3.75     831.3901     54.32666     140.2847        11     1.033     0.815 -46.98   0
       418    667.2043    441.4603 307.6504942  +6.5095888     524.4698     626.9102     723.9562     76.64489     154.0273     307.9933      1.481     5.12     829.6723     54.32666     68.60718         6     1.132     0.655 -48.71   0
       419    553.9770    437.8445 307.6976425  +6.5072890     1123.971     1464.003     1989.863     76.76801     154.0886     308.0547      1.336     3.36     829.2138     54.32666     187.5406        13     1.078     0.813 -44.67   0
       420    475.8008    436.4306 307.7301587  +6.5052517     1558.602     2049.688     2194.286     76.64489      153.966      308.024      1.435     3.47     829.7687     54.32666     260.6813        15     1.105     0.890 -58.89   0
       421    838.5457    435.2300 307.5795389  +6.5178918     1718.651     2128.857     1991.546     77.01367     154.2112      308.116      1.329     2.99     829.3127     54.32666     302.5806        15     1.104     0.770 -74.22   0
       422    824.1827    434.4704 307.5855299  +6.5177254     2424.762     2907.987     3186.975     76.76801     154.0273      308.116      1.277     2.76      829.313     54.32666     408.5984        14     1.045     0.764 -46.20   0
       423    623.9391    434.3912 307.6687013  +6.5110586     680.5022     970.7148     825.0685     76.64489     154.0273     307.9627      1.550     3.68     829.3851     54.32666     122.7349         6     0.992     0.471 -58.45   0
       424    721.5591    432.5371 307.6282186  +6.5150919     17600.79     22691.18     23345.37     77.25855     154.0886     308.2998      1.359     2.87     829.2779     54.32666     2779.845        34     1.249     0.930 -55.82   0
       425    642.6973    428.6730 307.6611027  +6.5140475     3081.216     4165.067     4670.381     76.89094     154.2724     308.2079      1.413     3.08     829.1235     54.32666     450.0469        18     1.144     0.862 -55.09   0
       426   1012.0468    428.6032 307.5076977  +6.5264207     497.3145     617.1108     599.9556     76.64489     153.9047     307.8707      1.369     3.46     826.1125     54.32666     99.14459         5     0.797     0.435 -19.58   0
       427    617.9151    425.5440 307.6715008  +6.5145094     6310.733     8305.774       9303.4     77.25854     154.1499     308.3305      1.446     3.29      828.991     54.32666     881.4382        23     1.282     0.866 -56.11   3
       428    614.0286    423.0509 307.6731989  +6.5154085     16748.07     22196.63     23114.63     76.89094     154.2724      308.116      1.390     3.06     828.8424     54.32666     2709.617        33     1.286     0.931 -61.65   3
       429    715.6470    427.1191 307.6308561  +6.5171309     689.6699     1058.755      1733.99     77.25854     154.1499     308.2386      1.325     1.99     829.0094     54.32666     136.8546         5     0.696     0.440 -69.67   0
       430    946.8128    422.3712 307.5350016  +6.5268167     4293.089     5651.219     6149.135     76.76801     153.9047      308.116      1.374     2.99     827.0541     54.32666     666.0988        21     1.217     0.811 -59.77   0
       431    385.9777    418.3983 307.7680720  +6.5096820     33002.87     44852.66     46223.02     76.89094     153.8433      307.932      1.431     3.00     828.6351     54.32666      5085.44        49     1.339     1.049 -59.31   0
       432    423.1123    419.6697 307.7526062  +6.5104036     679.5363     810.7329     379.6633      77.3807     154.3948     308.2079      1.521     4.20     828.5679     54.32666      128.402         6     1.053     0.478 -64.37   0
       433    902.4402    418.1707 307.5535727  +6.5270694     1826.708     2519.826     2489.198     76.89094     153.9047     308.0853      1.398     3.31     827.8157     54.32666     279.5785        16     1.234     0.725 -60.41   0
       434    131.9630    417.8682 307.8735861  +6.5013622     2738.927     3550.034     3445.291     77.13621     154.1499     308.3305      1.377     3.35     833.2491     54.32666     428.5549        16     1.168     0.762 -58.31   0
       435    898.5459    414.2770 307.5553208  +6.5285468     683.0197     1278.921     1238.994      77.3807     154.1499     308.2079      1.814     5.17     827.7711     54.32666     99.64972         8     1.522     0.497 -89.02   0
       436    915.6561    412.8639 307.5482614  +6.5297016     5946.665     7734.264      8025.27      77.3807     154.0886     308.2079      1.363     2.90     827.3877     54.32666     906.0497        22     1.152     0.878 -58.79   0
       437    597.4008    413.8631 307.6804140  +6.5186447        575.6     494.9687     328.7682     76.52157      153.966     307.9627      1.158     3.40     828.2726     54.32666     85.73468         5     0.778     0.430 -68.68   0
       438     65.3916    413.4019 307.9013845  +6.5009647     1708.056     2639.683     3250.455     76.64489     153.8433     307.9933      1.738     3.64     833.7108     54.32666       236.14        16     1.244     0.802 -52.86   0
       439    971.7919    410.5661 307.5250222  +6.5325243      790.525     1107.643     368.2556     76.76801      153.966      308.024      1.588     5.01     826.2245     54.32666     141.5629        10     1.326     0.850 -83.68   0
       440    243.4975    408.9162 307.8275669  +6.5088098     15809.23     21348.07     22328.94     77.25854     154.5171     308.2692      1.430     3.04     830.2579     54.32666     2330.955        35     1.331     0.959 -57.28   0
       441    822.2342    404.7570 307.5873365  +6.5299276     337.2279     352.7275     159.3818     77.01367     154.1499      308.024      1.254     3.80     828.3357     54.32666     75.12262         5     0.969     0.428 -45.17   0
       442    966.7872    401.2602 307.5274128  +6.5361992     1134.255      1469.58     1495.061     76.64489     154.0273     307.9013      1.309     4.31     826.0946     54.32666     171.9668        12     1.088     0.798 -66.08   0
       443    738.4577    402.6032 307.6222055  +6.5280154      1022.77     1114.949     1807.666     76.64489     154.0273     307.9627      1.310     3.96     828.2184     54.32666       140.09        11     1.087     0.686 -65.75   0
       444     79.0582    402.7855 307.8960677  +6.5058077     953.1697     1348.399     1863.955     76.64489     154.0273      307.932      1.421     4.13     833.4774     54.32666     133.2257        10     1.059     0.653 -64.26   0
       445   1015.8013    402.0331 307.5070284  +6.5375156     675.7898     905.4888      454.382     76.52157      153.966     307.9627      1.264     3.08      825.141     54.32666     137.0904         8     0.964     0.569 -23.15   0
       446    706.5225    401.7463 307.6354985  +6.5273007     822.1629     905.2789     1074.831      77.3807     154.1499     308.2386      1.140     3.97     827.9879     54.32666     129.9918         7     0.963     0.475 -79.29   0
       447    356.3522    398.8539 307.7810352  +6.5167560     1475.787     1984.939     1862.583     77.25854     154.1499     308.2386      1.470     3.36     827.8029     54.32666     215.4763        16     1.163     0.854 -60.53   0
       448    383.2677    398.7451 307.7698600  +6.5177047      601.196     606.5634     534.9558     77.25855     154.0886     308.1466      1.133     3.82     827.6532     54.32666      123.009         6     0.794     0.527 -45.32   0
       449    189.1735    398.6077 307.8504767  +6.5112386     1060.693     1424.344     1229.488     76.89094      153.966     308.0547      1.421     4.53     831.5975     54.32666     143.1862        12     1.041     0.865 -73.41   0
       450    143.7332    397.5119 307.8693858  +6.5101621     6106.451     8143.498     8040.713      77.3807     154.3336     308.2079      1.411     3.08     832.6355     54.32666     857.8195        24     1.233     0.893 -63.06   0
       451    637.0894    396.3308 307.6645194  +6.5272122     556.9249     726.5352     1233.816      77.3807     154.3948     308.2079      1.484     4.50      827.395     54.32666     98.23657         6     1.130     0.663 -60.06   0
       452    248.5001    396.3823 307.8259123  +6.5141524       1671.6     2288.544     2342.694     77.25855     154.0273     307.9933      1.415     3.66     829.6675     54.32666     238.1207        14     1.158     0.779 -54.41   0
       453    441.1462    395.9344 307.7459159  +6.5208077     774.2352     1075.888     1274.374     77.25854     154.0886     308.1773      1.551     4.05     827.4229     54.32666     117.7991         7     0.916     0.513 -42.49   0
       454    165.8421    393.2237 307.8603484  +6.5126764     2685.365     4139.149     4071.771     76.89094     154.0273     307.9933      1.561     3.44     832.1216     54.32666     377.6871        22     1.385     0.869 -67.30   0
       455    829.6254    394.1490 307.5846226  +6.5345542     671.8903     759.7312     837.6079     76.89094     154.1499      308.116      1.281     3.39     828.0437     54.32666     112.9692         5     0.770     0.433 -70.09   0
       456    561.4602    392.2998 307.6960672  +6.5263428     1061.775     1631.619     2162.122     77.01367     154.1499     308.3305      1.654     3.75     826.8784     54.32666     162.3807        10     1.089     0.647 -64.35   0
       457    977.4821    387.8743 307.5234192  +6.5420826     916.2159     1451.106     1245.177     77.50265      154.456     308.2692      1.924     6.32     825.5944     54.32666     141.3063        14     1.701     0.660 -60.12   0
       458    389.2924    387.9700 307.7677210  +6.5223553     2416.079     3264.157     3134.385      77.3807     153.9047      308.116      1.346     3.32     827.0378     54.32666     353.1191        17     1.234     0.776 -58.80   0
       459    276.8649    388.7542 307.8143892  +6.5182551     977.6647     1252.446     1404.411     77.25854     154.0886     308.2079      1.529     3.16     828.6559     54.32666      192.715        13     1.120     0.768 -45.64   0
       460      7.8548    388.6680 307.9261165  +6.5092370     779.0947      996.652     834.0538     77.25854     154.0886     306.0862      1.497     3.72     834.0516     54.32666     126.9801         6     1.144     0.347 -48.44  16
       461    323.3073    385.9013 307.7951966  +6.5209934     701.3677     1018.264     1362.107     77.25854     154.7003     308.1466      1.932     5.08     827.6277     54.32666     105.7341        10     1.425     0.513 -46.21   0
       462    443.0872    381.7779 307.7455867  +6.5267172     8211.361     10949.79     11765.57     77.25854      153.966     308.0547      1.412     2.98     826.5706     54.32666      1352.81        28     1.250     0.930 -61.47   0
       463     39.5313    382.4596 307.9131710  +6.5128674     3736.767     5480.677      5862.86      77.3807     154.0886     308.2079      1.636     3.63     833.6544     54.32666     587.4749        29     1.616     0.922 -55.47   0
       464    775.5840    380.8213 307.6075165  +6.5382498     2258.298     3006.828     3362.473     76.89094     153.8433     308.0853      1.416     3.14     827.7194     54.32666     370.4337        17     1.222     0.750 -62.02   0
       465    783.7698    379.1490 307.6041726  +6.5392140     15177.28     19638.57        20423     77.01367     154.2724      308.116      1.334     2.96     827.6797     54.32666     2348.012        34     1.275     0.898 -59.53   0
       466    203.8867    379.9765 307.8449952  +6.5194251     486.6098     762.2839     531.5838     77.25854      153.966     308.0547      1.501     5.61     830.5091     54.32666     113.2026         7     1.653     0.537 -81.11   0
       467    347.0696    377.3680 307.7856151  +6.5253145     1159.074     1837.697     1848.883     77.13621     154.1499     308.2079      1.503     3.85     826.7024     54.32666     196.7069        11     1.151     0.612 -69.32   0
       468    298.2382    377.8565 307.8058799  +6.5234723     604.8492     623.9941     169.2359     77.25854     154.2112     308.2079      1.186     3.69     827.8915     54.32666     122.7396         6     0.944     0.415 -52.41   0
       469    958.3735    370.7930 307.5319288  +6.5484969     715.9766     975.4316     1213.558     76.76801     154.0273      308.024      1.206     2.97     825.5985     54.32666     140.7781         5     0.754     0.424 -67.99   0
       470    192.1411    370.1753 307.8502045  +6.5230763     947.8477     1250.654     1300.214     76.89094     154.1499     308.0547      1.382     3.45      830.582     54.32666     177.9733        10     1.040     0.648 -47.69   0
       471    908.9938    369.3041 307.5524895  +6.5474630     572.1111      908.833     501.2784     77.01367     153.8433      308.024      1.825     3.98      826.537     54.32666     85.36389         5     0.821     0.552 -89.33   0
       472    463.4838    366.0589 307.7376447  +6.5338910     2574.095     3497.957      3427.72     77.25854     154.1499     308.2692      1.395     3.03     825.3994     54.32666     398.3848        16     1.269     0.701 -62.81   0
       473    491.2399    365.3282 307.7261409  +6.5351237     3499.085     4560.698     4741.459     77.13621     154.1499     308.2692      1.340     2.87     825.2074     54.32666     608.4875        19     1.154     0.820 -60.16   0
       474    920.0911    364.9819 307.5480250  +6.5496180     802.9841     778.7974      451.442     77.01367     153.9047     308.0853      1.310     3.96     826.2422     54.32666     145.9581         9     0.980     0.650 -79.51   0
       475    849.1116    362.0323 307.5776066  +6.5484648     38044.77     51860.79     53922.23      77.3807      153.966     308.2079      1.425     3.24     827.2072     54.32666       6090.5        50     1.419     0.981 -68.15   0
       476    341.3297    357.4848 307.7886697  +6.5333303     968.0617     1240.592     1129.645      77.3807     154.3948     308.2386      1.419     3.64     825.8424     54.32666     146.8526         9     0.976     0.659 -58.68   0
       477     66.8249    358.2412 307.9026546  +6.5237849     867.8571     1100.938     858.1313     76.89094     154.0273     307.9933      1.415     3.44     833.0464     54.32666     127.9019         9     0.960     0.664 -28.73   0
       478    620.9232    354.4507 307.6726425  +6.5439608     3158.052     3974.676     4296.125     77.13621     154.2112     308.2079      1.369     3.17     825.0389     54.32666     462.8973        20     1.162     0.850 -63.55   0
       479     29.0800    354.7878 307.9184477  +6.5239389      1149.16     1462.747     1239.706     76.89094     153.8433     308.0547      1.285     3.71       833.64     54.32666     211.0138        11     1.208     0.583 -69.49   0
       480    705.5518    348.0363 307.6377067  +6.5494423     93144.08     121552.7     125431.5     77.13621     154.0886      308.116      1.363     2.91      825.861     54.32666     13899.17        72     1.356     1.034 -59.08   0
       481    863.6999    349.2924 307.5719746  +6.5542120     1286.439     1727.919     1565.648     77.25855     154.6393     308.1773      1.444     3.67     826.7854     54.32666     207.6261        12     1.199     0.652 -63.70   0
       482     84.7842    347.6326 307.8955545  +6.5287692     1608.256     2089.724     2319.446     76.89094     153.9047     308.0853      1.436     3.18     832.5469     54.32666     256.8008        15     1.085     0.842 -51.45   0
       483    947.0089    345.0168 307.5375135  +6.5587594      961.143     1081.186     947.3445     77.01367     153.9047     308.0547      1.348     3.91      825.107     54.32666     173.3052        10     1.137     0.688 -60.08   0
       484    568.0510    344.5640 307.6949361  +6.5462711     3229.358     4220.557     4281.953     77.13621     154.1499      308.116      1.442     3.57     824.5421     54.32666     521.8282        22     1.265     0.854 -55.58   0
       485    395.0219    345.5233 307.7667722  +6.5400714     613.4996     774.4544     1019.339     76.89094      153.966     308.1466      1.461     3.58     824.9455     54.32666     134.1375         6     1.105     0.335 -50.98   0
       486    105.2871    343.5173 307.8871782  +6.5311586     7027.799     9686.083     10066.64     77.01367     154.3336     308.2692      1.496     3.20     832.0748     54.32666      1116.09        30     1.322     0.964 -52.74   0
       487    766.5071    343.0074 307.6125567  +6.5535577     669.2007     957.8953     1303.858     76.89094     153.8433      308.024      1.505     4.81     826.4977     54.32666      93.4444         8     0.957     0.687  14.26   0
       488    551.2429    340.9477 307.7020392  +6.5472008     8431.861     11097.35     11008.73     77.25854     154.1499     308.2386      1.370     2.81     824.3017     54.32666      1431.91        25     1.263     0.862 -58.79   0
       489    414.2038    336.0911 307.7591229  +6.5446093     29612.04     40338.76     42476.24     76.89094     153.8433     307.9933      1.422     3.00     824.4566     54.32666      4676.89        50     1.384     1.047 -62.00   0
       490    280.3544    338.5248 307.8146350  +6.5391089     2942.191     3919.948     3683.487     77.13621     154.2112     308.2386      1.445     2.93     827.2623     54.32666     506.0594        16     1.091     0.846 -59.41   0
       491    592.7541    335.5279 307.6849794  +6.5508294     766.7568     1090.666     835.5032     77.13621     154.2112     308.2079      1.330     5.06     824.1924     54.32666     117.6104         8     1.206     0.600 -28.64   0
       492    680.9281    334.4245 307.6483920  +6.5542378     638.7014     805.4547      905.075     76.89094     154.0273     308.1466      1.649     4.11     824.5657     54.32666     110.8688         7     1.161     0.415 -57.88   0
       493    521.8385    334.8029 307.7144595  +6.5487519     1619.734     2119.547     1922.011     76.39804     153.9047     307.9627      1.393     3.43     823.7732     54.32666      219.416        14     1.037     0.911 -56.06   0
       494    394.0867    334.0447 307.7675476  +6.5447788     1420.923      1933.45     2458.539     77.25854     154.0273     308.2079      1.426     3.37     824.5425     54.32666     239.8186        12     1.045     0.764 -64.09   0
       495    493.5535    331.5750 307.7263166  +6.5491360     1320.195     1789.584       2161.4     76.89095     154.2112     308.0853      1.444     3.82     823.4086     54.32666     219.5993        10     1.068     0.664 -58.10   0
       496    809.1666    328.7056 307.5953173  +6.5608887     1037.942     1467.412     1577.539      77.3807     154.0273     308.2998      1.491     2.62     825.9451     54.32666     193.0645         8     0.842     0.638   2.99   0
       497    645.0197    328.4718 307.6635074  +6.5554931     785.8535     919.2773     863.4109     76.89094     154.0273     308.1466      1.371     4.12      824.031     54.32666     131.0922         8     1.158     0.458 -61.25   0
       498    503.2493    326.5540 307.7224585  +6.5515341     10108.26     13165.93     14054.21     77.25855     154.0273     308.2386      1.379     2.90     823.2449     54.32666      1663.38        28     1.228     0.918 -61.81   0
       499    390.9376    328.6939 307.7690360  +6.5468821     988.5818     1490.247     1635.168     77.25854     154.1499     308.2692      1.537     3.97     824.4057     54.32666      128.735        10     1.096     0.676 -54.35   0
       500    772.4640    325.2550 307.6106786  +6.5610860     3732.044     5101.036     5414.735      77.3807     154.0886     308.2079      1.365     2.80     825.6243     54.32666     655.5839        23     1.224     0.905 -54.12   0
       501    927.7689    325.0261 307.5461757  +6.5663703     1188.223     1306.003     1017.011     76.76801     153.9047     308.0547      1.259     3.88     824.8329     54.32666      187.641         8     0.850     0.608 -51.74   0
       502    719.9568    324.3633 307.6325187  +6.5596977     945.6276      1385.87     1222.301     77.01367     154.0886     308.0547      1.580     5.02     825.0072     54.32666     176.7734         9     1.202     0.661  62.45   0
       503    329.6735    323.2069 307.7946673  +6.5470899     1240.696     1395.427     1491.893     76.89094     153.7204      308.116      1.293     3.39     825.3555     54.32666     177.4214        12     1.027     0.750 -43.21   0
       504    265.5343    317.3792 307.8215042  +6.5473404     733.9243     1160.361     1222.656     76.89095     154.1499      308.116      1.569     3.66      826.708     54.32666      122.916         6     0.908     0.423 -70.82   0
       505    165.3544    317.2003 307.8631195  +6.5440449     1095.317     1626.383     1840.184     76.52157     153.9047     307.7786      1.450     3.77     830.2247     54.32666     175.0184        11     1.152     0.667 -61.33   0
       506    612.0220    315.8493 307.6776382  +6.5595991     515.5983     519.8931     601.4028     76.89094     154.2112      308.116      1.198     3.90      823.454     54.32666     84.03796         6     0.919     0.475 -37.25   0
       507    393.1603    310.6150 307.7687222  +6.5544204     8487.505     11296.64     11632.28     76.89094      153.966     307.9933      1.408     2.99     823.7828     54.32666      1423.54        30     1.314     0.924 -56.30   0
       508    249.0072    311.2179 307.8285767  +6.5493283     2450.043     3244.666     2856.144     76.89094     153.9047     308.0547      1.398     3.13     826.8226     54.32666     391.1376        15     1.153     0.751 -57.12   0
       509    746.7111    310.3817 307.6218754  +6.5663651     1043.714     1321.956     1516.406     77.01367     153.9047      308.116      1.192     3.28     824.7092     54.32666     173.1357         9     1.094     0.526 -51.19   0
       510    682.1351    311.2351 307.6486702  +6.5638519     540.4162     640.8068     833.7968     77.13621     154.1499     308.2386      1.193     2.89     823.5576     54.32666     117.5286         5     0.910     0.341 -46.29   0
       511    761.0417    306.5785 307.6160505  +6.5684146     63418.63     82113.16     84443.12     76.89094      153.966      308.024      1.384     3.10     824.6559     54.32666     10413.55        57     1.323     1.000 -61.03   0
       512    432.5941    306.1333 307.7524940  +6.5575943     2619.049     3653.468     3313.205     76.76801     153.9047      308.024      1.407     3.30     822.8801     54.32666     428.7736        18     1.271     0.747 -62.35   0
       513    995.8555    303.7102 307.5186079  +6.5774432     1892.701     2621.605     2856.933     77.13621     154.0273     308.3305      1.456     3.98     821.7781     54.32666     279.4351        15     1.253     0.717 -63.60   0
       514    936.9225    302.8739 307.5431162  +6.5758215     2751.301     3284.174     3212.472     77.50266     154.3948     308.2386      1.338     3.33     823.7593     54.32666     376.9495        17     1.156     0.810 -54.67   0
       515    578.8430    303.5049 307.6918352  +6.5635838     1484.201     1887.468     1458.266     77.25855     154.0886     308.3305      1.359     3.12      822.647     54.32666     236.8685        13     1.120     0.734 -42.54   0
       516    469.6678    302.1291 307.7372297  +6.5604914     1285.747     1790.983     2267.334     77.25854     154.2724     308.1773      1.460     4.09     822.1848     54.32666     197.7936        11     1.193     0.622 -55.99   0
       517    419.2467    301.6316 307.7581898  +6.5590048     2342.671     3245.093     3186.597     76.89094     154.1499      308.116      1.472     3.27     822.9014     54.32666     327.9133        15     1.130     0.783 -46.77   0
       518    299.0445    301.0597 307.8081364  +6.5552040     751.5465     858.4304     465.8552     77.13621     154.0886     308.2998      1.250     3.26      825.446     54.32666     115.8339         7     0.867     0.533 -49.89   0
       519    840.6163    296.1644 307.5833460  +6.5753746     1378.075     1818.266      1862.62     76.89094     153.9047     307.9933      1.384     3.49     824.4514     54.32666     217.4777        11     1.062     0.755  89.77   0
       520    469.5463    296.8753 307.7374572  +6.5626562     791.6927     1059.772     1476.875     77.25854     154.1499     308.2386      1.400     2.79     821.9703     54.32666      130.194         6     0.770     0.497 -87.85   0
       521    972.7274    294.0724 307.5285382  +6.5806504     557.9363     573.5226     305.7054     77.50266     154.2724     308.2386      1.214     3.93     822.0946     54.32666     92.83789         5     0.864     0.511 -32.73   0
       522    195.7211    292.9812 307.8513250  +6.5550650     2720.346     3746.402     3978.649     76.76801     153.8433     308.1466      1.410     3.25     828.1184     54.32666     403.6328        18     1.207     0.792 -56.06   0
       523    759.4791    291.1547 307.6172177  +6.5747301     7068.558     9191.986     9366.247     77.25855     154.1499     308.2079      1.323     2.79     823.8249     54.32666     1138.705        23     1.214     0.856 -65.52   0
       524    449.9370    292.8572 307.7457377  +6.5636572     1286.451     1784.912     2372.362      77.3807     154.0886     308.2386      1.636     3.80     822.0752     54.32666     204.3007        10     1.056     0.647 -47.23   0
       525    231.4150    291.4230 307.8365520  +6.5569088      893.986     1208.093     977.9485     77.01367      153.966      308.116      1.431     3.30     826.4438     54.32666     134.7819         9     0.949     0.655 -59.24   0
       526    775.7958    289.1596 307.6105069  +6.5760994     3119.378      4101.38     4285.343     76.52157     153.9047      307.932      1.347     3.24     823.8916     54.32666     504.2806        17     1.276     0.718 -59.20   0
       527    350.0264    290.4062 307.7873199  +6.5613149     803.1074     1052.336     1104.647     76.76801      153.966      308.024      1.578     3.93     824.2665     54.32666     138.2209         9     1.036     0.616 -53.57   0
       528     91.7896    290.0593 307.8945916  +6.5527731     1140.411     1724.302      1915.99     76.64489     154.0273      307.932      1.518     3.58     830.8377     54.32666     168.1671        11     1.008     0.765 -79.27   0
       529    478.0764    288.2663 307.7342041  +6.5664966     748.2427     783.1899      869.897      77.3807     154.2112     308.1773      1.076     2.76     821.4949     54.32666     151.6647         6     0.866     0.469 -41.56   0
       530    365.4207    283.8319 307.7811473  +6.5645461     2006.091     3635.319     3953.623     76.76801      153.966     308.0547      1.931     5.51     823.7271     54.32666     260.2475        21     1.550     0.942  -0.56   0
       531     79.0235    284.4458 307.9000838  +6.5546605     1547.759     2061.857     1852.111     76.89094     154.1499     308.0853      1.398     3.13     830.9628     54.32666     245.9634        13     1.083     0.757 -43.18   0
       532    653.7841    281.4450 307.6614483  +6.5752014     522.5604     610.3635     1054.379     76.76801     154.0273     307.9933      1.225     4.19     822.2003     54.32666     106.1082         6     1.076     0.465 -59.26   0
       533   1014.1111    279.9916 307.5118194  +6.5878446     6596.527     8881.649     9818.341     76.76801     153.8433     307.9627      1.414     3.17     820.0365     54.32666     1040.018        26     1.274     0.889 -67.36   0
       534    492.1614    279.9089 307.7286350  +6.5704193     2400.059     3341.015     3134.312      77.3807     154.0886     308.2386      1.463     3.15     821.2764     54.32666     349.7287        17     1.153     0.823 -60.26   0
       535    262.9811    276.7565 307.8239359  +6.5640250     496.9507     554.1793     1471.408     76.76801     154.0273     307.9933      1.182     3.94     825.6964     54.32666     90.54657         6     0.932     0.477 -36.80   0
       536    254.7153    275.4889 307.8274120  +6.5642704     6800.355     9163.736     9837.166     77.01367     154.3948     308.2998      1.442     3.12     825.8613     54.32666      1007.75        26     1.253     0.925 -62.50   0
       537    922.8839    274.2594 307.5499074  +6.5871663     770.5274     1071.944       1172.2      77.3807     154.2112     308.2692      1.403     4.86     822.9491     54.32666     112.9156         8     1.146     0.583 -43.87   0
       538    902.5486    273.0217 307.5583962  +6.5869982     365.9664     452.3015     483.3333     76.76801     154.2112     308.0853      1.812     4.79     823.0873     54.32666     79.55872         5     1.367     0.475 -83.39   0
       539    819.2735    273.6865 307.5929662  +6.5839412     697.1745     811.8635     544.5087      77.3807      154.456     308.2079      1.215     3.63     823.4758     54.32666     121.9026         7     1.060     0.427 -60.14   0
       540    773.8973    268.7581 307.6119808  +6.5844587     938.9661     1393.852     1623.648     77.25854     154.0273     308.4224      1.463     3.90     823.0897     54.32666     161.1447        11     1.197     0.720 -65.54   0
       541    231.4752    268.1499 307.8373129  +6.5665188     757.3029     970.5043     1221.946     77.25854     154.2112     308.2079      1.492     4.03     826.3644     54.32666     137.4781         6     0.893     0.521 -53.12   0
       542    388.9038    266.1950 307.7719878  +6.5726158     1974.035     2944.878     2892.866     77.01367     153.8433     307.9627      1.567     3.57     822.6953     54.32666     310.1257        16     1.182     0.870  89.65   0
       543    975.8594    265.0601 307.5282097  +6.5927327     1347.065     1596.008     1523.752     77.25854     154.1499     308.2386      1.287     3.36     820.9025     54.32666     202.7378        11     1.008     0.718 -71.12   0
       544    310.7542    262.5886 307.8045707  +6.5714797     1273.427       1725.3     1606.985     76.76801      153.966      307.932      1.419     5.27     824.5417     54.32666     215.2163        13     1.387     0.620 -43.55   0
       545    195.2780    263.4199 307.8525076  +6.5672539     580.8225     773.5804     886.1735     76.89094     153.9047     308.1773      1.235     3.28     827.5793     54.32666     110.8857         6     0.857     0.506 -46.45   0
       546    158.5518    261.9136 307.8678131  +6.5666400     2130.689     2810.574     2576.747     77.25854     154.0886     308.2386      1.439     3.05     828.8214     54.32666     315.5071        17     1.179     0.817 -59.14   0
       547    568.3443    257.7819 307.6977350  +6.5821084      2543.68     3421.944     3419.355     76.76801     154.0886     307.9627      1.415     3.19     821.0484     54.32666     401.8896        15     1.105     0.864 -48.97   0
       548    911.8447    257.0145 307.5550716  +6.5939172     2092.767     2964.383     3062.403     76.64489      153.966     307.9933      1.476     4.30     822.3148     54.32666     345.4408        15     1.128     1.010  65.94   0
       549    850.2251    257.3234 307.5806582  +6.5917312     477.5388     693.5804     524.4377     76.89094     154.0886     308.1773      1.445     3.73     822.7235     54.32666     77.96411         5     0.979     0.409 -84.69   0
       550    731.8397    255.3208 307.6299028  +6.5885994     5874.511     7664.625     7810.534     77.13621     154.2112     308.1773      1.352     3.17     822.3574     54.32666     909.7955        24     1.229     0.936 -72.67   0
       551    969.8379    255.1944 307.5310418  +6.5966049     838.3769     1158.022     1099.259     76.39804     153.9047     307.9627      1.429     4.39     820.7468     54.32666     168.1921        10     1.246     0.579 -70.87   0
       552    672.8209    255.1305 307.6544254  +6.5867027     2521.076     3382.517     3104.452     76.89094     154.0273      308.116      1.353     3.22     821.6781     54.32666     395.6398        16     1.245     0.692 -54.91   0
       553    387.4434    249.5309 307.7731563  +6.5794463     777.1877     1086.035     959.4602     77.25855     154.0886     308.2692      1.424     4.29     822.4088     54.32666     126.4457         9     1.065     0.723 -69.80   0
       554    927.8146    247.3562 307.5487615  +6.5984380      1160.29     1431.565      1312.24     76.64489      153.966     307.9627      1.400     3.39     821.7475     54.32666     165.7527        11     1.023     0.705 -42.99   0
       555    231.3116    240.5338 307.8383134  +6.5779141      2760.25     3758.995     3877.739     77.25855     154.3336     308.1773      1.483     3.06     826.3572     54.32666     430.7684        17     1.124     0.876 -50.08   0
       556    874.1575    239.5541 307.5713129  +6.5998669     1973.067     2544.737     2185.079     77.25854     154.1499     308.1466      1.403     3.38     821.8964     54.32666     322.8979        16     1.281     0.752 -59.88   0
       557    764.4771    238.9579 307.6168950  +6.5964466     1834.704     2411.709     2632.213     77.13621     154.1499     308.2386      1.402     3.14     821.9127     54.32666     291.5077        13     1.103     0.718 -62.58   0
       558    252.8223    234.1908 307.8295926  +6.5812560     703.5434      962.293     837.0738     76.89094     153.9047     308.0547      1.438     4.31     825.8527     54.32666     114.4462         7     1.199     0.442 -57.31   0
       559    465.3393    230.3983 307.7414444  +6.5899595     26432.24     35932.74     37115.48     76.64489      153.966      307.932      1.431     2.91     820.4833     54.32666     4153.131        43     1.337     1.017 -60.12   0
       560    326.4144    231.8976 307.7991014  +6.5846762     730.8255     985.1985     832.5648     77.13621     153.9047     307.9933      1.552     4.69     823.5979     54.32666     101.7327         8     1.077     0.580 -66.45   0
       561    791.3631    229.5657 307.6060418  +6.6012233     15613.73     20509.87     21645.15     77.01367     153.9047     307.9933      1.401     3.06     821.5419     54.32666     2727.397        37     1.379     1.011 -48.09   0
       562    730.0171    225.2396 307.6316708  +6.6009573     938.7524     1410.259     1006.439     76.89094     154.0273     307.9933      1.494     6.57     821.4069     54.32666     132.0028        13     1.461     0.829 -88.63   0
       563    471.0907    224.8684 307.7392416  +6.5924354     1763.875     2368.359     2869.728      77.3807     154.2724     308.2079      1.490     3.19     820.2436     54.32666     258.0508        13     1.046     0.719 -54.71   0
       564    153.4701    223.7698 307.8712130  +6.5822159     2728.949     3695.966     3743.589     77.13621     154.1499     308.1773      1.462     3.36     827.6313     54.32666     385.3261        19     1.382     0.763 -69.15   0
       565    128.2047    222.6112 307.8817467  +6.5818437     1217.808     1587.799     1950.336     76.89094     153.9047      308.116      1.379     2.94     828.5642     54.32666     207.6473        11     0.970     0.735 -60.84   0
       566    784.4211    221.5458 307.6091950  +6.6043021     726.3232      1180.24      1568.06     76.76801     154.1499      308.024      1.769     6.02     821.1951     54.32666     106.0589         9     1.365     0.747 -25.54   0
       567    180.2918    222.0462 307.8601302  +6.5838300     844.1949     847.6485      729.918     77.25854     154.0886     308.3305      1.308     2.52      827.058     54.32666     164.1697         7     0.815     0.708 -31.87   0
       568    927.8433    219.9371 307.5496691  +6.6097589     1825.025     2240.894     2272.521     77.25854     154.0886     308.2692      1.311     3.69     820.5726     54.32666      267.614        11     1.056     0.687 -69.06   0
       569    625.6351    218.3221 307.6752644  +6.6003187     489.2787     737.2006     1094.471     77.13621     154.2112     308.2386      1.162     4.50     820.2079     54.32666     89.07568         5     1.308     0.441 -46.37   0
       570    589.3962    216.1507 307.6903912  +6.6000011     5411.613       7207.8     7449.746     76.64489      153.966     307.8093      1.375     2.97     819.9326     54.32666     855.5737        24     1.256     0.889 -58.43   0
       571    552.1154    216.2669 307.7058738  +6.5987036     2402.619     3320.465     2972.279      77.3807     154.3948     308.2386      1.401     3.29     819.9117     54.32666     377.3585        17     1.244     0.782 -66.38   0
       572    309.6631    217.1089 307.8065586  +6.5902186     1291.064     1720.776     1727.606     77.25854     154.2724     308.2998      1.390     3.78     824.1278     54.32666     196.5077        12     1.160     0.711 -63.82   0
       573    393.8269    215.3097 307.7716586  +6.5937885     1822.414     2573.325      2664.03      77.3807     153.9047     308.0853      1.500     3.34     821.6354     54.32666     262.7846        16     1.211     0.796 -55.52   0
       574    896.4194    212.7989 307.5629627  +6.6116565     13088.93     17082.87     17401.68     76.89094     153.7204      307.932      1.360     2.90     820.4617     54.32666     2201.961        32     1.245     0.911 -63.60   0
       575    694.5085    210.7743 307.6469076  +6.6057409     3229.496     4388.446      4866.74      77.3807     153.9047     308.0547      1.482     3.08     820.5566     54.32666     562.1576        21     1.496     0.900 -88.95   0
       576    950.3831    213.3298 307.5405273  +6.6132393     2973.486     3891.393     3708.198     76.76801     154.0273     308.0853      1.347     3.09     819.7076     54.32666     505.3234        17     1.145     0.821 -64.41   0
       577    571.4844    212.8582 307.6979426  +6.6007601     838.7386     1288.098      1210.27     77.25854     154.1499     308.2692      1.515     4.21     819.8118     54.32666     145.4582         9     1.223     0.569 -56.08   0
       578    324.0763    213.4191 307.8006961  +6.5922262     1021.275     1517.497     2005.545     76.76801     153.8433     308.1773      2.022     4.17     823.5369     54.32666     160.2207        11     1.007     0.845 -70.89   0
       579    215.6140    212.8608 307.8457685  +6.5888104     727.9163     1063.766     865.2392     76.76801     154.0273     307.9627      1.538     3.15     826.5848     54.32666     129.1404         5     0.719     0.469  76.02   0
       580    983.0807    210.6486 307.5270338  +6.6154376     11441.96     14722.62     15104.39     77.25854     154.1499     308.2079      1.350     3.09     818.7986     54.32666     1945.115        29     1.218     0.898 -58.49   0
       581     22.5827    209.2690 307.9260701  +6.5837939     29421.61     40391.62     41809.22     76.76801     154.0273      308.116      1.450     2.99     830.9345     54.32666     4246.321        48     1.393     1.033 -59.89   0
       582    268.8022    210.3816 307.8237587  +6.5916225     1286.092     1783.777     1382.469     76.89094     153.7204     307.9627      1.363     3.46     825.4681     54.32666     230.3961         9     1.071     0.543 -62.84   0
       583    503.0364    205.4159 307.7266267  +6.6015377       2227.9     2895.256     2841.416     76.89094      153.966     307.9933      1.360     2.92     819.3766     54.32666     376.2308        16     1.168     0.797 -63.40   0
       584    887.2687    201.3841 307.5671471  +6.6160634      2288.42     2926.598      3035.38     76.76801     154.0886      308.116      1.304     3.00     819.9122     54.32666     409.7876        14     1.147     0.680 -67.80   0
       585    834.9175    202.2377 307.5888663  +6.6139617     2397.287     3172.844      3319.54     77.25854     154.1499     308.1773      1.346     2.70     820.1218     54.32666     412.9112        14     1.039     0.734 -59.10   0
       586    515.0023    201.3732 307.7217922  +6.6036080     3026.851      4122.43     3717.381     76.76801     153.9047      308.024      1.450     3.08     819.2604     54.32666     469.1024        21     1.142     0.937 -64.64   0
       587    746.6020    198.7397 307.6256717  +6.6124526     47010.32     61416.36     63858.08     76.64489     153.8433      307.932      1.376     2.91      820.087     54.32666     7465.091        55     1.332     1.004 -59.99   0
       588    349.6751    197.9926 307.7905830  +6.5994548     6590.363      12405.5      13665.7     76.89094      153.659     308.0853      1.995     6.13     822.4059     54.32666     888.9702        40     2.013     0.964 -73.10   0
       589    980.3952    197.5546 307.5285884  +6.6207539     3070.389      3728.14     3722.121     76.64489     153.8433     307.9013      1.272     2.77     818.3961     54.32666     562.3179        16     1.166     0.727 -64.76   0
       590   1018.7491    196.2374 307.5126992  +6.6225775      1946.97     2558.616     2505.121     77.01367     154.0886      294.705      1.305     3.00     817.4601     54.32666     305.2687        13     1.075     0.707 -65.28  16
       591    914.5227    195.8972 307.5560092  +6.6192390     8817.119      11606.6     11997.43     76.89094     154.3336     308.2692      1.361     2.92     819.5197     54.32666     1363.934        26     1.233     0.878 -59.65   0
       592    457.9737    194.8743 307.7457010  +6.6043781     5662.787     7671.203     7575.716     76.89094     154.0886     308.1773      1.397     3.14     819.6262     54.32666     951.9337        28     1.236     0.985 -62.81   0
       593    232.5357    191.6825 307.8394547  +6.5981226     902.7714     1442.019     1349.579      77.3807     154.2724     308.2386      1.775     3.87     826.2964     54.32666     153.4589        11     1.120     0.790 -33.64   0
       594    115.3465    186.1035 307.8883219  +6.5964822     5628.072     7567.336     8334.275     77.13621     154.1499      308.453      1.410     2.97     827.8859     54.32666     836.7527        25     1.320     0.875 -63.44   0
       595    934.8321    185.4221 307.5479235  +6.6242418     922.4067     1361.363     1294.167     76.76801      153.966      308.024      1.469     3.87     818.8194     54.32666     141.4398         9     1.131     0.617 -48.32   0
       596    612.0110    184.8787 307.6820491  +6.6136692     775.7795     1142.438     1245.131     76.89094     153.8433     308.0853      1.482     5.36      818.901     54.32666     118.2184        11     1.254     0.648 -67.22   0
       597    260.9826    183.9497 307.8278993  +6.6022715     7646.217     10631.66     11342.13     76.76801     154.2112     307.9933      1.444     3.04     825.6494     54.32666     1266.056        30     1.376     0.912 -64.56   0
       598    285.7122    182.8454 307.8176640  +6.6035588     39357.73     53796.15     55853.12     77.25854     154.0273     308.2079      1.429     3.01     825.0739     54.32666     5812.261        54     1.361     1.075 -58.83   0
       599    213.3988    184.3361 307.8476521  +6.6005117     381.8122     517.0205     512.1603     76.64489     153.9047     307.9933      0.945     3.41     826.5351     54.32666     73.19226         5     1.073     0.314 -68.51   0
       600    714.9705    182.2820 307.6393651  +6.6181887     1082.192      1409.94      1656.91     77.13621      153.966     308.1773      1.302     3.65     819.2493     54.32666     193.5069        10     1.185     0.574 -66.90   0
       601    409.8059    178.3416 307.7662674  +6.6095867     57802.19     78469.26     81233.97     76.76801     154.0273      307.932      1.438     3.04     820.6022     54.32666     8902.244        65     1.409     1.067 -61.98   0
       602    165.6724    179.5895 307.8676375  +6.6008655      4603.72     6337.986     6009.657     76.76801     153.7819     308.0547      1.437     2.99     826.7081     54.32666     676.0463        24     1.323     0.861 -68.09   0
       603    427.1472    178.8951 307.7590450  +6.6099403     1791.349     2485.835     2206.643     77.13621     154.0886      308.453      1.428     3.09     820.1121     54.32666     300.3184        15     1.115     0.795 -57.83   0
       604    696.9749    176.5916 307.6470322  +6.6199356     1317.458     1692.557      1711.14     76.89094      153.966     308.0547      1.374     4.23     819.0546     54.32666     201.1077        11     1.201     0.621 -59.36   0
       605    313.7829    176.0470 307.8062330  +6.6073088     21092.96     28969.12     30028.21     76.76801     154.0886     307.9627      1.428     3.03     823.9154     54.32666      3302.51        41     1.338     1.004 -57.91   0
       606    749.0552    174.6236 307.6254629  +6.6224909     38640.11     50673.67     51989.16     76.89094     154.2112      308.024      1.397     3.14     818.8457     54.32666     6528.983        50     1.335     0.980 -58.97   0
       607    547.3862    176.8114 307.7091667  +6.6148339     521.5638     874.4349     1156.881     77.01367     153.9047     308.1466      1.652     3.46     818.4125     54.32666     68.05377         5     0.781     0.442 -71.49   0
       608    321.2812    175.4361 307.8031388  +6.6078130     2346.856     3839.771     4951.328     77.25855     154.2112     308.1773      1.927     5.75     823.6089     54.32666     344.9178        25     1.862     0.863 -74.06   0
       609    797.3450    175.2423 307.6053813  +6.6238506     1311.212       1572.4     1740.443     77.13621     154.1499     308.2386      1.230     3.32     818.8217     54.32666      218.123        12     1.071     0.720 -68.84   0
       610     65.8334    171.7999 307.9093726  +6.6007194     10590.47     14324.21      14907.4     76.27432     153.9047     307.9627      1.402     3.05     829.6307     54.32666     1710.635        34     1.333     0.962 -63.69   0
       611     36.5620    174.7144 307.9214327  +6.5985299      704.954     754.6404     652.5607     77.25855     154.1499     308.2079      1.123     4.00     831.3141     54.32666     109.1176         7     0.977     0.472 -79.60   0
       612    572.8302    172.6741 307.6987362  +6.6173948     597.6329     726.7357     872.6143     77.13621     154.1499     308.2079      1.269     4.50     818.3438     54.32666     81.27618         6     0.946     0.609 -65.20   0
       613   1007.3921    169.0594 307.5183281  +6.6334190     1236.016     1744.764     2051.854     76.64489     154.0273      307.932      1.527     3.42     816.8726     54.32666     211.4653        11     1.069     0.769 -73.97   0
       614     99.7087    169.6162 307.8953752  +6.6027619     1678.995     2195.142     2531.055     77.01367      153.966     308.0853      1.437     3.57     827.6355     54.32666     232.5366        13     1.126     0.731 -57.87   0
       615    975.0500    168.0785 307.5317972  +6.6327447     707.6445     1063.793     1165.908     77.25854     154.2112     308.2079      1.447     4.49      817.378     54.32666     98.10089         8     0.851     0.673 -52.23   0
       616    733.7796    162.6343 307.6322117  +6.6269295     596.1442     743.8914    -124.0604     76.76801      153.966      308.024      1.523     5.13     818.2427     54.32666     113.0381         7     1.214     0.614 -40.27   0
       617   1010.3395    160.4931 307.5173908  +6.6370540     587.9422     756.3625     1242.427     77.13621     154.1499     308.2386      1.158     3.41     816.5061     54.32666     118.4435         5     0.954     0.489 -43.62   0
       618    582.9630    159.2373 307.6949791  +6.6232817     960.1195     1348.591      1491.46     77.01367     154.0273     308.0547      1.447     4.35     817.8862     54.32666       144.24        10     1.122     0.726 -79.51   0
       619   1008.3734    155.2286 307.5183840  +6.6391618     2543.847     3471.979     3334.843     76.76801      153.966     308.0547      1.450     3.05     816.2039     54.32666     374.3766        20     1.260     0.902 -64.89   0
       620    591.5596    152.9325 307.6916200  +6.6261726     1212.023     1679.244     1839.844     77.13621     154.0886     308.2692      1.501     2.93     817.7474     54.32666     208.4815        11     1.069     0.639 -57.69   0
       621    599.7710    150.9964 307.6882740  +6.6272471     2413.228     3195.441     3845.175     76.76801     153.9047     308.0547      1.419     3.25     817.7166     54.32666     366.4052        18     1.224     0.798 -54.88   0
       622    284.6345    149.1134 307.8192504  +6.6174482     35023.81     48115.23     50577.17     77.25854     154.0273     308.2079      1.428     2.98     825.0289     54.32666     5167.615        50     1.361     1.059 -59.44   0
       623    343.9496    150.9751 307.7945475  +6.6186729     1304.179     1677.651     1200.659     76.89094     154.1499      308.116      1.363     4.14      822.639     54.32666     197.3151        10     0.936     0.731 -69.17   0
       624     29.9246    147.5880 307.9251078  +6.6095047     5249.152     6986.323     6775.875     76.89094     153.8433      308.024      1.405     3.13     831.4507     54.32666     856.9109        25     1.254     0.893 -61.08   0
       625    193.7897    147.0335 307.8570579  +6.6152517     1026.582     1311.095     994.9015     76.76801      153.966     308.0547      1.403     3.69     826.2111     54.32666     172.5465        12     1.125     0.816 -43.46   0
       626    716.2899    145.8279 307.6400424  +6.6332827     9566.449     12652.03     13436.84      77.3807     153.9047     308.0853      1.377     2.90      817.775     54.32666     1636.711        29     1.250     0.916 -57.85   0
       627    270.3848    144.0530 307.8253406  +6.6190582     958.6329     1417.026     1733.342     76.64489     154.1499      307.932      1.601     3.11     825.3285     54.32666     157.0288         9     0.969     0.604 -41.13   0
       628    127.0515    142.7513 307.8849256  +6.6147732     5719.749     7750.357     8138.029      77.3807     154.0273     308.1773      1.415     3.14     826.4997     54.32666     909.2189        23     1.241     0.895 -56.50   0
       629    588.8080    141.1456 307.6931598  +6.6309466     787.7886     1104.983      1000.04     76.76801     154.0273      307.932      1.359     4.60     817.3917     54.32666      114.243        11     1.049     0.866 -16.77   0
       630    465.8522    140.0445 307.7442758  +6.6272782     1556.735      2043.16     1927.606     77.25854     154.0886     308.2079      1.432     3.09     817.8651     54.32666     236.1046        15     1.100     0.854 -59.70   0
       631    397.8174    138.9005 307.7725774  +6.6254669     4343.312     6635.972     6951.917     77.25854     154.0273     307.9933      1.632     3.28     820.0345     54.32666       628.07        31     1.488     1.031 -76.06   0
       632    654.7029    139.8943 307.6658272  +6.6336706     791.9758      898.626     955.6427     77.25854     154.7003     308.0853      1.191     3.32     817.6241     54.32666     143.8237         7     0.875     0.532 -56.13   0
       633    574.1462    137.8217 307.6993626  +6.6318274     700.0466     1152.333      974.189     76.76801     154.1499      308.024      1.554     4.62     817.2669     54.32666      120.738         8     1.223     0.495 -61.31   0
       634    362.2148    137.7871 307.7874048  +6.6247309      3699.75       4772.4     4959.388     77.13621     153.8433     308.1466      1.380     3.07     821.9005     54.32666     612.8962        16     1.135     0.763 -57.49   0
       635    116.5431    137.5426 307.8894669  +6.6165696     2059.937     2694.032     2626.027      77.3807     154.2112     308.2386      1.405     3.53     826.5446     54.32666     304.6972        16     1.144     0.845 -53.35   0
       636    945.0235    137.0362 307.5453124  +6.6445582     588.0272     973.2713     766.2408     76.89094     153.9047     307.9933      1.387     3.86     816.5209     54.32666      115.912         5     1.304     0.327 -57.27   0
       637    752.5247    135.8378 307.6253249  +6.6386195     617.4665     740.4506     394.0818     77.13621     154.2112     308.2386      1.535     4.27     817.4205     54.32666      85.5578         6     1.065     0.487 -83.26   0
       638    678.1193    135.4626 307.6562483  +6.6362843     982.0883     1126.777     1319.034      77.3807     154.2112     308.2079      1.386     4.84     817.5115     54.32666     146.4965        10     1.088     0.611 -65.64   0
       639   1008.9838    131.8720 307.5189133  +6.6488249     1672.177     2358.875     2314.241     76.76801     154.0886      308.116      1.468     3.65     814.6421     54.32666     274.6085        15     1.287     0.683 -55.74   0
       640    734.8929    131.4845 307.6327961  +6.6398268      742.621     1109.925     1290.173     77.01367     154.5782     308.2998      1.743     5.04     817.2829     54.32666     98.30536         8     1.115     0.665 -49.71   0
       641    675.8079    125.5377 307.6575423  +6.6403043     7392.012     9802.755     10467.04     76.64489      153.966      308.024      1.432     3.15     817.1887     54.32666     1059.722        31     1.345     0.935 -57.76   0
       642    213.9845    126.6663 307.8493570  +6.6243392     6406.066     8474.961     8497.567     76.76801     154.0273      308.116      1.403     3.18     826.0424     54.32666     955.8403        25     1.246     0.902 -59.72   0
       643     96.7029    126.4629 307.8980832  +6.6204755     2446.771     3357.105     3531.711     77.13621     154.2724     308.2692      1.499     3.08     826.6321     54.32666     348.5407        18     1.104     0.944 -68.75   0
       644    852.4244    126.1157 307.5841488  +6.6459735     508.3491      619.441     1210.616     77.13621     153.9047     308.1466      1.136     3.79     816.6696     54.32666     118.3738         6     0.837     0.492 -86.27   0
       645    823.8560    125.3834 307.5960420  +6.6453210     1203.321     1610.434     1580.629     76.76801     154.0886     307.9627      1.425     4.14     816.8956     54.32666     173.2213         9     1.071     0.573 -63.54   0
       646    627.9914    122.7866 307.6774996  +6.6398387     11051.25     15026.21     16197.88     76.89094     153.9047      308.116      1.431     3.23     816.9583     54.32666     1767.723        31     1.327     0.927 -52.75   3
       647    631.5448    114.3217 307.6763082  +6.6434524     62742.36     82516.18     85056.59      77.3807     154.1499     308.2386      1.393     2.89     816.6774     54.32666     10155.06        62     1.365     1.033 -58.24   2
       648    262.5028    123.4249 307.8293114  +6.6273092     918.2332     1168.971     504.9431      77.3807     153.9047      308.116      1.556     5.68     825.3348     54.32666     137.1123        12     1.289     0.705 -66.38   0
       649    566.1205    121.8920 307.7032330  +6.6381349     659.6583     1012.367      1499.26     77.01367     154.3948     308.2692      1.530     4.56     816.8091     54.32666     110.4444         8     1.187     0.497 -46.55   0
       650     26.8205    121.5183 307.9272795  +6.6201622     1143.986      1700.19     1589.395     77.01367     153.8433     308.1466      1.606     5.34     830.3058     54.32666     168.3236        11     1.424     0.564 -56.10   0
       651    355.0969    118.4983 307.7910124  +6.6324549     4182.548     6099.248     6373.759     77.25854     154.6393     308.0547      1.584     4.01     822.4106     54.32666     604.7873        23     1.443     0.840 -58.86   0
       652   1001.1867    117.6991 307.5226277  +6.6544161      936.507     1427.782     1065.804     77.01367     153.9047     307.9627      1.647     4.95     813.9499     54.32666     147.0198        12     1.225     0.736 -63.73   0
       653    536.8550    117.8761 307.7155261  +6.6388117     2012.013     2533.011     2759.545     77.25854     154.1499     308.2079      1.350     3.02     816.7348     54.32666     349.0228        15     1.114     0.783 -52.36   0
       654    310.6650    107.9522 307.8098263  +6.6353157      4148.64     5579.355     5762.086     77.13621     154.0273     308.2692      1.397     3.03     824.0034     54.32666     658.5254        20     1.220     0.838 -62.56   0
       655      8.2018     91.0292 307.9360457  +6.6321211       718473      1399893      1515043     76.76801      153.966     307.4716      2.032     4.95     829.4129     54.32666     61663.66       444     2.226     1.802 -68.73  28
       656    506.1259    105.3875 307.7287127  +6.6429370     516.3532     804.2478     671.3422     76.76801     153.8433      308.024      1.890     4.08     816.7313     54.32666     98.30542         5     0.913     0.522 -49.05   0
       657    710.7700    102.4927 307.6437924  +6.6509886     1095.436     1458.571     1371.435      77.3807     153.9047      308.116      1.320     3.54     816.4018     54.32666     209.1869         9     1.075     0.556 -58.77   0
       658    681.8652    101.5787 307.6558315  +6.6503983     1577.661     2165.475     2175.609     76.89094     154.1499     308.0853      1.443     3.49     816.3315     54.32666      240.331        15     1.274     0.718 -59.50   0
       659    695.9402     98.3440 307.6500928  +6.6522050     3742.909     4882.235     4775.088      77.3807     154.1499     308.2386      1.387     3.11     816.2309     54.32666     565.3765        19     1.175     0.842 -71.38   0
       660    573.7643     98.6616 307.7008396  +6.6479815     509.7035     699.3542     566.6899     77.25855     154.1499     308.1773      1.376     4.91     816.1818     54.32666     71.07648         5     1.074     0.636 -63.37   0
       661     67.9702     96.4439 307.9110343  +6.6319001     644.5636     818.0674     1017.833     76.89094     154.1499     308.0853      1.233     4.05     827.2351     54.32666     112.2845         6     0.969     0.484 -78.94   0
       662    437.7135     89.2197 307.7576785  +6.6473162     4966.307     6625.501         6807     77.01367     153.9047     308.1466      1.392     3.16     816.9904     54.32666     751.7272        22     1.217     0.873 -59.00   0
       663    910.2042     84.7017 307.5615338  +6.6650016      4555.63     5926.281     5830.784     77.01367     153.8433     307.9013      1.380     3.03     814.8853     54.32666     781.5668        20     1.243     0.771 -56.26   0
       664    892.3055     85.4823 307.5689439  +6.6640814     2487.118     3066.815     2852.775     77.01367      154.456     308.3305      1.364     3.19     814.9478     54.32666     447.0011        18     1.223     0.800 -59.91   0
       665    589.9956     84.9357 307.6945584  +6.6541920     882.2537     1270.017     1546.393     76.52157     153.8433      308.024      1.397     5.44     815.6976     54.32666     158.0226        11     1.309     0.667  84.37   0
       666    602.3851     83.2935 307.6894665  +6.6552852     2106.297     2735.163     2715.039     77.01367     153.9047     308.0547      1.360     3.18     815.6262     54.32666      316.825        14     1.188     0.732 -48.72   0
       667    248.3295     82.5672 307.8365790  +6.6436998     883.9566     1249.945     1618.003     77.13621     154.1499     308.2386      1.466     3.60     825.2676     54.32666     145.3799        11     1.089     0.722 -43.18   0
       668    401.0014     81.0875 307.7732042  +6.6494410     2188.972     3051.088     3104.374     76.52157     153.7204      307.932      1.415     2.97     818.5943     54.32666     378.0664        17     1.169     0.838 -47.97   0
       669    148.8458     78.0352 307.8780600  +6.6422234     3570.145     4986.747      5060.04     76.89094     154.0886     308.0853      1.433     3.02     824.6876     54.32666     545.0397        22     1.194     0.951 -46.30   0
       670     30.8348     75.7945 307.9271595  +6.6391732     14239.84     19664.09     21457.04     76.52157      153.966     307.9933      1.464     3.13     827.6214     54.32666     2237.511        36     1.363     0.974 -65.27   0
       671    297.2396     76.3759 307.8164694  +6.6479002     1536.984     2204.587     2609.046     76.89094     153.9047     307.9933      1.527     3.49     824.4229     54.32666     272.5095        12     1.157     0.667 -59.46   0
       672    765.6464     75.1730 307.6219120  +6.6641035     822.6001     1100.883     1780.738     76.89094     154.2112      308.116      1.308     2.97     815.4584     54.32666     192.9753         8     1.021     0.521 -65.81   0
       673    951.8641     74.5306 307.5445668  +6.6705919     618.3943     838.0684      314.601     77.25854     154.2112     308.2386      1.326     4.38     813.3837     54.32666     85.48639         7     0.943     0.578  84.62   0
       674    557.9680     74.8044 307.7082053  +6.6573011     874.6534     1262.636     1057.779     76.64489     154.0273     307.9933      1.559     5.61     815.3406     54.32666     149.3607         9     1.258     0.705  88.39   0
       675    899.4225     71.7611 307.5664475  +6.6699839     755.2852     853.0782     752.9992     76.89094     153.9047     307.9933      1.184     4.14     814.4082     54.32666     114.9601         7     0.992     0.493  87.69   0
       676    832.6082     70.4486 307.5942506  +6.6682931     7202.965     9269.039     9079.766     76.76801      153.966     307.8707      1.352     2.96     814.8321     54.32666     1206.559        24     1.208     0.849 -62.90   0
       677    777.6609     70.8057 307.6170672  +6.6663084     3819.172     4861.244     4696.058     76.64489      153.966     307.9933      1.353     3.03      815.248     54.32666     590.0268        21     1.211     0.816 -55.73   0
       678    422.7968     71.2571 307.7644810  +6.6542311     1260.499     1566.608     1333.312     76.64489      153.966      307.932      1.276     2.90      817.077     54.32666     222.0413        12     1.031     0.721 -84.97   0
       679    102.6805     71.1471 307.8974709  +6.6435124     599.4587     769.9562     721.0326     77.25854     154.1499     308.2386      1.328     2.83     825.1935     54.32666     107.4953         6     0.731     0.611  13.13   0
       680    570.3790     75.6424 307.7030209  +6.6573712     799.6827     920.3216      682.171     76.76801     154.0273     308.0853      1.184     3.89     815.3763     54.32666     134.5225         6     0.926     0.469 -81.06   0
       681    540.3447     68.7325 307.7157313  +6.6592170     1391.862     1916.624     2027.646     77.25855     154.0273     308.1466      1.454     3.88     815.1734     54.32666          253        12     1.201     0.693 -43.60   0
       682     71.0419     67.6985 307.9107308  +6.6438703     3816.893     5297.477     5129.142     77.25854     154.0273     308.4224      1.441     3.18     825.9586     54.32666     613.8676        24     1.299     0.859 -62.30   0
       683     55.5867     68.5845 307.9171212  +6.6429838     1087.424     1395.242     1398.731     77.01367     153.8433     308.1466      1.368     3.29     826.4546     54.32666     150.4548        11     0.947     0.769 -76.26   0
       684    659.7972     67.8925 307.6661327  +6.6635665     599.6024     954.2267     1341.315     76.76801     153.8433      307.932      1.319     3.08     815.1914     54.32666     131.3372         5     0.939     0.327 -45.82   0
       685    432.4591     67.3322 307.7605992  +6.6561758     1164.888     1664.845     1605.608      77.3807     154.0886     308.2079      1.482     3.33     816.8423     54.32666     192.8909         9     0.981     0.645 -59.95   0
       686    594.9730     64.3649 307.6931829  +6.6628513     1660.816     1965.542     1913.081     76.89094     153.9047     307.9933      1.329     3.19     814.9478     54.32666     237.7652        12     0.999     0.776 -52.87   0
       687     13.4568     63.0862 307.9348087  +6.6438337     3082.769     4214.271     4427.421     77.25854     154.1499     308.3611      1.463     3.21     827.3621     54.32666     418.0894        19     1.232     0.816 -67.64   0
       688     86.0969     59.0216 307.9047702  +6.6479595     964.5627     1446.828     900.8547     77.13621      153.966      308.024      1.494     3.72     825.1985     54.32666     165.5526        13     1.221     0.756 -67.70   0
       689    772.2825     58.1310 307.6197276  +6.6713612     2226.598     2823.817     2782.157     77.50266     154.3948     308.2386      1.367     2.94     814.7497     54.32666     409.4973        18     1.139     0.919 -78.79   0
       690    663.5466     58.6937 307.6648843  +6.6674897     554.4061      801.351     1125.001     77.13621     154.0886      308.453      1.743     3.40     814.9117     54.32666     103.8441         5     1.010     0.331 -67.07   0
       691    413.0262     58.4312 307.7689726  +6.6591980      1319.01     1517.853     1574.404     76.76801     153.9047     308.0547      1.287     3.06     817.5565     54.32666     240.4789        13     1.149     0.682 -42.12   0
       692    110.1601     57.2931 307.8948323  +6.6494836     1054.822     1383.884     1386.128      77.3807     154.0886     308.2998      1.416     3.02     824.7469     54.32666     162.0673        10     0.912     0.738 -58.90   0
       693     98.9051     51.9039 307.8996901  +6.6513293     10967.44     14972.98     15331.39     77.25854     154.7614     308.0853      1.417     3.11     824.6904     54.32666     1737.979        32     1.319     0.972 -68.11   0
       694    427.9629     51.8053 307.7629906  +6.6624348     2927.174      4112.21     3866.279     76.39804     153.9047     307.9933      1.458     3.50     816.8347     54.32666     467.6433        20     1.273     0.849 -57.62   0
       695    249.1137     51.3753 307.8373067  +6.6566031      674.533     1016.989     1464.882     77.25854      153.966     308.0547      1.671     5.21     824.8738     54.32666      93.4588         9     1.305     0.587 -67.14   0
       696    265.5059     46.0036 307.8306782  +6.6593719      1776.94     2707.431     4021.779     77.01367     153.8433     307.9933      1.653     3.55     824.7491     54.32666     261.1277        15     1.223     0.802 -49.55   0
       697    671.2482     45.3071 307.6621349  +6.6732741     740.4191     890.5094     1056.128     77.13621     154.0273     308.3305      1.342     3.91     814.4891     54.32666     146.2996         6     0.892     0.702 -81.49   0
       698    641.7064     44.0172 307.6744519  +6.6728173     21924.59     28966.08     29889.06     77.13621      153.966     308.0853      1.366     3.02     814.3529     54.32666     3383.837        40     1.281     0.973 -61.82   0
       699    950.8280     43.8572 307.5460261  +6.6832207     552.5449     762.7591     792.2499     76.89094     154.2112      308.116      1.188     4.10     811.8725     54.32666     87.64447         6     1.187     0.404 -61.80   0
       700    259.6654     40.2983 307.8332972  +6.6615308     2221.279     3313.012     4490.145     77.25855     154.2112     308.2386      1.611     3.11     824.7206     54.32666     340.8209        22     1.329     0.937 -76.73   0
       701    541.4261     40.0155 307.7162491  +6.6711087     6046.237     7951.842     8071.668     77.01367     154.0273     308.1466      1.386     2.93     814.1193     54.32666     909.2726        24     1.251     0.872 -58.92   0
       702    777.1807     39.4300 307.6183209  +6.6792456     646.0591     733.2079     72.19524     76.89094      153.966     308.0853      1.287     4.70     813.9334     54.32666     105.9703         7     1.053     0.596 -51.53   0
       703    697.9565     38.4137 307.6512703  +6.6770141     656.0354     754.2732      867.844     76.64489      153.966     307.9627      1.312     4.13     814.2828     54.32666     111.0791         7     1.195     0.407 -56.23   0
       704    628.9850     37.9557 307.6799411  +6.6748936     1042.801     1594.266     1597.423     76.76801      153.966     307.9933      1.520     5.18     814.0999     54.32666     161.9297        13     1.371     0.748 -64.69   3
       705    627.7596     33.7929 307.6805903  +6.6765711     3732.689     5226.429     5593.791     76.64489     153.8433     307.9013      1.395     3.13     813.9582     54.32666     582.9771        23     1.385     0.829 -59.53   2
       706      8.9480     38.2806 307.9375215  +6.6539219     1368.583     1896.547     1815.963     77.25854     154.1499     308.2079      1.453     3.26     825.7766     54.32666       223.16        13     1.058     0.802 -46.93   0
       707    447.0046     35.6598 307.7556240  +6.6697394     26645.22     36093.69     36674.54     76.64489     154.0273     307.9933      1.430     3.12     815.8839     54.32666     4274.978        43     1.342     0.997 -61.17   0
       708    267.6581     36.0183 307.8301213  +6.6635664     10780.47     14672.27     16098.41     76.89094     154.0273     307.9627      1.426     3.09     824.6792     54.32666     1547.606        28     1.273     0.928 -59.68   0
       709    924.8561     35.7916 307.5570874  +6.6856832     2285.381     2931.921      2350.33     76.64489     154.0273      307.932      1.274     2.92     812.6022     54.32666     347.4992        16     1.085     0.778 -66.13   0
       710    327.5070     36.5009 307.8052411  +6.6653790     1067.862     1522.456     2065.135     77.25855     154.6393     308.1466      1.761     3.57     823.5334     54.32666     196.3484        12     1.196     0.715 -50.90   0
       711     33.0181     35.6670 307.9276106  +6.6558122     2690.521     3380.417     4004.586     76.89094     154.0886      308.116      1.374     2.86     825.2548     54.32666     449.5824        17     1.134     0.814 -61.40   0
       712    560.3284     35.3360 307.7085536  +6.6736743     704.1791     946.5192     839.8745     77.25855     154.1499     308.2386      1.483     3.96     813.9124     54.32666     125.5914         7     1.163     0.468 -48.80   0
       713    532.1512     35.7236 307.7202471  +6.6725695       727.35     1032.343     1299.072     77.13621     154.2112     308.2079      1.367     3.50     814.0364     54.32666     125.8565         7     0.997     0.507 -72.79   0
       714    255.5529     32.5874 307.8352662  +6.6645758     3609.943     4951.956     5593.644     76.64489      153.966     307.9627      1.457     3.13     824.6605     54.32666     522.6053        21     1.227     0.878 -62.93   0
       715    308.5178     30.7764 307.8133233  +6.6671041     1145.166     1567.781     1845.481     77.13621     153.9047     308.1466      1.446     3.97      824.085     54.32666     174.3423        12     1.273     0.669 -76.75   0
       716    392.2024     30.9994 307.7785490  +6.6698235     540.1285     618.4119    -7.444301     76.64489     153.7204     307.9013      1.308     2.81     819.3998     54.32666     99.09998         5     0.784     0.480 -26.76   0
       717    696.9665     25.3099 307.6521223  +6.6823908      2222.78     2856.238     2481.569      77.3807     154.0273     308.2079      1.369     3.41       813.86     54.32666     327.4254        14     1.203     0.671 -74.35   0
       718    945.3634     25.8807 307.5488995  +6.6904597     1131.209      1594.98     1557.732     77.13621     154.2112     308.2079      1.487     3.32     811.2729     54.32666      167.507        10     1.034     0.637 -51.86   0
       719    101.8299     25.4567 307.8993697  +6.6623458     607.5117     798.0142     620.8666     77.13621     154.2112      308.116      1.267     4.03     823.9103     54.32666     98.61542         7     0.879     0.603 -73.48   0
       720    262.7871     20.3796 307.8326730  +6.6698588     926.1321     1238.415     1518.726     77.01367     153.8433      308.116      1.397     3.62     824.5604     54.32666     210.1343         9     0.904     0.835  47.74   0
       721    208.1320     20.5725 307.8553727  +6.6679407     825.2599     1057.907     822.1388     76.89094     154.0273      308.116      1.349     2.97     824.3279     54.32666     141.5897         7     0.825     0.593 -61.67   0
       722    204.4828   1018.4650 307.8231959  +6.2558535     528.4984     753.3193     1506.577      77.3807     154.3948     297.1624      1.581     3.73     846.1046     54.32666     82.31146         6     0.962     0.415 -71.35  16
       723    963.0093   1014.4264 307.5084399  +6.2829228     6643.157     10951.24     11138.07     76.89094      153.966     308.0853      1.775     3.82     841.5814     54.32666     769.5942        35     1.488     1.171 -73.32  16
       724    717.4995   1014.5910 307.6103578  +6.2746536     1084.144     1412.995     1790.251     77.01367     153.7819      308.024      1.471     4.08     845.7974     54.32666     148.7568        12     1.151     0.734 -53.58   3
       725    722.8055   1012.4891 307.6082255  +6.2756989     3135.444     4581.961     4579.648     76.76801     153.8433     307.9627      1.594     3.27     845.7773     54.32666     431.7802        25     1.446     0.931 -61.17   2
       726    247.2888   1014.3558 307.8055651  +6.2589884     1387.448     1965.871     1640.532     77.25855     154.0273     308.2386      1.422     3.69     847.1349     54.32666     212.9306        11     1.149     0.600 -54.96   0
       727    445.6703   1013.1402 307.7232531  +6.2661491     1028.682     1436.626     1193.073      77.3807     154.1499     308.2386      1.552     4.41     849.2569     54.32666     147.9708        12     1.062     0.848 -88.61   0
       728    738.3957   1011.6079 307.6017829  +6.2765840     1151.404     1703.921     1899.405     76.64489     153.8433     308.0547      1.678     5.48     845.8052     54.32666     155.4536        13     1.225     0.818 -46.87   0
       729    369.4846   1009.8998 307.7549891  +6.2649312      2017.63     2812.876     3066.709     77.25854     154.6393     308.2998      1.458     3.48     848.7424     54.32666     280.8269        15     1.182     0.780 -54.99   0
       730    708.1635   1006.8171 307.6144945  +6.2775508     467.0143     722.2053     838.5311     76.76801      153.966     307.9933      1.577     4.44     845.6561     54.32666     86.85052         6     1.138     0.492 -29.10   0
       731    756.2111    999.5290 307.5947922  +6.2821665     8631.297        12589     13176.29     76.76801     153.7819      308.024      1.590     3.25     845.0949     54.32666     1175.385        38     1.424     1.102 -59.19   0
       732    551.7402   1000.0985 307.6796584  +6.2750885     4796.451     6771.932     7115.722     77.01367     154.0886     308.3305      1.489     3.10     848.8433     54.32666     665.1702        26     1.351     0.920 -70.13   0
       733    522.1023   1001.2838 307.6919224  +6.2736062     1269.049     1852.725     2253.361     77.25854     154.5171     308.2692      1.601     4.14     848.8994     54.32666     170.0413        12     1.153     0.702 -69.58   0
       734    302.0027    998.7932 307.7833768  +6.2672511      16430.7     23324.11     25287.69     76.64489     153.8433     308.0547      1.517     3.37     848.3609     54.32666     2489.761        51     1.681     1.063 -43.82   0
       735    817.5038    998.8506 307.5693691  +6.2844951     1284.134     1697.116     1509.798     77.13621     154.0886     308.3917      1.443     3.40     843.8881     54.32666     191.4408        15     1.103     0.902  76.47   0
       736    426.5515    999.1196 307.7316618  +6.2712963     1004.724     1496.792      1375.59     77.25854     154.2112     308.1773      1.457     4.04     848.8109     54.32666     157.4952        11     1.211     0.651 -62.75   0
