#   1 NUMBER                 Running object number                                     
#   2 X_IMAGE                Object position along x                                    [pixel]
#   3 Y_IMAGE                Object position along y                                    [pixel]
#   4 ALPHA_J2000            Right ascension of barycenter (J2000)                      [deg]
#   5 DELTA_J2000            Declination of barycenter (J2000)                          [deg]
#   6 FLUX_APER              Flux vector within fixed circular aperture(s)              [count]
#   9 FLUXERR_APER           RMS error vector for aperture flux(es)                     [count]
#  12 FLUX_RADIUS            Fraction-of-light radii                                    [pixel]
#  13 FWHM_IMAGE             FWHM assuming a gaussian core                              [pixel]
#  14 BACKGROUND             Background at centroid position                            [count]
#  15 THRESHOLD              Detection threshold above background                       [count]
#  16 FLUX_MAX               Peak flux above background                                 [count]
#  17 ISOAREA_IMAGE          Isophotal area above Analysis threshold                    [pixel**2]
#  18 A_IMAGE                Profile RMS along major axis                               [pixel]
#  19 B_IMAGE                Profile RMS along minor axis                               [pixel]
#  20 THETA_IMAGE            Position angle (CCW/x)                                     [deg]
#  21 FLAGS                  Extraction flags                                          
         1    224.8753     38.1061 307.8353309  +6.6644898     2517.033     4433.242     4655.653     84.49224     169.0515     337.5999      1.861     4.34      1015.67     59.50748      253.634        27     1.446     1.127 -69.10   0
         2    154.4875     23.6496 307.8650685  +6.6680959     9649.383     16226.65     16995.35     84.62625     168.6489     337.7006      1.818     3.96     1016.571     59.50748     1116.812        45     1.625     1.238 -80.39   0
         3    899.9438     21.1917 307.5553604  +6.6940425     3990.868     5959.746     6740.732     83.95407     168.7832     337.3313      1.534     3.20     989.8036     59.50748     599.9508        24     1.357     0.920 -71.50   0
         4    964.8234     17.5568 307.5285186  +6.6977040     2215.503     3473.841     3870.719     84.08894      168.716     337.3985      1.685     3.94     984.2867     59.50748     317.8577        22     1.424     0.940 -75.49   0
         5    684.1483     14.0428 307.6452825  +6.6897967     7099.002     11140.31     10904.04     84.62625     168.8503     337.6335      1.659     3.59     994.8809     59.50748     945.8158        33     1.425     1.109 -78.67   0
         6    604.3984     13.2733 307.6784509  +6.6874504     3305.618     5265.889     5401.857     84.08894     168.3126     337.4656      1.715     3.58     995.4196     59.50748     439.9841        26     1.385     1.119 -75.69   0
         7    306.5343     13.2307 307.8022363  +6.6774984     700.6329      1176.86     827.3437     84.35802     168.9174     337.5328      1.652     6.01     1013.934     59.50748     86.16852         9     1.609     0.632 -38.62   0
         8    404.6503      9.5580 307.7615864  +6.6823021     5498.558     9419.006     9995.153     84.76005     168.8503     337.5999      1.820     4.17     1004.153     59.50748     637.7058        34     1.598     1.159 -84.77  16
         9      5.6151      9.2047 307.9274199  +6.6690574     8049.124      12892.9     12731.58     84.22359     168.5144     316.1052      1.748     3.70     1020.144     59.50748     1060.818        40     1.587     1.129 -75.44  16
        10    651.6234      8.2007 307.6589956  +6.6911225     809.7456     1094.932     1018.644     84.22359     168.5144     336.7934      1.477     4.15     995.2853     59.50748     137.4227         8     0.944     0.647 -71.72   0
        11    480.2787      6.3814 307.7302643  +6.6861453     838.1035     1393.405     1307.146     84.08894     168.5144     324.0006      1.813     3.79     997.6376     59.50748     117.2693         8     0.960     0.598 -65.92  16
        12    301.1833      4.4957 307.8047545  +6.6809254     11454.55     19480.86     19935.77     84.49224     168.6489     302.5509      1.809     3.93     1014.473     59.50748     1300.697        42     1.586     1.230 -75.84  24
        13     74.7812      4.9501 307.8988221  +6.6731389     2259.796     3786.474     4147.148     84.08894     168.9174     308.3016      1.730     4.28     1016.996     59.50748     300.7329        21     1.422     0.948 -76.44  16
        14     66.2265      3.6627 307.9024205  +6.6733830     1421.891     2535.005     2791.234     84.22359     164.0163     291.3315      1.899     4.96     1017.338     59.50748     186.4727        19     1.311     1.039 -71.36  24
        15    769.2881      2.9717 307.6102711  +6.6972093     844.7552     1310.345     1116.342     84.76005     157.0276     280.8753      1.670     4.64     990.4327     59.50748     130.6709         9     1.086     0.818 -20.75  16
        16    367.4576      2.6758 307.7772745  +6.6838978     2012.162     2908.417     2764.047     84.76005     153.5985     276.5658      1.643     4.50     1008.502     59.50748       232.78        18     1.267     0.972 -64.81  24
        17    242.6575   1001.3474 307.7954644  +6.2673936     888.2209     1238.931     1155.088     84.62625     168.8503     337.5999      1.518     4.04     1037.989     59.50748     144.7234         7     1.016     0.460  82.70   0
        18    597.0900   1023.6450 307.6475408  +6.2700443     544.1586     666.0022     466.2855     74.05753     134.6501     254.4138      1.253     3.37     1033.641     59.50748     105.0601         5     0.754     0.435 -18.93  24
        19    886.8804    998.2912 307.5280538  +6.2901763      10691.6     14164.02     14676.23     84.35802     169.1185     337.6335      1.383     2.92     1028.314     59.50748     1922.797        29     1.270     0.881 -78.75   0
        20    604.6283    999.7687 307.6452121  +6.2801541     552.5839     612.1427     1079.268     84.08894     168.5816     337.3649      1.484     4.37     1032.924     59.50748     85.39685         5     1.155     0.471  84.14   0
        21    518.2626    997.6453 307.6811468  +6.2781456     9373.158     12809.18     13633.35     84.49224     168.7832     337.6335      1.438     3.12     1036.879     59.50748     1441.001        29     1.311     0.944 -80.51   0
        22    860.4664    994.4980 307.5391497  +6.2908628     14863.57     20144.54     21635.89     84.62625     168.9174     337.6335      1.462     3.22     1029.145     59.50748     2218.426        43     1.360     1.102 -69.39   0
        23     17.1899    996.4663 307.8892485  +6.2618449      575.192     707.3096     297.3373     84.08894      168.716     337.4656      1.349     3.65     1037.035     59.50748     91.22461         5     1.008     0.380 -84.14   0
        24    573.3495    994.7531 307.6583691  +6.2811803     1722.164     2420.852      2981.39     84.62625      168.716     337.6335      1.572     3.56     1034.733     59.50748     246.0492        15     1.178     0.784 -77.78   0
        25    982.2280    993.8478 307.4886077  +6.2951846     6090.389     8101.129      8144.57     84.22359     168.9174     337.5328      1.375     3.04     1024.352     59.50748     993.4902        23     1.248     0.850 -73.21   0
        26    614.3318    992.8062 307.6414164  +6.2833528      1536.64     1847.661     1925.067     84.08894     168.4472     337.3985      1.339     4.27     1032.658     59.50748     270.4644        14     1.443     0.640 -67.92   0
        27    504.5230    993.5128 307.6869910  +6.2793926     4726.269     6497.341     6712.653     84.62625     169.1855     337.7006      1.484     3.26     1036.935     59.50748      679.309        22     1.309     0.873 -76.82   0
        28     39.5285    992.1035 307.8801204  +6.2643964     1171.752     1765.014     1214.146     84.49224     168.9845     337.5999      1.496     4.62      1037.01     59.50748      195.332        12     1.387     0.610 -75.41   0
        29    457.8828    990.1135 307.7064726  +6.2792368     2474.876       3648.7     3786.888     84.35802     169.0515     337.6671      1.548     3.72     1037.218     59.50748     410.7136        18     1.293     0.822 -79.03   0
        30    892.2537    981.9904 307.5263682  +6.2970857     52056.22     70189.49     72879.77     83.95407     168.7832     337.2977      1.378     3.02     1027.556     59.50748     8728.107        59     1.395     1.004 -80.43   0
        31    297.7594    983.8022 307.7731752  +6.2764836     603.0558     763.2001     944.2242     83.81898     168.5816     337.3313      1.522     3.72     1037.887     59.50748     96.47742         5     0.922     0.431  43.96   0
        32    199.7505    980.3561 307.8139882  +6.2746221     1936.616     2847.701     2862.258     84.62625     168.7832     337.5999      1.576     3.56      1037.68     59.50748     320.4957        19     1.269     0.927  82.30   0
        33     87.6429    979.7191 307.8605602  +6.2711246     670.1119     1043.932     808.5468     84.62625     168.8503     337.5664      1.490     4.12     1036.941     59.50748     105.7645         6     1.049     0.461 -82.04   0
        34    790.3287    975.8408 307.5689005  +6.2962290     2869.615     3999.307     4062.298     84.49224     168.8503     337.6671      1.447     3.04     1030.246     59.50748     518.8112        20     1.345     0.852 -85.96   0
        35    738.3596    973.7837 307.5905506  +6.2953457     7617.702     10722.82     11369.44     84.08894      168.716     337.3985      1.460     3.20     1031.128     59.50748     1182.466        32     1.599     0.852 -73.71   0
        36    598.4553    978.5008 307.6484895  +6.2887291     1020.646     1553.707     1267.425     84.35802     168.8503     337.9019      1.337     3.23     1033.157     59.50748     183.5459         8     1.010     0.496  87.41   0
        37    207.9551    973.1052 307.8108257  +6.2778909     1674.197     2123.332     2458.407     84.62625     168.7832     337.7342      1.390     4.32     1037.767     59.50748     233.8872        13     1.229     0.733 -87.64   0
        38    525.3972    973.0509 307.6790105  +6.2885386     844.4252     1388.202     1553.085     83.95407     168.5816     337.1633      1.804     4.46     1035.784     59.50748     173.8792         9     1.125     0.752 -82.83   0
        39    172.2334    972.0252 307.8256951  +6.2771391     999.3568     1408.708     1794.334     83.95407     168.5816     337.3985      1.629     4.07     1037.297     59.50748     138.0134        11     1.018     0.775 -57.35   0
        40    926.6387    968.7791 307.5125311  +6.3036853     8236.169     11183.37      11443.2     84.22359     168.6489     337.3313      1.409     3.01     1025.855     59.50748     1197.052        28     1.330     0.910 -76.72   0
        41     32.9211    970.7897 307.8835835  +6.2729742     3037.286     4087.988     4050.374     84.22359     168.5816     337.4321      1.405     2.97     1036.881     59.50748     478.3116        18     1.159     0.847 -70.73   0
        42    609.0751    962.9897 307.6446002  +6.2954880     879.2571     1303.457     1497.271     84.22359     168.4472     337.3985      1.784     5.77     1032.611     59.50748     127.2931        10     1.194     0.785 -60.98   0
        43    900.3458    960.4905 307.5237274  +6.3062322      2615.98     3116.857     2885.873     84.49224     168.6489     337.7342      1.298     3.13     1026.504     59.50748     412.8745        15     1.011     0.802  89.22   0
        44    621.0701    956.4284 307.6398394  +6.2985976     5322.553     7344.542     6549.673     84.35802     168.8503     337.5328      1.468     3.21     1032.492     59.50748     890.0149        23     1.373     0.864 -71.59   0
        45    759.7464    956.8868 307.5822358  +6.3030353     1514.161      2178.57     1834.225     84.62625      168.716     337.7677      1.464     3.38     1029.968     59.50748     273.2426        12     1.254     0.617 -66.46   0
        46    233.3673    956.6056 307.8008296  +6.2855549     4822.808     6520.075      6555.24     83.95407     168.6489     337.3985      1.413     3.12     1037.986     59.50748     678.9764        22     1.244     0.874 -77.17   0
        47    970.5214    956.0656 307.4947329  +6.3103950     817.3763     1236.333     1893.091     84.76005     168.9174     337.5664      1.594     3.71     1023.782     59.50748     136.2924         6     0.809     0.490 -81.42   0
        48    443.2809    954.5579 307.7137315  +6.2934285     1147.472     1441.566     1356.182     84.62625     168.8503     337.5664      1.359     3.92     1036.558     59.50748     172.0332        10     1.105     0.654 -86.60   0
        49      2.1135    954.0049 307.8969424  +6.2788693     2574.224     3484.679     3742.753     81.90443     145.6463     267.1455      1.406     3.09     1036.767     59.50748      443.849        16     1.180     0.773 -82.49  24
        50    852.9551    953.1550 307.5436534  +6.3076826     1063.017     1499.913     1494.541     84.62625     168.8503     337.5999      1.389     3.52      1027.77     59.50748     197.0273         9     1.034     0.620  88.74   0
        51    944.8580    951.0010 307.5055599  +6.3116321     794.4404     1059.618     594.7396     83.95407     168.4472     337.2641      1.303     4.00     1024.622     59.50748     150.2607         8     1.152     0.502 -79.36   0
        52    924.5795    950.1612 307.5140093  +6.3113039     800.9506     998.3538     688.0944     84.22359     168.6489     337.3313      1.294     3.47     1025.325     59.50748     140.7223         5     0.761     0.458 -72.39   0
        53    545.8251    948.8171 307.6713417  +6.2992269     1866.902     2694.367     2688.359     84.35802     168.6489     337.5328      1.470     3.39     1034.311     59.50748     263.8551        14     1.206     0.711 -85.15   0
        54    269.4314    949.8879 307.7860804  +6.2895370      911.504     1317.476     1294.408     84.76005     168.6489     337.5328      1.403     3.33     1037.985     59.50748      157.726         7     0.928     0.492  85.59   0
        55    977.0231    948.4502 307.4922876  +6.3137556     1037.729     1471.859     1892.817     84.22359     168.9174     337.4992      1.554     5.16     1023.342     59.50748     159.3563        11     1.284     0.659 -72.42   0
        56     34.6582    946.4202 307.8836850  +6.2830938     814.8246      1108.72     1828.256     84.22359      168.716     337.3985      1.478     3.60     1036.727     59.50748     141.2814         7     0.891     0.612 -71.95   0
        57    584.8763    945.2067 307.6552462  +6.3020222     1384.552     1882.172     2271.654     84.22359     168.3126     337.4656      1.434     3.08     1033.172     59.50748     218.1705        11     0.935     0.779 -76.45   0
        58     29.6727    944.9706 307.8858041  +6.2835249      536.337     626.6076     802.0065     84.49224     168.8503     337.5664      1.193     3.78     1036.719     59.50748     98.89197         5     0.879     0.468 -87.20   0
        59    265.0011    942.9474 307.7881539  +6.2922540     1698.813     2401.274     2563.402     83.95407     168.3799     337.1297      1.461     3.96     1037.984     59.50748     232.6025        14     1.214     0.778 -78.13   0
        60    532.8298    941.0937 307.6769977  +6.3019815     673.4686     1131.053     1457.934     84.76005     168.5816     337.4992      1.659     3.49     1034.308     59.50748     131.5795         7     1.055     0.592 -79.08   0
        61    731.9044    939.3991 307.5943842  +6.3093273     1008.932     1448.245     1519.189     84.08894     168.4472     337.1969      1.421     5.66      1029.64     59.50748     150.2422        12     1.397     0.645 -53.27   0
        62    869.2755    935.6292 307.5374628  +6.3154625      8405.32     11381.66     11310.72     84.49224     168.9174     337.6335      1.412     3.02     1026.667     59.50748      1317.18        28     1.316     0.891 -78.32   0
        63    107.1504    937.0596 307.8538994  +6.2893920     587.5275     729.4688     495.2898     84.62625     168.8503     337.6671      1.264     4.32     1036.734     59.50748     106.7415         6     1.298     0.410 -67.38   0
        64    405.2500    933.0854 307.7302464  +6.3010218     2312.209     3485.037     3868.962     84.62625     168.7832     337.6671      1.609     3.65     1036.726     59.50748     324.6711        19     1.297     0.899  87.32   0
        65    574.0228    932.5161 307.6601796  +6.3068993     657.0689     1031.213      1427.26     84.49224     168.5816     337.4992      1.702     4.28      1033.15     59.50748     103.3976         6     0.939     0.555 -69.16   0
        66    306.8851    931.2186 307.7711564  +6.2984996     10336.23     14876.26     15786.97     84.22359     168.5816     337.5328      1.511     3.20     1037.761     59.50748     1609.381        34     1.397     0.978 -76.40   0
        67    226.9595    930.1788 307.8043809  +6.2962510     7492.286     10784.75     10576.16     84.22359     168.6489     337.3985      1.501     3.25     1037.984     59.50748     1196.894        33     1.375     1.014 -74.69   0
        68    145.8311    928.7078 307.8381191  +6.2941380     589.1653     571.4272     98.29588     84.76005     168.6489     337.5999      1.117     3.41     1036.838     59.50748     116.4304         5     0.952     0.352 -45.27   0
        69    554.9856    924.6378 307.6683498  +6.3095161     1297.156     1791.759     1671.875     84.35802     168.6489     337.3313      1.555     3.70     1033.259     59.50748     185.1611        12     1.101     0.731 -71.58   0
        70    739.2405    924.1656 307.5918484  +6.3158617     853.6965     1198.173       1146.8     84.35802     168.8503     337.3985      1.461     4.29     1028.839     59.50748     161.0321         9     1.193     0.544 -65.52   0
        71    885.0988    920.7139 307.5313909  +6.3221478     1328.521     1833.969     2036.154     84.62625     169.3194     337.6671      1.487     2.77     1025.642     59.50748     226.6494        11     0.994     0.666 -81.45   0
        72    188.7730    920.4706 307.8205652  +6.2989791     531.3764     476.6919     798.4435     84.22359      168.716     337.5328      1.256     4.33     1037.304     59.50748     88.41272         5     1.133     0.471 -58.60   0
        73    841.9101    919.5499 307.5493657  +6.3211898     845.4357     1089.452     1543.145     84.62625     168.6489     337.7342      1.214     2.74     1026.885     59.50748     158.1565         7     0.858     0.599  54.75   0
        74    383.6776    919.4232 307.7396644  +6.3059407     580.5201     790.9706     857.7114     84.22359     168.6489     337.5328      1.549     3.26     1036.707     59.50748     115.1946         5     0.930     0.426 -76.56   0
        75    952.4352    916.2914 307.5035745  +6.3262155       850.26     1226.177     1512.586     84.76005      168.716     337.6335      1.648     3.43     1023.214     59.50748     133.8727         5     1.013     0.335 -67.53   0
        76    858.9856    915.5877 307.5424072  +6.3233946     431.5857      326.459     192.6396     84.49224     168.5144     337.5328      1.262     4.76      1026.29     59.50748     74.37366         5     0.996     0.645 -89.41   0
        77    721.4156    913.9219 307.5995943  +6.3194966     1994.828     2741.409     2935.854     84.22359     168.5816     337.4321      1.360     3.57      1029.18     59.50748     295.4766        13     1.210     0.659 -82.54   0
        78    814.3984    914.3864 307.5609641  +6.3224050     724.8993     913.9252     842.0058     84.22359     168.5144     337.3649      1.033     3.47     1027.484     59.50748     114.5715         5     1.084     0.321 -69.09   0
        79    545.1870    913.9062 307.6727795  +6.3136196     828.1938      914.613      967.877     84.35802     168.5816     337.4321      1.213     3.34     1033.253     59.50748      120.184         8     0.832     0.725  89.46   0
        80    585.4985    910.8827 307.6561405  +6.3162147     840.9198     1285.323     1756.274     84.62625     169.2525     337.7006      1.560     4.21     1032.477     59.50748     134.4841         8     1.139     0.444 -77.37   0
        81    952.7299    909.5512 307.5036777  +6.3290083      1703.67     2283.706     2457.872     84.62625     168.7832     337.6335      1.497     3.63     1022.942     59.50748     298.3052        13     1.190     0.711 -75.64   0
        82    506.7794    909.6202 307.6888733  +6.3141056     1369.738     2235.093     2571.152     84.35802     168.7832     337.5328      1.716     3.64     1034.305     59.50748     216.6344        15     1.193     0.890 -80.21   0
        83    597.2299    910.2051 307.6512914  +6.3168863     790.8279     1093.018     591.8958     84.08894     168.6489     337.3649      1.400     5.03     1032.231     59.50748      115.486         9     0.952     0.751  11.26   0
        84    639.8596    907.1880 307.6336893  +6.3195554     2818.912     3902.268     3844.974     83.95407      168.716     337.2977      1.438     3.24      1031.19     59.50748     427.1088        18     1.241     0.813 -81.16   0
        85    991.1494    906.2955 307.4878311  +6.3316309     719.8286     640.8992     876.9162     84.49224     168.7832     337.8013      1.229     3.54      1021.35     59.50748      127.572         7     1.022     0.496 -68.21   0
        86     36.5699    903.3977 307.8843437  +6.3009205     3186.275     4584.095     5066.328     84.08894     168.6489     337.3985      1.592     3.26     1036.285     59.50748     435.8749        20     1.301     0.862 -81.64   0
        87    930.2878    904.9145 307.5131530  +6.3301758       705.07     1063.965     1115.745     84.35802     169.0515     337.7006      1.488     3.38     1023.616     59.50748     113.6469         7     0.757     0.652 -86.02   0
        88    800.9090    903.5409 307.5669295  +6.3264334     1000.414     1143.376     1160.149     84.49224     168.8503     337.7342      1.250     4.77     1027.553     59.50748     129.4414         9     0.953     0.677 -72.18   0
        89     54.0311    902.5597 307.8771212  +6.3018528     2038.507     2687.865     3141.021     84.22359     168.6489     337.4656      1.446     3.44     1036.296     59.50748     344.2003        16     1.246     0.793 -89.56   0
        90    918.2363    902.5840 307.5182360  +6.3307368     783.0233     1141.258     1208.937     84.22359     168.6489     337.3649      1.360     2.76     1023.948     59.50748      167.363         7     0.906     0.595 -86.72   0
        91    180.1523    902.1540 307.8247626  +6.3062524     2321.484     3295.721     3105.935     84.62625      168.716     337.5999      1.524     3.79     1037.082     59.50748     299.9352        18     1.253     0.924 -73.98   0
        92    319.2197    898.2817 307.7671433  +6.3125116      933.318     1283.379     1135.631     84.22359     168.5144     337.5328      1.424     3.32     1037.195     59.50748     137.0846         9     0.885     0.713  78.99   0
        93    214.0568    899.0412 307.8107883  +6.3086743     811.8414     855.6316     112.3095     84.49224     168.8503     337.6335      1.243     2.66     1037.374     59.50748     157.9252         7     0.860     0.512 -45.79   0
        94    771.9844    897.2391 307.5791529  +6.3280712     901.6042     1093.916     524.0637     84.22359     168.6489     337.3649      1.431     3.85     1027.759     59.50748     177.9827         8     0.994     0.592 -68.92   0
        95    634.6072    896.2270 307.6362385  +6.3239057     7601.431     10548.88     11156.76     84.08894     168.6489     337.3985      1.441     3.04     1030.866     59.50748      1080.93        29     1.337     0.924 -78.32   0
        96    872.3233    892.4737 307.5376421  +6.3333824     3318.365      4433.35     4292.339     84.89363     169.1185     337.6335      1.412     3.23     1025.135     59.50748     521.8281        19     1.248     0.785 -86.70   0
        97      7.9052    892.8843 307.8966017  +6.3042984     1179.614     1655.709     1822.652     84.49224     169.2525     335.6137      1.460     4.77     1036.133     59.50748     164.5721        12     1.265     0.711 -69.89  16
        98    317.6034    889.4600 307.7681115  +6.3160997     17391.34      25126.8     26065.36     83.95407     168.5816     337.2977      1.563     3.13     1037.088     59.50748     2409.034        42     1.456     1.048 -73.81   0
        99    903.2632    890.7939 307.5248490  +6.3351063     523.8447     691.4431     981.2296     83.95407     168.5816     337.3313      1.454     4.31     1024.036     59.50748     81.57068         5     0.736     0.720  29.67   0
       100     52.3672    890.3145 307.8782256  +6.3068526     1510.684      1908.13     1670.619     84.62625     168.6489     337.5664      1.371     3.11     1036.127     59.50748     247.8311        12     1.085     0.718 -72.54   0
       101    188.9285    888.7021 307.8215717  +6.3121006     1273.837     1637.641     1480.184     84.49224     168.9845     337.5999      1.322     3.22     1037.074     59.50748     204.0388        11     1.128     0.658 -43.92   0
       102    395.4634    880.5445 307.7360782  +6.3223873      953.478     1593.594     1062.551     84.76005     168.8503     337.5999      1.699     5.48     1035.835     59.50748     143.1704        10     1.216     0.696 -76.24   0
       103     80.9364    880.3711 307.8666977  +6.3119170     1871.804     2793.801     2914.302     84.35802     168.8503     337.5328      1.629     4.50     1036.023     59.50748      271.604        16     1.407     0.741 -74.38   0
       104    649.2080    876.3254 307.6308428  +6.3326102     935.1226     1316.085      1687.03     84.22359     168.3799     337.4321      1.710     2.95     1029.531     59.50748     146.5758         8     0.946     0.553 -72.14   0
       105    476.1833    876.9622 307.7026770  +6.3265665      617.018     1050.595     1356.166     84.22359      168.716     337.3313      1.947     4.85       1034.7     59.50748     88.32312         7     1.049     0.635  88.78   0
       106     64.3904    873.6735 307.8737946  +6.3141268     2517.693     3920.042     4609.687     84.08894     168.4472     337.4656      1.644     3.76     1035.932     59.50748     361.3749        22     1.402     0.922 -69.85   0
       107    862.7246    874.1476 307.5422422  +6.3406293     2406.668     3048.302     3156.205     84.62625     168.9174     337.5999      1.284     3.43     1024.874     59.50748      370.469        14     1.154     0.657 -80.98   0
       108    833.4602    873.5653 307.5544154  +6.3398948     2303.701     2995.911     3576.742     84.62625     168.8503     337.5664      1.339     3.31     1025.745     59.50748     331.2155        16     1.205     0.723 -65.05   0
       109    796.7413    873.0876 307.5696809  +6.3388683      3408.79     4438.259      4181.38     84.62625     168.9174     337.7006      1.361     3.02     1026.713     59.50748     480.0542        18     1.212     0.790 -78.88   0
       110    532.6959    864.6740 307.6796210  +6.3335293     355917.5     512734.7     534255.1     84.35802     168.9845     337.5999      1.565     3.26      1032.91     59.50748     48994.02       154     1.604     1.232 -75.94   4
       111    427.6393    871.4818 307.7230210  +6.3272057     552.0613     841.1588     877.5913     84.62625     168.9174     337.5328      1.354     3.38     1035.138     59.50748     95.53088         5     1.122     0.295 -69.51   0
       112    376.9603    867.3475 307.7442063  +6.3272167      8092.05     11686.23     12284.79     84.49224     168.8503     337.5664      1.550     3.44     1035.878     59.50748     1193.196        29     1.381     0.991 -76.00   0
       113    620.4950    867.5438 307.6430620  +6.3352774     1308.004     1765.887     1736.162     84.49224     168.8503     337.8348      1.325     3.03     1030.363     59.50748     252.9594        10     1.142     0.556 -77.75   0
       114    320.2007    865.6953 307.7678331  +6.3259986     13308.25     19429.96     20327.13     84.08894     168.4472     337.2305      1.565     3.23     1036.751     59.50748     1776.305        38     1.416     1.065 -79.60   0
       115    870.9827    860.7391 307.5392616  +6.3464406     6179.322      8133.22     7912.679     84.22359     168.7832     337.3985      1.366     3.03     1024.075     59.50748      971.467        23     1.302     0.782 -77.49   0
       116    710.2772    858.2465 307.6060874  +6.3421127     833.4802     1482.946     1684.729     84.49224     168.9174     337.5999      1.831     4.45      1027.56     59.50748      131.329         7     1.042     0.540 -64.03   0
       117    613.3437    855.8615 307.6464242  +6.3398620     3697.513     5231.301     5657.623     84.76005     168.8503     337.6335      1.546     3.20     1030.061     59.50748     534.2407        25     1.470     0.892 -72.23   0
       118   1004.4495    854.9178 307.4840258  +6.3532868     5489.554     7495.509     7516.261     84.62625     168.8503     337.6335      1.376     3.19     1018.651     59.50748     787.2156        23     1.297     0.816 -79.17   0
       119    801.8234    854.9673 307.5681775  +6.3465194     1692.562     2299.799     2633.818     84.08894     168.6489     337.3985      1.453     3.24     1025.961     59.50748     275.9087        16     1.175     0.843 -62.18   0
       120    722.5743    856.2421 307.6010476  +6.3433505     549.6423     722.9337      662.962     84.22359     168.7832     337.3985      1.214     3.48     1027.401     59.50748     105.8573         5     0.817     0.429 -69.32   0
       121    156.4170    855.4524 307.8361939  +6.3247380     645.1598     828.0976     823.2994     84.08894     168.9174     337.2977      1.455     3.39     1036.808     59.50748      94.9198         5     1.088     0.306 -68.26   0
       122    603.7911    855.1276 307.6504160  +6.3398460     938.6841     1355.233     1837.652     84.08894     168.3799     337.4321      1.543     4.64     1030.301     59.50748     124.2843        10     1.103     0.714 -87.68   3
       123    606.2352    850.5228 307.6495556  +6.3418289     2553.789      3814.15     3983.063     84.49224     168.9174     337.6335      1.513     3.52      1030.01     59.50748     409.7954        20     1.382     0.853 -69.58   3
       124    312.4272    871.9885 307.7708494  +6.3231399     777.6842     1136.821     1136.214     84.22359     168.6489     337.5328      1.641     5.84     1036.943     59.50748     102.9081        10     1.112     0.862 -76.88   0
       125    928.6082    853.8732 307.5155589  +6.3511944     932.4821     1152.564     1466.695     84.22359     168.3799     337.4321      1.308     3.94     1021.805     59.50748      141.973         7     0.958     0.472 -81.38   0
       126    889.8397    848.6396 307.5318352  +6.3520644     3640.685     5001.948     5252.093     84.35802     168.9845     337.4656      1.413     3.03     1022.791     59.50748     625.9719        22     1.240     0.936 -79.74   0
       127    638.3781    861.8284 307.6358271  +6.3382342     4134.269     5866.335     6058.571     84.08894     168.6489     337.4992      1.514     3.45     1029.371     59.50748     531.9138        22     1.291     0.963 -84.59   0
       128    299.9796    849.3997 307.7767794  +6.3320493     978.9317     1508.031     1175.814     84.22359     168.5144     337.2641      1.623     3.66     1036.844     59.50748     138.6815        10     0.995     0.677 -61.25   0
       129    347.9889    844.6052 307.7570032  +6.3356367     2820.401     4027.361     4167.347     84.22359     168.5816     337.4992      1.540     4.10     1035.999     59.50748     361.5715        20     1.391     0.833 -81.11   0
       130    484.3064    834.4221 307.7007337  +6.3444021     3234.754     4532.941     4709.394     84.62625     168.6489     337.3985      1.514     3.41     1033.044     59.50748     433.3225        21     1.266     0.940 -76.88   0
       131    829.0751    833.9285 307.5575645  +6.3561143     1146.143      1530.67     1772.509     84.89363     168.9845     337.5999      1.565     5.43     1024.012     59.50748     165.3099        12     1.232     0.674  86.44   0
       132    531.1277    830.4882 307.6814210  +6.3475916     6553.562     9539.286     9940.551     84.76005     169.1185     337.6335      1.577     3.31     1031.339     59.50748      895.067        30     1.379     1.020 -73.00   0
       133    549.5756    831.9727 307.6737096  +6.3475952     881.3954      1360.18     1098.276     84.08894     168.6489     337.4321      1.529     4.74     1030.809     59.50748     120.4088         9     0.993     0.735 -57.59   0
       134    243.1945    830.3704 307.8010025  +6.3380033     907.7722     1195.716     1270.449     84.08894     168.6489     337.3985      1.427     4.54     1036.637     59.50748     135.9147         9     1.049     0.741  83.31   0
       135    866.6602    828.5992 307.5421332  +6.3595669     1496.134     2104.176     2372.098     83.81898     168.6489     337.2641      1.560     4.55     1022.238     59.50748     235.6599        14     1.355     0.745 -53.99   0
       136    538.1262    829.5693 307.6785453  +6.3482049     1339.527      1921.72     1556.019     84.49224     168.8503     337.5999      1.432     3.84     1031.112     59.50748     212.2115        11     1.097     0.699  87.00   0
       137    448.9688    829.3045 307.7155816  +6.3453333     1579.536     1968.298     1564.855     84.76005     168.6489     337.7006      1.400     2.97     1033.844     59.50748     241.4449        12     0.961     0.825 -25.35   0
       138     90.6868    828.7854 307.8643897  +6.3335423     1451.875     2197.896     2139.891     84.22359     168.5816     337.4656      1.591     4.90     1035.599     59.50748     213.1842        13     1.121     0.883 -89.40   0
       139    666.7003    827.5206 307.6252162  +6.3533449     896.7244     1172.998     1147.619     84.35802     169.1185     337.6335      1.457     3.55     1027.456     59.50748     144.8312         9     0.999     0.639  86.53   0
       140    501.7862    824.3652 307.6938124  +6.3491388     20578.37     30177.38     31362.68     84.08894     168.5816     337.4656      1.577     3.31     1032.015     59.50748     2777.274        45     1.476     1.088 -75.49   0
       141    915.4089    822.5701 307.5220886  +6.3636797     4371.165     5849.632      6010.16     84.08894     168.6489     337.3985      1.408     3.29      1020.99     59.50748      631.576        24     1.303     0.904 -83.20   0
       142    148.9199    823.7970 307.8403750  +6.3375560     602.2543     686.7913    -59.59129     83.95407     168.3126     337.3313      1.350     3.83     1036.646     59.50748     110.5938         5     0.813     0.518 -50.85   0
       143    387.6874    819.4878 307.7413620  +6.3473360     676.8596     989.4623     930.5825     84.35802     169.3864     337.7006      1.511     4.91      1035.02     59.50748     107.3027         6     0.982     0.696 -71.94   0
       144     35.6561    820.1653 307.8875336  +6.3352536     587.5677     774.9214     162.4546     84.49224     168.8503     337.6335      1.329     3.52     1035.522     59.50748     103.2006         5     0.825     0.432 -73.74   0
       145    294.4904    813.1286 307.7802806  +6.3468408     3431.695     5217.884     5293.061     84.49224     169.1185     337.5999      1.623     3.49     1036.579     59.50748     442.5769        26     1.431     0.994 -83.78   0
       146     12.3520    814.6212 307.8973985  +6.3367598     1429.217     2037.463     1633.259     84.22359     168.8503     337.4321      1.506     4.07     1035.487     59.50748     198.9197        13     1.184     0.839 -76.50   0
       147    556.9628    813.7322 307.6712544  +6.3553731     628.7586     775.6142     745.6282     84.49224     168.8503     337.7342      1.367     3.94      1029.68     59.50748      95.7793         5     0.860     0.518  54.61   0
       148    759.9238    808.8958 307.5871235  +6.3641448     60180.41     84054.65      87107.2     84.22359     168.9845     337.6671      1.466     3.21     1025.285     59.50748     9023.602        64     1.450     1.077 -76.47   0
       149    217.3002    806.6136 307.8125569  +6.3469438     5213.762     8461.999     10754.45     84.35802     168.5816     337.2977      1.908     3.68     1036.405     59.50748     656.0706        36     1.716     1.127 -71.02   0
       150    403.3351    807.3513 307.7352719  +6.3528706     870.6552     1210.582     1019.298     84.49224      168.716     337.5999      1.616     4.89     1034.697     59.50748     121.9679         9     1.054     0.644 -81.60   0
       151    885.2592    804.1304 307.5352280  +6.3702893     9913.824     13451.58     14296.18     84.76005     168.8503     337.5999      1.409     3.04     1020.515     59.50748     1679.316        32     1.349     0.936 -79.61   0
       152    688.1733    803.4697 307.6171051  +6.3639917     23079.07      33192.8      34732.2     84.22359      168.716     337.5328      1.551     3.11     1026.644     59.50748     3284.396        50     1.470     1.119 -78.39   3
       153    681.8903    799.9730 307.6198319  +6.3652258     93992.98     134616.8     140406.8     84.76005     168.5816     337.4656      1.499     3.31     1026.641     59.50748     13348.84        78     1.502     1.141 -73.39   3
       154    326.8292    800.9027 307.7672621  +6.3529718      20982.2     31512.17     32512.91     84.76005     168.5816     337.5999      1.580     3.31     1035.711     59.50748     2815.667        45     1.475     1.123 -77.74   0
       155    388.6664    798.7794 307.7416523  +6.3559187     22585.54     33893.43     34941.46     84.22359     168.8503     337.4992      1.615     3.38     1034.651     59.50748     2863.438        48     1.481     1.136 -73.27   0
       156    615.7118    800.2874 307.6473067  +6.3628867     842.4887     1224.463     1749.656     84.35802     169.3864     337.7006      1.594     4.32     1026.957     59.50748     151.0775         7     1.093     0.487 -62.15   0
       157    376.1616    800.9007 307.7467742  +6.3546244      1506.07     2160.656     2082.847     84.62625      168.716     337.8348      1.462     4.26     1034.894     59.50748     198.4106        12     1.118     0.767 -40.94   0
       158    216.7152    785.3861 307.8135154  +6.3556885     761846.2      1802734      1981825     84.22359     168.5816     337.4656      2.291     5.65     1035.755     59.50748     63628.22       535     2.411     1.966 -84.67   4
       159    925.7537    797.6343 307.5186268  +6.3743198     2494.671     3461.253     3741.657     84.22359     168.7832     337.5328      1.494     3.21     1019.926     59.50748     385.2994        18     1.298     0.764 -74.08   0
       160    592.4409    798.3621 307.6570361  +6.3629044     555.5087     626.6669     407.9215     84.35802     168.8503     337.4656      1.159     4.14     1027.576     59.50748     108.8209         6     1.060     0.473  80.87   0
       161    882.1040    795.4375 307.5368296  +6.3737734     7784.627     10707.51      11222.7     84.62625      168.716     337.7342      1.454     3.00     1020.261     59.50748     1295.105        27     1.295     0.907 -73.05   0
       162    854.9847    796.5886 307.5480545  +6.3723948     870.4006     1062.685     1290.875     84.22359     168.5144     337.5328      1.401     4.07     1020.931     59.50748     151.0663         8     1.108     0.523 -74.49   0
       163    622.7424    794.6518 307.6445759  +6.3654483     6798.688     9574.221     9825.597     84.62625     168.8503     337.5999      1.534     3.25     1026.773     59.50748     867.9716        29     1.367     0.980 -78.43   0
       164    411.4059    792.5888 307.7324167  +6.3592357      1691.72     2620.636     2899.061     84.22359     168.6489     337.4992      1.709     3.65     1034.075     59.50748     222.8972        19     1.251     0.945 -79.13   0
       165    136.9952    791.9335 307.8464020  +6.3503114     905.5016     1344.386     1048.247     84.08894     168.5816     337.3985      1.572     5.18     1036.143     59.50748     129.6686        10     0.930     0.894  53.93   0
       166   1005.1509    787.0255 307.4860052  +6.3813423      864.228       1031.7     1236.869     84.22359     168.9174     337.4992      1.149     2.37     1016.132     59.50748     171.4604         8     0.793     0.633 -55.83   0
       167    850.7398    786.2740 307.5501631  +6.3765122     932.0364     1293.993     909.6735     84.76005     168.8503     337.6335      1.266     2.67     1020.829     59.50748     178.3359         8     0.902     0.576  75.97   0
       168    575.6524    786.5012 307.6644071  +6.3672408     944.1517     1168.216     1352.929     84.49224     168.8503     337.8348      1.292     3.00     1027.786     59.50748     151.1046         7     0.825     0.639  55.88   0
       169    657.6355    784.7584 307.6304161  +6.3706981     2695.998     3992.084     4227.936     84.35802     168.8503     337.4321      1.631     3.28     1025.984     59.50748     371.3434        18     1.176     0.887 -69.98   0
       170    127.0777    785.4731 307.8507386  +6.3526459     997.4796     1230.327     1781.969     84.89363     169.1185     337.6335      1.315     3.44     1035.818     59.50748     139.4841         8     0.818     0.690 -80.06   0
       171    101.7888    785.2259 307.8612493  +6.3518993     1075.794     1725.693     1590.288     84.22359     168.6489     337.4992      1.680     5.74     1035.382     59.50748     175.8945        13     1.358     0.908  80.84   0
       172    391.6319    781.4114 307.7410052  +6.3631889      54592.1     82402.51     85868.98     84.08894     168.5816     337.4656      1.655     3.36     1033.592     59.50748     7156.877        68     1.542     1.219 -73.39   0
       173    287.2605    783.9258 307.7842669  +6.3586557     745.1761     1912.265     3228.634     84.89363     168.8503     337.5999      3.717     8.23     1035.745     59.50748     104.8019        12     1.634     1.160  33.91   0
       174    934.4886    782.7546 307.5154970  +6.3807543     821.3511     1047.524     1327.342     84.62625      168.716     337.6335      1.350     3.88     1019.289     59.50748     152.6448         9     1.082     0.597 -57.12   0
       175    250.7608    782.5652 307.7994713  +6.3579944     604.0497     1580.102      3637.84     84.35802      168.716     337.3985      6.542     6.76     1035.632     59.50748     109.3058         8     1.620     0.791  -8.34   0
       176    426.1696    779.0292 307.7267414  +6.3653282     4586.894     6878.105     7738.563     84.08894     168.5816     337.3313      1.582     3.33      1032.84     59.50748     584.5144        26     1.363     1.004 -77.29   0
       177    754.5119    777.0134 307.5904402  +6.3771282     12455.74     17698.93     18126.96     84.35802     168.6489     337.4656      1.484     3.06     1023.506     59.50748     1740.236        37     1.392     1.010 -72.39   0
       178    563.7066    774.5554 307.6697698  +6.3717739     4099.489     6771.311     6389.386     84.49224     168.7832     337.7342      1.699     4.74     1027.701     59.50748     1182.054        10     1.836     0.347  74.72   0
       179    422.6591    772.3584 307.7284237  +6.3679650     2405.756     3580.825     4390.281     84.62625     168.8503     337.6671      1.641     3.45     1032.547     59.50748     312.5051        19     1.225     0.934  87.50   0
       180    509.4038    780.4032 307.6921265  +6.3675446       7145.4     10533.16     10788.56     83.95407     168.3799     337.3985      1.572     3.21     1029.806     59.50748     922.5271        31     1.359     1.059 -78.04   0
       181    776.1506    771.3374 307.5816432  +6.3801933     1395.581         1746     1296.198     84.62625     168.7832     337.6671      1.387     3.18     1022.579     59.50748     231.1959        13     1.013     0.836 -65.01   0
       182    120.5883    769.3679 307.8539771  +6.3590775     3053.019     4760.135     5010.019     84.08894     168.5816     337.4992      1.639     3.37      1035.46     59.50748     467.6812        23     1.354     0.971 -82.07   0
       183    112.4075    769.0741 307.8573845  +6.3589243      11749.5     17572.89      19305.4     84.22359     168.3799     337.4656      1.597     3.30     1035.356     59.50748     1525.686        37     1.461     1.050 -76.29   0
       184    104.4903    766.3824 307.8607633  +6.3597698     2965.591     4690.516     6048.828     84.35802     168.5816     337.4992      1.821     3.50     1035.234     59.50748     402.0154        20     1.286     0.919 -80.53   1
       185    949.0544    765.7637 307.5100159  +6.3882545     1708.104     2421.462     3080.598     84.49224     168.8503     337.6335      1.572     3.97     1018.141     59.50748     284.4688        14     1.302     0.722 -73.14   0
       186    900.0627    765.6246 307.5303690  +6.3866809     7176.062     9846.617     9402.771     84.22359     168.8503     337.5328      1.429     3.05     1019.462     59.50748     1148.831        26     1.270     0.913 -77.64   0
       187    655.5155    763.2487 307.6320186  +6.3795084     1816.527     2600.997     2901.368     84.62625     168.8503     337.6335      1.457     3.22     1024.782     59.50748      260.379        15     1.139     0.770 -61.74   0
       188    542.4847    762.5432 307.6789874  +6.3760243     2380.636     3497.235     4000.697     84.62625     168.8503     337.7342      1.560     3.38     1027.789     59.50748      329.738        19     1.305     0.834 -65.14   0
       189    390.2934    761.9290 307.7422168  +6.3711879     1092.491     1730.276     1856.881     84.49224     168.9174     337.5999      1.664     5.01     1032.533     59.50748     156.5626        13     1.289     0.931  83.85   0
       190    673.6369    760.6883 307.6245781  +6.3811704     560.2941     844.1013     893.0493     84.62625      168.716     337.5999      1.383     3.87     1024.145     59.50748     107.8066         5     0.959     0.477  85.79   0
       191    104.6786    759.8891 307.8609042  +6.3624570       1918.3     2909.298     3743.975     84.35802     169.1185     337.7342      1.642     3.43     1035.184     59.50748     276.0283        17     1.196     0.883 -78.15   0
       192    894.2512    757.5809 307.5330521  +6.3898086     3448.037     4634.953     4858.358     84.08894     168.9174     337.3985      1.420     2.97      1019.37     59.50748     569.9681        17     1.199     0.754 -74.98   0
       193    954.4346    756.8452 307.5080797  +6.3921160      2119.83     2736.507      3195.04     84.22359     168.7832     337.4992      1.313     2.94     1017.661     59.50748     321.0394        17     1.202     0.790 -73.90   0
       194    923.6892    756.8728 307.5208488  +6.3910811     3452.373     4976.155     4857.459     84.62625     169.1185     337.5999      1.488     3.15     1018.931     59.50748     477.1963        21     1.266     0.858 -83.80   0
       195    646.3820    756.6559 307.6360333  +6.3819255     1422.859     2213.323      2180.77     84.08894     168.7832     337.3313      1.657     3.90     1024.772     59.50748     206.0392        15     1.207     0.841 -69.10   0
       196    793.9196    754.8342 307.5748163  +6.3875997     1099.249     1485.488     1409.215     84.49224     168.9174     337.6335      1.416     3.32     1021.176     59.50748     206.0956        10     1.049     0.670  86.12   0
       197    219.1557    752.0943 307.8136241  +6.3695155     1861.018     3413.171     4403.145     84.62625     168.7832     337.7342      2.059     4.54      1034.49     59.50748     252.4266        21     1.332     1.091 -77.04   0
       198    869.0867    752.4173 307.5436770  +6.3911024     831.2448     1087.876     1360.602     84.22359     168.5816     337.4992      1.214     3.46     1019.607     59.50748     167.4907         7     0.949     0.561 -59.82   0
       199    656.1552    749.5591 307.6322124  +6.3851820     736.7837      1147.81     1305.588     84.35802     168.8503     337.4321      1.769     4.19     1024.057     59.50748     131.9877         6     0.967     0.576  68.39   0
       200    912.1366    747.1891 307.5259714  +6.3946948     1125.102      1136.07     947.1577     84.08894     168.6489     337.4656      1.235     2.90     1018.866     59.50748     212.8254         9     0.870     0.708 -81.57   0
       201    135.0957    747.0400 307.8487055  +6.3687828     803.2805     1184.998     1529.652     84.62625      168.716     337.7342      1.598     4.49     1035.163     59.50748     112.9459         7     0.972     0.591 -75.19   0
       202    885.8919    745.9287 307.5369143  +6.3943412     1226.481     1732.535     1230.574     84.49224     169.0515     337.5999      1.413     4.06      1019.24     59.50748     175.6719        13     1.217     0.737 -67.00   0
       203    938.6257    744.9059 307.5150455  +6.3965194     2837.013     3838.917     4266.338     84.76005     168.5816     337.4321      1.398     3.11     1018.069     59.50748     419.9335        17     1.249     0.774 -77.32   0
       204    658.1132    743.7809 307.6315931  +6.3876331     906.1582     1460.602     1546.006     84.35802     168.5816     337.4656      1.751     5.40      1023.64     59.50748     120.5892        12     1.269     0.746 -75.71   0
       205   1012.4976    738.8448 307.4845654  +6.4014801     8562.339     11567.24     12086.46     84.62625     168.7832     337.8013      1.390     3.10     1014.313     59.50748      1202.48        29     1.352     0.897 -77.23   0
       206    378.6253    739.9507 307.7478025  +6.3798717     639.2825      781.183      814.304     84.22359     168.9174     337.4992      1.429     5.02     1031.454     59.50748     115.2179         8     1.231     0.578 -47.38   0
       207    980.3150    738.2785 307.4979515  +6.4006433     1907.692     2652.314     2905.153     84.62625     169.1855     337.7006      1.412     3.45     1015.862     59.50748     351.4954        15     1.252     0.711 -85.97   0
       208    606.6877    737.9938 307.6531465  +6.3883054     616.1631     875.8856     839.1383     84.08894     168.5144     337.3313      1.757     4.19     1025.559     59.50748     80.39404         6     1.312     0.381 -77.88   0
       209    781.8746    736.7446 307.5804256  +6.3946671     1306.047     2022.936     1499.211     84.49224     168.7832     337.5328      1.505     3.83     1020.283     59.50748     197.9547        11     1.096     0.785 -66.92   0
       210    868.0866    733.9841 307.5447098  +6.3986800     1643.499     2220.208     2287.787     84.22359     168.5816     337.4992      1.425     3.34     1019.298     59.50748     228.4048        14     1.146     0.764 -73.17   0
       211    842.4564    729.0858 307.5555196  +6.3998485     1081.497     1380.068     1382.954     84.62625     168.8503     337.7677      1.493     4.05     1019.465     59.50748     163.3155        11     1.088     0.791 -81.82   0
       212     24.1189    724.2772 307.8955634  +6.3744549     2580.407     4244.566     4824.999     84.89363     169.1185     337.7342      1.806     3.77     1034.924     59.50748        322.7        22     1.442     0.954 -76.75   0
       213    825.0512    725.2384 307.5628778  +6.4008571     1805.915     2406.457     2245.283     84.35802     168.7832     337.5328      1.328     3.11     1019.531     59.50748     324.1949        14     1.132     0.749 -75.87   0
       214     88.1021    723.8007 307.8690067  +6.3768003     958.1606     1747.917     1977.775     84.08894     168.4472     337.2305      1.860     4.28     1034.629     59.50748     172.6725        10     1.094     0.645  85.18   0
       215    636.5459    712.9646 307.6415855  +6.3996366     6301.699     9438.295     10448.24     84.49224     168.8503     337.6335      1.621     3.42     1023.057     59.50748     784.1158        32     1.477     1.015 -68.47   0
       216    583.2657    712.1232 307.6637436  +6.3982045     1416.624     2300.715     2141.749     84.76005     168.8503     337.5664      1.857     4.07     1024.578     59.50748     180.9767        14     1.143     0.848 -67.85   0
       217    494.2655    712.3903 307.7007003  +6.3951197     713.8386     1068.734      820.994     84.08894     168.6489     337.4992      1.686     4.01     1027.458     59.50748     116.4139         6     1.063     0.606  75.54   0
       218    610.5455    708.7037 307.6525279  +6.4005276     2186.088     3203.487     3095.198     84.49224     168.8503     337.8348      1.645     3.64     1023.698     59.50748     279.5325        18     1.232     0.930 -63.61   0
       219     99.7043    709.0134 307.8646873  +6.3832950     3718.985     5854.517     6525.212     84.35802     168.5816     337.3985      1.707     4.18      1034.15     59.50748      462.287        26     1.485     0.956 -79.24   0
       220    973.6533    708.0585 307.5017298  +6.4128992     3042.375     4056.619     3938.767     84.76005     168.8503     337.5999      1.368     3.00     1015.206     59.50748     451.3098        17     1.152     0.799 -79.13   0
       221    222.1801    708.3088 307.8138442  +6.3876947     753.0059     1191.367     1482.325     84.49224     168.5816     337.4321      1.785     4.54     1033.174     59.50748     102.2427         8     0.930     0.654 -85.53   0
       222    753.5002    705.0329 307.5932743  +6.4068143     21147.05     30454.45      31486.1     84.62625      168.716     337.7677      1.530     3.18     1019.817     59.50748     2925.016        45     1.434     1.088 -73.76   0
       223    883.5634    704.6874 307.5392627  +6.4112918     4124.867     5779.074     5513.906     84.62625      168.716     337.5999      1.496     3.36     1018.164     59.50748     620.0793        23     1.335     0.899 -75.06   0
       224    480.8748    705.2171 307.7065033  +6.3976335     949.3399     1466.509     1434.076     84.08894     168.5816     337.4656      1.702     4.56      1027.66     59.50748     130.8319         9     0.972     0.759 -44.64   0
       225    452.7832    705.2643 307.7181693  +6.3966745     1243.374      1718.29      1795.88     84.08894     168.7832     337.4656      1.579     4.99     1028.449     59.50748     172.1216        13     1.201     0.846 -74.90   0
       226    298.7958    704.4065 307.7821549  +6.3918737     761.8079     941.9634     760.2394     83.95407     168.5144     337.4656      1.298     5.29     1032.081     59.50748     136.3428         9     1.177     0.694 -79.19   0
       227    227.1091    698.6918 307.8121212  +6.3918306     6054.866     9768.436     10626.06     84.62625     169.3864     337.6671      1.757     3.69      1032.91     59.50748     707.5173        34     1.479     1.139 -79.48   0
       228    634.0555    697.7972 307.6431292  +6.4058158     6855.782     10676.84     10952.98     83.95407     168.6489     337.2641      1.647     3.46     1022.415     59.50748     905.3914        34     1.425     1.113 -72.35   0
       229    616.4914    698.5652 307.6503987  +6.4049122     884.3935     1370.068     1284.289     84.76005      168.716     337.6335      1.753     4.60      1022.95     59.50748     135.2785         7     0.894     0.675  87.18   0
       230    893.7446    690.3100 307.5355153  +6.4175672     1440.047      2106.54     2420.233     84.49224     168.6489     337.7342      1.496     3.45     1017.254     59.50748     212.5067        12     1.049     0.744 -64.96   0
       231    705.7251    686.3344 307.6137454  +6.4129409     3635.837     5463.349     5866.781     84.76005     168.8503     337.5664      1.638     3.81     1020.188     59.50748     510.4695        24     1.499     0.874 -74.45   0
       232    660.9882    686.6576 307.6323165  +6.4113144     1233.573     1785.348     1988.356     83.95407     168.7832     337.2977      1.662     3.62     1021.306     59.50748     194.3703        12     1.089     0.795 -64.67   0
       233    972.0505    682.8569 307.5032388  +6.4232514     10109.23     13765.09     14661.36     84.62625     168.8503     337.5999      1.434     3.13     1014.443     59.50748     1601.811        32     1.368     0.892 -82.87   0
       234    910.6245    683.4998 307.5287320  +6.4209412     2710.333     3681.402     3882.826     84.76005     168.5816     337.4321      1.454     3.45     1016.117     59.50748     378.3431        20     1.304     0.864 -81.87   0
       235    960.6170    683.3453 307.5079717  +6.4226692     572.7267     797.4198     509.0141     84.08894     168.7832     337.3313      1.567     4.93     1014.631     59.50748      78.1272         5     1.120     0.614 -55.54   0
       236     49.5274    677.7354 307.8865828  +6.3945238     25341.64     39268.34     41692.93     84.62625     168.8503     337.6335      1.694     3.48     1034.005     59.50748      3259.76        52     1.546     1.188 -80.20   0
       237    510.7454    678.7504 307.6949865  +6.4095599      2011.05     3006.583     2929.229     84.62625     168.8503     337.6335      1.620     4.04     1025.485     59.50748     244.7657        18     1.253     0.925 -62.68   0
       238    479.6374    676.0899 307.7079967  +6.4096182     1249.738     1892.142     2001.854     84.62625     168.7832     337.6335      1.592     4.05     1026.454     59.50748     174.2938        15     1.153     0.945 -57.30   0
       239    900.3365    674.7159 307.5332995  +6.4242254     1106.614     1531.134     1780.448     84.76005     168.9845     337.5664      1.491     3.70     1016.375     59.50748     165.6418        10     1.181     0.557 -78.96   0
       240    519.5979    671.9888 307.6915368  +6.4126476     870.5186     1318.139     1468.834     84.22359     168.5144     337.3649      1.520     5.76     1024.891     59.50748      142.692        10     1.142     0.818 -64.94   0
       241    695.5109    669.9867 307.6185366  +6.4193498     3349.944     4697.293     4295.784     84.35802     168.5816     337.4656      1.507     3.38     1019.965     59.50748     452.3275        21     1.229     0.968 -75.80   0
       242    717.5139    668.0783 307.6094613  +6.4208719     4242.681     6339.706     6595.244     84.62625     169.1855     337.7006      1.613     3.28     1019.365     59.50748      580.809        23     1.318     0.942 -67.80   0
       243    548.8717    666.2667 307.6795700  +6.4159886     3110.253     4769.598     4981.259     84.62625     168.9174     337.6671      1.620     3.75     1023.622     59.50748     367.2948        25     1.398     1.017 -71.49   0
       244    385.1786    666.4210 307.7475557  +6.4104498     1335.837     1883.454     642.1257     84.35802     168.7832     337.5999      1.532     4.61     1028.672     59.50748     192.4285        13     1.154     0.808 -81.17   0
       245    990.3436    664.2657 307.4962624  +6.4315362     5651.688     7443.922     7432.116     84.76005     168.7832     337.5999      1.343     3.01     1013.484     59.50748     955.4215        22     1.226     0.821 -75.46   0
       246    293.1324    665.0736 307.7858323  +6.4079234     1403.823     2110.635     2032.756     84.76005     168.9845     337.5664      1.673     3.66     1030.918     59.50748     213.8977        15     1.202     0.822 -84.06   0
       247    209.7764    665.5930 307.8204361  +6.4049150      1714.37      2524.27     2667.386     84.08894     168.6489     337.4321      1.568     3.27     1032.189     59.50748     231.3439        15     1.020     0.930 -40.24   0
       248    955.7154    663.1597 307.5106833  +6.4308405      9401.74     13079.83     13756.49     84.62625     168.7832     337.5664      1.441     3.06     1013.943     59.50748     1360.732        31     1.287     0.976 -71.52   0
       249   1005.1499    662.1883 307.4901816  +6.4328866     813.3865     937.7877     760.3177     83.95407      168.716     337.2977      1.321     4.37     1013.159     59.50748     136.6808        10     1.190     0.617 -68.62   0
       250    675.7182    662.3745 307.6270133  +6.4218322     892.3947     1349.936     1109.474     84.49224     168.5816     337.5999      1.613     5.23     1020.224     59.50748     121.2784         9     1.062     0.727  74.65   0
       251     67.3830    659.5626 307.8797805  +6.4026264     882.5978     1147.381     1495.214     84.22359      168.716     337.3313      1.380     3.05     1033.391     59.50748     146.8103         7     0.798     0.673  72.51   0
       252    782.5287    656.9726 307.5828284  +6.4276258     1122.783      1725.28     1874.636     84.35802     168.7832     337.5328      1.458     5.99     1018.183     59.50748     166.8819        12     1.517     0.665 -65.82   0
       253    401.1627    657.6367 307.7412123  +6.4146116     2704.076     4290.766     4372.931     84.35802      168.716     337.3985      1.723     3.92      1028.13     59.50748     325.6594        23     1.365     1.000 -70.19   0
       254    114.2940    656.6329 307.8603957  +6.4054110     23748.98     36904.95     38744.34     84.76005      168.716     337.7006      1.692     3.52      1032.64     59.50748     2994.478        48     1.516     1.196 -79.50   0
       255    950.6271    646.2180 307.5133639  +6.4376663     7606.663     11418.46      12399.7     84.22359     168.6489     337.4992      1.603     2.97      1013.46     59.50748     1160.524        34     1.389     1.098  76.35   0
       256    544.2413    641.4525 307.6823273  +6.4260792     46335.29     72479.91     75869.16     84.62625     168.9174     337.5999      1.713     3.59     1022.823     59.50748     5452.051        69     1.597     1.249 -72.38   0
       257    908.3507    643.3610 307.5310206  +6.4374384     812.8974     900.5017      216.833     84.62625     168.8503     337.4992      1.196     3.62     1014.754     59.50748     143.3816         6     0.828     0.573 -42.64   0
       258    187.8589    643.1259 307.8302970  +6.4134559     654.4399      1037.88     1132.261     84.76005     168.8503     337.5999      1.553     3.87     1031.799     59.50748     94.74207         5     0.974     0.440 -44.58   0
       259    151.8253    638.0953 307.8454331  +6.4143241     2426.738     3671.176     3590.565     84.76005     168.5816     337.4656      1.613     4.00      1031.97     59.50748      295.155        23     1.451     0.950 -80.88   0
       260   1005.9661    641.3012 307.4905414  +6.4415378     105741.1       142169     147778.1     84.62625      168.716     337.7342      1.427     2.97     1012.013     59.50748     17929.74        81     1.434     1.078 -76.53   0
       261     44.3257    632.4803 307.8902716  +6.4130334      1395.12     2393.781     2714.889     84.89363     169.1185     337.6671      1.743     4.79     1033.308     59.50748     178.8138        16     1.364     0.863 -69.87   0
       262    441.5104    625.2780 307.7255423  +6.4293220     58816.33     94909.95     99430.23     84.35802     169.1185     337.7342      1.775     3.80     1025.884     59.50748     6680.893        73     1.626     1.292 -74.05   0
       263   1019.7456    624.4728 307.4853805  +6.4489445      3811.03     4913.019      4925.27     84.49224      168.716     312.1733      1.374     3.23      1010.68     59.50748     600.7776        19     1.231     0.779 -77.70  16
       264    627.0963    622.9277 307.6485339  +6.4364958     908.4692     1365.077     1293.719     84.35802     168.9845     337.5664      1.496     3.67     1019.651     59.50748      139.907         9     0.956     0.681 -79.64   0
       265    115.9784    620.1312 307.8609282  +6.4205379      1648.09     2555.896     2415.188     84.22359     168.7832     337.5664      1.615     4.73     1031.891     59.50748     188.0521        18     1.351     0.930 -40.70   0
       266    911.0682    618.0190 307.5307404  +6.4479923     679.2275     841.1203     596.0688     84.22359      168.716     337.5328      1.354     3.04     1013.775     59.50748     114.1544         5     0.643     0.577  -0.91   0
       267    587.6001    616.9312 307.6651412  +6.4376524     820.0044     1608.227     2102.284     84.08894     168.3126     337.3649      2.037     5.17     1020.385     59.50748     116.4007         8     1.132     0.666  54.59   0
       268    395.2914    617.1605 307.7450134  +6.4311268     762.7252     1120.569     1261.517     84.76005     168.7832     337.6671      1.764     5.38     1027.125     59.50748     104.5708         7     1.084     0.753 -29.72   0
       269    287.1221    614.6177 307.7900288  +6.4285540     2020.618     3252.318     3486.408     84.08894     168.5816     337.5328      1.767     4.40     1029.219     59.50748     237.0917        18     1.317     0.885  88.81   0
       270    713.4837    608.7122 307.6131272  +6.4452489     5184.643     7996.737     8254.361     84.35802     169.0515     337.6335      1.675     3.49     1018.081     59.50748     644.3741        31     1.410     1.083 -72.88   0
       271    767.0659    604.0170 307.5910272  +6.4489748     13892.93     20612.48     21173.18     84.08894     168.7832     337.4656      1.536     3.24     1016.777     59.50748     1961.793        38     1.423     1.069 -74.11   0
       272    984.2656    604.5696 307.5007848  +6.4559819     1020.522     1497.756     1880.431     84.35802     168.8503     337.5328      1.497     4.18     1010.835     59.50748     176.9415        12     1.344     0.571 -75.94   0
       273    509.3503    604.1920 307.6980727  +6.4402969     1155.047     1983.328     2067.885     84.08894     168.6489     337.2641      1.964     5.73     1022.666     59.50748     148.2622        17     1.505     0.894 -89.66   0
       274     12.0580    603.3689 307.9046572  +6.4239684     590.2517     872.4902     838.4758     84.49224     168.8503     337.5328      1.523     5.34     1033.442     59.50748      101.589         7     1.507     0.535 -81.25   0
       275   1006.7802    602.8026 307.4914913  +6.4574606     2270.126     3149.181     3501.502     84.22359     168.4472     337.3313      1.424     3.11     1009.837     59.50748     369.2734        15     1.151     0.765 -74.47   0
       276    591.0708    602.0428 307.6641997  +6.4439155      2621.55     4245.844     4416.687     84.49224     168.8503     337.6671      1.678     3.97     1019.812     59.50748     311.4429        25     1.425     1.020 -78.41   0
       277    907.9957    598.4708 307.5326714  +6.4559612     1234.191     1699.713     1679.832     84.22359     168.4472     337.4321      1.357     3.00     1013.189     59.50748     208.4927        12     1.014     0.736 -85.70   0
       278    349.6018    595.8463 307.7647091  +6.4383972     1019.308     1329.189     1591.023     83.95407     168.5144     337.1969      1.642     5.90     1027.313     59.50748     130.2937        11     1.183     0.828 -58.26   0
       279    203.8193    595.6686 307.8252683  +6.4335849      1193.27     1909.727     1884.288     84.22359      168.716     337.5328      1.708     5.48     1030.607     59.50748     150.8007        13     1.222     0.806 -30.49   0
       280    843.1388    587.3419 307.5599859  +6.4583957      3073.57     4263.041     4445.355     84.76005     168.7832     337.6335      1.484     3.65     1014.543     59.50748     441.6391        20     1.312     0.854 -82.36   0
       281    801.9161    584.6752 307.5771991  +6.4581228      2393.54     3701.773     3823.595     84.76005     169.1855     337.6671      1.668     3.75     1015.429     59.50748     297.0238        18     1.279     0.863 -81.36   0
       282    772.8093    580.7448 307.5894219  +6.4587751     2430.112     3832.917     4611.682     83.95407     168.7832     337.2977      1.849     3.44     1015.931     59.50748      324.348        20     1.323     0.940 -55.31   0
       283    715.0418    580.6884 307.6134203  +6.4568715     793.9613     1281.384     1985.153     84.62625     168.7832     337.6335      2.672     6.92     1016.953     59.50748     105.8391        12     1.610     0.834  47.88   2
       284    229.9537    579.6600 307.8149528  +6.4410708     6894.541      11755.4      12662.3     84.49224     168.8503     337.6671      1.827     3.73     1029.457     59.50748     788.6085        41     1.537     1.298 -79.96   0
       285    782.4697    575.8870 307.5855719  +6.4611030     158520.2     237204.6     247995.8     84.76005     169.1185     337.6335      1.620     3.31     1015.606     59.50748        21701       106     1.585     1.253 -74.27   0
       286    590.1685    578.0599 307.6653803  +6.4537875     444.2506     581.9601     310.9119     84.35802     168.9174     337.5664      1.138     3.80      1019.18     59.50748     85.31104         5     0.805     0.515 -37.37   0
       287    164.1101    574.2366 307.8424851  +6.4411015     53187.52     88269.29     93354.41     84.76005     168.7832     337.6335      1.782     3.73     1031.312     59.50748     6260.223        75     1.667     1.325 -77.38   0
       288     88.0844    570.5648 307.8741874  +6.4400657     5935.113     9528.002     9208.469     84.62625     168.7832     337.5664      1.713     3.66     1031.689     59.50748     743.6106        36     1.507     1.190 -73.77   0
       289    953.2484    567.5316 307.5149092  +6.4702423     1538.762      2067.47     1874.007     84.62625     168.7832     337.5999      1.401     3.81     1010.288     59.50748     231.5329        13     1.143     0.791 -50.86   0
       290    974.0022    566.2406 307.5063310  +6.4714661     715.5128     887.2284      1208.17     83.81898     168.5816     337.3313      1.313     2.72     1009.055     59.50748     131.0577         5     0.780     0.482 -57.29   0
       291    818.9698    563.2147 307.5708344  +6.4675520     4551.562     6738.512     6847.453     84.22359     168.5816     337.5328      1.546     3.36     1014.514     59.50748     645.5659        27     1.366     0.964 -71.25   0
       292    337.5228    561.3765 307.7708874  +6.4522244     15120.27     25596.36     27331.47     84.22359      168.716     337.5664      1.837     4.11      1025.51     59.50748     1700.913        52     1.611     1.302 -81.18   0
       293    427.7567    561.2540 307.7334097  +6.4552959     877.5337     1328.318     1286.471     84.62625     168.8503     337.5999      1.601     4.93     1023.433     59.50748     139.4412         8     1.089     0.666 -83.02   0
       294    139.5502    560.3066 307.8531565  +6.4460286      1837.84      2888.64      2560.77     84.49224      168.716     337.7677      1.699     3.85     1031.434     59.50748      239.422        19     1.287     0.974 -80.44   0
       295    503.8787    556.4406 307.7019512  +6.4598296     5796.146     9628.753      10235.2     84.49224     168.8503     337.6335      1.788     4.01     1021.151     59.50748     618.9512        35     1.524     1.217 -72.27   0
       296    772.9852    556.5679 307.5901597  +6.4687633     5776.027     8852.967     9502.836     84.22359     168.5816     337.4992      1.626     3.45     1015.209     59.50748     774.1222        31     1.410     1.059 -73.49   0
       297    214.4163    557.8583 307.8221418  +6.4495511     811.6097     1362.738     1561.079     83.95407     168.7832     337.3313      1.578     3.57     1029.236     59.50748     142.4818         6     1.137     0.365 -28.46   0
       298     77.0056    557.1899 307.8792407  +6.4452157     824.0584     1198.674     1224.534     84.08894     168.6489     337.4656      1.691     5.72     1031.676     59.50748     113.0667         9     1.155     0.874 -66.60   0
       299    362.3274    552.8799 307.7608701  +6.4565631     1261.795     2114.244     1954.949     84.89363     169.1185     337.6335      1.765     4.55     1024.406     59.50748     147.5515        15     1.210     0.918 -24.43   0
       300    150.9429    549.5000 307.8487890  +6.4508727     6094.563     10149.65      10664.1     84.35802     168.8503     337.8348      1.783     3.94     1031.388     59.50748     717.2236        35     1.524     1.170 -78.79   0
       301    548.5565    549.2778 307.6836330  +6.4642806     2193.139      4165.55     4291.507     84.49224     168.8503     337.5999      1.973     4.82     1019.441     59.50748     241.1644        30     1.528     1.265 -41.86   0
       302    789.6046    548.7571 307.5835178  +6.4725424     1257.025     1820.116     2085.147     83.95407     168.5144     337.2977      1.529     3.79     1014.745     59.50748     187.4414        12     1.134     0.725 -86.62   0
       303    246.1142    545.8930 307.8093787  +6.4555540     76462.23     130608.9     137334.3     84.49224     169.3194     337.7006      1.826     3.86     1027.659     59.50748     8700.681        85     1.683     1.368 -77.99   0
       304     22.5916    548.0817 307.9021501  +6.4471484     4649.201     7495.542     7496.993     84.22359     168.4472     337.4656      1.708     3.34     1031.882     59.50748     670.5864        31     1.458     1.104 -75.79   0
       305    535.4609    543.6348 307.6892626  +6.4661727     818.5886     1151.444     1558.514     84.62625     168.8503     337.5664      1.654     5.87     1019.697     59.50748     128.0596        10     1.330     0.788 -20.76   0
       306    230.2315    540.9796 307.8161417  +6.4570501     1239.058     1878.363     1993.898     84.08894     168.6489     337.4656      1.653     5.04     1027.864     59.50748      211.652        15     1.362     0.890 -37.74   0
       307    945.5978    539.5463 307.5190243  +6.4815425     1725.308     2331.527     2371.471     83.95407     168.5816     337.1969      1.374     3.69     1009.504     59.50748     277.0897        13     1.151     0.717 -74.64   0
       308    769.2007    538.2761 307.5923453  +6.4761895     15572.41     23570.83     24515.41     83.81898     168.2452     337.3985      1.612     3.34     1014.583     59.50748     2171.955        41     1.484     1.089 -76.71   0
       309    472.8799    536.6940 307.7154921  +6.4669458     35571.73        64991     69909.53     84.35802     169.1185     337.6671      1.948     3.95     1021.206     59.50748     3898.958        79     1.660     1.573 -64.57   0
       310    623.3314    535.2737 307.6530418  +6.4725609     854.6351     1476.855     1629.168     84.76005     168.9845     337.5664      1.823     5.55      1017.06     59.50748     116.5046        10     1.015     0.856 -25.29   0
       311    185.4583    532.9727 307.8350097  +6.4588543     1656.171     2693.688     2485.233     84.22359     168.9174     337.4656      1.688     4.30     1029.415     59.50748      202.239        16     1.220     0.934  85.15   0
       312     20.9206    533.2505 307.9033453  +6.4532155     1267.959      1918.91     2241.161     84.62625     168.9174     337.5999      1.816     4.31     1031.481     59.50748     189.0221        16     1.179     1.018  70.62   0
       313    695.0743    531.2376 307.6233746  +6.4766226     1199.353     2101.831     2244.634     84.49224     168.9174     337.6671      1.857     4.99     1015.225     59.50748      160.724        17     1.362     0.994  78.42   0
       314    642.9596    531.6839 307.6450086  +6.4746986     1431.597      2174.67     2252.652     84.62625     168.7832     337.5328      1.631     4.04     1016.387     59.50748     187.8679        18     1.288     1.004 -80.69   0
       315    632.8535    531.7117 307.6492058  +6.4743496      2830.07     4716.055      4888.18     84.62625      168.716     337.7342      1.743     3.85     1016.673     59.50748     351.9077        26     1.359     1.196  78.40   0
       316     52.4123    529.2405 307.8904000  +6.4559291     685.1804     1155.379     1068.835     83.95407     168.6489     337.3649      1.595     3.48     1031.185     59.50748     84.32947         5     0.772     0.452  71.92   0
       317    370.5458    527.2771 307.7583184  +6.4674091     1469.942     2288.409     2452.398     84.76005     168.8503     337.5999      1.695     4.89     1022.702     59.50748     165.2613        17     1.177     1.087  -9.65   0
       318    117.2346    524.2712 307.8636422  +6.4601574     23748.56     38973.04     40920.63     84.49224     168.7832     337.5999      1.756     3.69     1030.514     59.50748      3068.08        53     1.591     1.252 -77.15   0
       319    302.1212    525.5049 307.7868013  +6.4658488     3385.339      5748.69     5740.164     84.35802     169.1185     337.6335      1.777     4.08     1024.432     59.50748     388.5925        26     1.375     1.119 -83.69   0
       320    481.8976    524.9344 307.7121417  +6.4721027      1987.59     3156.853     3295.307     84.62625     168.9174     337.6335      1.688     4.23     1020.305     59.50748     251.6056        16     1.205     0.900 -46.63   0
       321   1020.3534    524.7241 307.4884651  +6.4901501      1323.18      1676.69     1530.471     84.49224     168.9174     304.7899      1.200     2.77     1005.039     59.50748     228.2549        11     1.000     0.670 -66.35  16
       322    845.2576    524.0487 307.5612269  +6.4845993      1804.19     2670.689       2522.9     84.62625     168.8503     337.7006      1.551     4.47     1012.524     59.50748     253.3243        17     1.286     0.920 -59.01   0
       323     82.3348    522.5475 307.8781970  +6.4596973     2432.414     4005.822     4396.906     84.62625     168.7832     337.5664      1.806     4.21     1030.811     59.50748     306.0374        24     1.397     1.122 -78.89   0
       324    319.3952    520.8236 307.7797835  +6.4683604     915.0253     1509.102     1853.729     84.08894     168.5816     337.4321      1.882     5.78     1023.641     59.50748     131.7297        14     1.422     1.081 -85.77   0
       325    942.6512    518.8226 307.5209423  +6.4900010     5407.762     7573.533     7663.349     84.08894     168.8503     337.4656      1.452     3.22     1008.943     59.50748     726.6973        23     1.304     0.868 -84.33   0
       326    515.7202    511.3163 307.6985496  +6.4788565     1416.353     2354.783     2455.625     84.49224     169.1185     337.7006      1.834     5.21     1018.661     59.50748     178.3426        16     1.254     0.994  82.38   0
       327    414.1965    505.3717 307.7409233  +6.4779146     37099.19     63517.14     66381.13     84.08894     168.5816     337.4321      1.825     3.91     1020.348     59.50748     4127.329        68     1.661     1.329 -76.48   0
       328    622.1786    505.0517 307.6545358  +6.4850006     10739.31     17797.85     18233.28     84.08894     168.8503     337.3985      1.765     3.85     1016.081     59.50748     1286.841        44     1.553     1.221 -68.58   0
       329    261.8972    505.9734 307.8041684  +6.4725648     697.6698     1163.055     1297.923     84.76005     168.5816     337.5328      1.942     5.74     1024.257     59.50748     84.48193         8     1.263     0.734 -43.18   0
       330    179.4051    502.9871 307.8385358  +6.4710314     16827.56     30015.24     31374.87     84.22359     168.5816     337.4656      1.901     4.06     1027.718     59.50748     1824.007        59     1.644     1.403  84.67   0
       331    145.2962    504.1281 307.8526657  +6.4694158     1358.041     2318.766     2055.265     84.49224     169.0515     337.5664      1.769     5.52     1029.042     59.50748     169.7965        17     1.344     0.947 -72.32   0
       332    956.1453    503.4093 307.5158525  +6.4968142     1118.906     1692.079     1661.531     83.95407     168.7832     337.2977      1.779     4.76     1007.825     59.50748     170.3323        11     1.314     0.654 -80.54   0
       333    796.3789    502.8492 307.5822430  +6.4917231     863.2552     1416.178     1166.525     84.08894     168.9174     337.4656      1.587     4.52     1012.538     59.50748     118.8236         9     1.229     0.472 -84.27   0
       334    544.0782    501.9242 307.6870851  +6.4836823     2447.656     4155.182     4377.625     84.89363     169.1185     337.7006      1.769     3.94     1017.603     59.50748     284.2479        24     1.349     1.084 -65.62   0
       335    884.5271    502.6506 307.5456304  +6.4947426     847.8273     1262.461     1613.969     84.62625     168.9174     337.6335      1.707     5.78     1010.491     59.50748     138.0248        10     1.184     0.801  76.46   0
       336    917.8515    498.8551 307.5319135  +6.4974196     4943.671     7266.114     7683.902     84.62625     168.8503     337.5999      1.562     3.28      1009.18     59.50748     664.0966        26     1.378     0.947 -75.45   0
       337    591.1265    497.3199 307.6676952  +6.4871555     5907.869     9625.463     10127.25     84.89363     169.1185     337.6671      1.746     3.77     1016.543     59.50748     640.1284        34     1.456     1.178 -69.64   0
       338     78.6470    497.8493 307.8805629  +6.4697705     1096.572     1782.728     1583.629     84.62625      168.716     337.6335      1.727     4.04     1030.015     59.50748     148.3307        14     1.116     0.892 -61.66   0
       339    940.3096    491.2321 307.5228389  +6.5013149     3486.828     5011.502     5262.334     84.76005     168.6489     337.5999      1.516     3.14      1008.06     59.50748     557.5428        21     1.195     0.913 -75.59   0
       340    503.1435    488.6445 307.7045365  +6.4877966     6525.932     11098.44     11084.13     84.62625     168.8503     337.5999      1.805     3.92     1017.795     59.50748     685.1152        36     1.544     1.199 -74.25   0
       341    718.3331    489.3967 307.6151167  +6.4946742     586.4259     619.4852     387.6239     83.95407     168.5144     337.3985      1.505     4.98     1013.275     59.50748     95.68683         8     1.004     0.787 -63.09   0
       342    379.7977    489.7017 307.7557404  +6.4832328      678.184     1033.585      702.601     84.08894     168.5816     337.2641      1.363     3.69     1020.317     59.50748     99.93494         5     0.988     0.396 -85.77   0
       343    349.2592    488.8024 307.7684566  +6.4825815     2405.076     4101.468     4366.062     83.95407     168.5144     337.2977      1.806     4.05     1021.062     59.50748     276.4679        25     1.345     1.155 -86.07   0
       344    859.5474    484.4737 307.5566169  +6.5014155     3347.646     4706.896     5571.638     84.62625     168.9174     337.6335      1.593     3.27      1010.45     59.50748      425.359        22     1.280     0.922 -74.97   0
       345    512.2228    485.9749 307.7008546  +6.4892024     562.9943     940.6367     1202.114     84.08894      168.716     337.5664      1.981     3.95     1017.477     59.50748     83.43518         5     1.302     0.343 -24.80   0
       346    206.8549    483.6519 307.8277855  +6.4799351     613.5671     1104.047     612.3884     84.62625     168.8503     337.5999      1.782     4.53     1024.993     59.50748      93.4248         5     1.237     0.472  56.40   0
       347    867.0474    478.9642 307.5536858  +6.5039402     1981.301     2811.678     3117.782     84.22359     168.8503     337.5328      1.506     4.12     1010.093     59.50748     272.7791        14     1.238     0.725 -70.41   0
       348    906.4531    478.1751 307.5373415  +6.5055786     1289.535      1758.77     2100.195     84.08894     168.8503     337.4992      1.512     3.41     1008.713     59.50748     197.2107        11     1.128     0.650 -50.27   0
       349     86.0191    478.2419 307.8781628  +6.4781133     790.0876     1209.715     1119.716     84.08894     168.6489     337.3649      1.591     5.50     1029.281     59.50748     91.72864         8     1.019     0.837 -61.13   0
       350    691.0803    474.9360 307.6269237  +6.4997353     2894.529     4481.742     4870.705     84.89363     168.9174     337.5664      1.685     3.97      1013.19     59.50748     304.4681        22     1.320     0.996 -75.04   0
       351    245.5732    476.5002 307.8119430  +6.4841862     548.9828     597.1906     704.4281     84.62625     168.5816     337.4992      1.217     3.89     1022.869     59.50748     100.9607         5     0.928     0.536  43.47   0
       352     52.6305    473.8920 307.8921791  +6.4787878     1801.458     3030.198     3053.782     84.76005     168.6489     337.5664      1.787     4.53     1029.485     59.50748     221.0436        21     1.290     1.157 -38.33   0
       353    402.4150    473.1790 307.7469012  +6.4908118     923.0523     1563.612     1785.741     84.35802     168.5816     337.4992      2.059     6.10     1018.678     59.50748     115.7748        13     1.526     0.686 -48.98   0
       354    361.8932    473.1110 307.7637369  +6.4894832     3108.949     5516.744     5879.306     84.62625     169.3194     337.6671      1.881     4.32     1019.701     59.50748      341.494        29     1.484     1.171 -71.18   0
       355    589.6840    469.6797 307.6692233  +6.4985195     8798.268      14841.5     15699.57     84.49224     169.1855     337.7006      1.801     3.94     1015.416     59.50748     1002.516        42     1.592     1.208 -76.12   0
       356    752.6227    465.8859 307.6016606  +6.5055254     15401.87      24024.2      26908.8     84.62625     168.6489     337.4656      1.754     3.88      1011.95     59.50748     2054.901        57     2.073     1.172 -57.37   0
       357    272.1960    466.3552 307.8012258  +6.4892672     2254.126     3792.099     3698.841     83.95407     168.5144     337.2641      1.801     4.40     1021.285     59.50748     257.8401        23     1.391     1.074 -72.14   0
       358    781.1477    463.1553 307.5899018  +6.5076042     1111.316     1764.944     1634.361     84.62625     168.7832     337.5999      1.621     3.90     1011.276     59.50748     173.7263        12     1.103     0.817 -78.61   0
       359    355.1358    462.6740 307.7668955  +6.4935660      1378.87      2763.78     3223.209     84.76005     168.8503     337.5999      2.101     6.25     1019.106     59.50748     176.0793        19     1.401     1.126  68.95   0
       360    937.5402    460.9963 307.5250019  +6.5137067     2051.216     2786.339     2869.088     83.95407      168.716     337.3313      1.399     3.45     1006.911     59.50748     278.0744        17     1.252     0.794 -68.78   0
       361    685.8574    459.9838 307.6295954  +6.5057345     563.8184     874.5226     634.2197     83.95407     168.7832     337.3313      1.446     3.84      1012.87     59.50748     87.67761         5     0.822     0.515 -32.68   0
       362     89.8352    458.0899 307.8772582  +6.4865615     3935.896     6648.298     7142.019     84.76005     168.7832     337.5999      1.783     4.22     1028.482     59.50748     421.8752        31     1.491     1.173 -80.15   0
       363    728.1206    457.1763 307.6121319  +6.5083041     2088.555     3147.789     3342.511     84.22359     168.5816     337.5664      1.587     4.70     1012.181     59.50748     242.1728        18     1.385     0.870 -66.27   0
       364    343.6038    458.6326 307.7718222  +6.4948483     600.2636     1101.797     1707.681     83.81898      168.716     337.3649      1.754     3.87     1019.025     59.50748     81.38348         5     0.996     0.431  75.12   0
       365    991.6348    455.6852 307.5027062  +6.5177001      4192.34     6793.827     7545.061     84.62625      168.716     337.5664      1.790     3.85     1004.481     59.50748     485.0615        30     1.330     1.245  34.58   0
       366    247.6365    455.3083 307.8118005  +6.4930049     1412.125     2273.292     2822.939     84.76005     168.7832     337.6335      1.924     5.03     1021.809     59.50748     149.0023        14     1.084     0.951 -56.70   0
       367    325.8882    452.7382 307.7793802  +6.4966886      2645.63     4718.894     4501.357     84.62625     169.0515     337.6671      1.857     4.51     1018.986     59.50748     303.3474        29     1.476     1.218 -82.99   0
       368    681.7745    450.7176 307.6316027  +6.5094241     1437.057     2210.982     2729.731     84.49224     168.5816     337.5999      1.693     4.27     1012.692     59.50748     178.1732        14     1.126     0.888 -73.96   0
       369    213.7844    448.4658 307.8260938  +6.4946947     789.3307     1365.083     939.0256     84.08894      168.716     337.5328      1.757     5.07     1023.085     59.50748     112.3419         9     0.993     0.731  29.58   0
       370    523.5175    443.2393 307.6975997  +6.5072247     896.9147     1516.177     1722.399     84.62625     168.9174     337.5328      1.741     5.23     1014.982     59.50748     153.5418         7     1.028     0.783  55.18   0
       371    807.7543    440.6433 307.5796032  +6.5177862     1419.261     2092.205     2078.313     84.62625     168.8503     337.5328      1.536     3.40     1010.067     59.50748     201.1724        14     1.063     0.873 -73.58   0
       372    445.4692    441.7133 307.7300746  +6.5052442     1260.922     1855.998     1961.654     84.76005     169.1185     337.6335      1.655     4.35         1016     59.50748      167.244        14     1.208     0.822 -34.31   0
       373    793.6353    439.7352 307.5854994  +6.5176904     2068.091      2999.43     3237.519     84.49224     168.8503     337.6335      1.670     3.17     1010.342     59.50748     290.9963        18     1.161     0.920 -56.73   0
       374    690.8396    437.8971 307.6282671  +6.5150200     13767.43     21868.07     22798.88     84.62625      168.716     337.8013      1.693     3.56     1012.221     59.50748     1615.832        45     1.565     1.176 -72.42   0
       375    611.9481    433.9412 307.6611749  +6.5140190     2126.371     3424.115     4067.704     84.62625     168.8503     337.5999      1.814     4.30     1013.123     59.50748      234.934        22     1.313     1.100 -76.13   0
       376    584.3641    429.0069 307.6728001  +6.5151347     10725.79     25422.79     30916.83     83.95407     168.5816     337.3649      2.517     6.38     1013.385     59.50748     1424.966        74     2.385     1.527  38.43   0
       377    916.1104    427.7974 307.5350169  +6.5267005     3962.864     5849.639     5759.979     83.95407     168.5144     337.3313      1.535     3.47     1006.482     59.50748     548.6896        22     1.256     0.928 -73.95   0
       378    355.2840    423.7930 307.7681436  +6.5096239     24467.97     42897.22     45572.04     84.22359     168.5144     337.4321      1.868     4.13     1016.089     59.50748     2735.457        61     1.644     1.351 -76.71   0
       379    871.7368    423.2444 307.5536048  +6.5271024     1388.742     2373.958      2910.29     84.62625     168.7832     337.6335      2.364     4.69     1007.974     59.50748     191.7772        17     1.432     0.838  66.08   0
       380    101.2453    423.1448 307.8736984  +6.5013723     2004.298     3242.708     3822.285     84.62625     168.8503     337.5999      1.842     4.19     1026.844     59.50748     235.2435        21     1.217     1.133 -82.40   0
       381     35.0078    419.1630 307.9013486  +6.5007913     1211.112     2292.664     2366.288     83.81898     168.5816     337.3313      2.004     6.18     1028.063     59.50748     168.2563        18     1.580     0.994  83.23   0
       382    884.8870    418.1998 307.5483105  +6.5296233     4891.398     6985.594     6854.239     83.81898     168.3126     337.2305      1.491     3.45     1007.299     59.50748     701.9175        24     1.307     0.910 -73.01   0
       383    212.8580    414.3491 307.8276294  +6.5087494     12164.43     20785.79     22197.79     84.62625     168.8503     337.5999      1.841     3.97     1021.719     59.50748      1348.36        45     1.609     1.254 -82.72   0
       384    941.3088    416.0931 307.5249401  +6.5323721     489.5257     738.5472     880.2236     84.62625     169.3864     337.5999      1.363     3.44     1004.849     59.50748      105.352         5     0.812     0.421  74.03   0
       385     48.7295    408.1080 307.8960220  +6.5058165     772.0974     1340.595     1311.556     84.49224     168.9845     337.6335      1.559     4.88     1027.396     59.50748     114.1156         7     1.209     0.558  69.78   0
       386    707.4059    407.7787 307.6223957  +6.5280083      734.694     1312.408     1866.626     84.22359     168.5816     337.3985      1.916     3.49     1010.979     59.50748     120.6116         5     1.044     0.337  68.83   0
       387    676.5992    407.3232 307.6352098  +6.5271681     672.0022     1014.471     595.3047     83.81898     168.2452     337.3313      1.669     4.17     1011.298     59.50748     77.44568         5     1.020     0.486 -86.08   0
       388   1017.5515    404.8600 307.4936399  +6.5395475     9748.518     13489.83     13712.89     84.62625     168.8503     332.9017      1.441     3.13     1000.069     59.50748     1416.651        31     1.334     0.940 -77.96  16
       389    936.1066    406.3247 307.5274285  +6.5362322     1115.696     1571.559      1461.74     84.49224     168.9845     337.5999      1.498     3.57     1004.726     59.50748     156.6068        11     1.055     0.750 -79.58   0
       390    158.5719    404.9422 307.8504985  +6.5108119     661.3319     913.1938     931.0926     84.22359     168.9174     337.4992      1.623     6.24     1023.672     59.50748     95.21912         7     1.092     1.002 -37.13   0
       391    113.1790    403.0706 307.8694188  +6.5100609     4279.631     7661.379     8088.665     84.22359      168.716     337.5664      1.885     4.11     1025.547     59.50748     524.3678        35     1.612     1.164 -80.85   0
       392    325.8717    404.2158 307.7810219  +6.5167216     1086.536     2004.378     1925.288     84.08894     168.7832     337.4992      1.865     5.10     1016.089     59.50748     140.4094        12     1.104     0.925 -83.30   0
       393    217.9567    402.1570 307.8259225  +6.5139541     1237.169     1921.446     2167.975     84.35802     168.8503     337.4656      1.621     4.07     1020.889     59.50748     155.6195        13     1.139     0.869  83.96   0
       394    135.1756    399.0045 307.8604183  +6.5124781      2092.42     4014.539     4475.192     84.08894     168.5816     337.4321      2.047     5.41     1024.512     59.50748     251.9983        29     1.684     1.162 -68.77   0
       395    799.2628    399.0783 307.5845250  +6.5346647      778.858     1182.706     717.7675     84.89363     168.9174     337.5999      1.464     5.15     1009.116     59.50748     123.4081         8     1.188     0.631 -59.67   0
       396    530.6694    398.0410 307.6961483  +6.5261252      809.074     996.6002     536.6491     84.49224     168.8503     337.6671      1.522     4.71     1012.235     59.50748     129.6379         7     0.953     0.661 -84.48   0
       397    358.7654    393.4528 307.7677193  +6.5222672     2009.827      3330.85     3940.375     84.49224     168.8503     337.4992      1.916     5.03     1014.742     59.50748     230.6719        22     1.461     1.045 -67.75   0
       398    246.7984    393.3964 307.8142363  +6.5185383      781.189     1138.024     271.6774     83.95407     168.3799     337.3313      1.626     6.53     1018.992     59.50748     96.20044        13     1.228     0.974  61.32   0
       399    946.6079    392.7075 307.5235216  +6.5422042     901.8295     1555.566     1767.496     84.22359     168.5144     337.3985      2.020     5.86     1003.581     59.50748     148.0753        10     1.405     0.689 -47.76   0
       400      8.8713    388.0911 307.9132562  +6.5127414     2880.046     5002.012     5585.207     84.49224     169.0515     337.5999      1.925     4.30     1027.534     59.50748     387.5068        29     1.689     1.127 -60.19  16
       401    412.4150    387.1404 307.7456435  +6.5266697     6152.471     10844.91     11328.52     84.08894     168.7832     337.3313      1.880     4.31     1013.417     59.50748     679.5005        37     1.533     1.269 -70.76   0
       402    745.1596    385.9392 307.6074436  +6.5382852      1665.62     2844.214     3384.748     84.62625     168.8503     337.7006      1.790     5.16     1009.524     59.50748     200.3043        18     1.405     0.918 -75.21   0
       403    753.0078    384.4340 307.6042335  +6.5391685     12086.47     18898.95     19780.08     84.08894     168.6489     337.3649      1.651     3.47     1009.338     59.50748     1519.593        44     1.465     1.204 -78.70   0
       404    316.5045    382.8284 307.7856341  +6.5252380     1002.361      1971.35     2173.596     84.76005     168.5816     337.5664      2.116     6.49      1015.71     59.50748     115.1512        14     1.197     0.989 -46.05   0
       405    996.8911    379.4636 307.5030737  +6.5493460     3925.741     5340.569     5371.556     84.62625     169.0515     337.7006      1.442     3.30     1000.205     59.50748      583.827        23     1.294     0.874 -76.85   0
       406    161.7329    374.9306 307.8501982  +6.5233087     741.6687     1225.733     1301.709     84.62625     168.9174     337.5999      1.826     4.56      1022.89     59.50748     119.2342         6     0.977     0.605 -69.38   0
       407    878.3647    374.1610 307.5524961  +6.5475890     654.4295     641.7344      462.284     84.35802      168.716     337.3985      1.181     3.45     1005.644     59.50748     97.41522         5     0.813     0.422  70.57   0
       408    460.5885    370.7468 307.7261817  +6.5350504     2521.663     4215.057     4512.539     83.95407     168.7832     337.2977      1.831     4.44     1011.069     59.50748     281.2757        22     1.429     0.992 -81.96   0
       409    432.8722    371.5259 307.7376703  +6.5338013     1979.393     3247.064     3454.163     84.89363     168.9845     337.6335      1.802     4.36       1011.9     59.50748     239.3044        21     1.286     1.084 -50.08   0
       410    889.0894    370.4752 307.5481637  +6.5494681      867.298     1140.641     862.5082     84.62625     169.1855     337.7006      1.445     3.60     1005.079     59.50748     119.6965        10     0.999     0.675 -62.59   0
       411    818.3862    367.3568 307.5776436  +6.5483995     31731.35        50114     52247.86     83.81898     168.5816     337.3313      1.706     3.51     1007.635     59.50748     4312.521        58     1.585     1.195 -76.76   0
       412   1012.5068    365.1615 307.4970644  +6.5557708      755.116     814.2145     640.5752     84.76005     168.7832     337.6671      1.143     1.89     998.7422     59.50748     166.9957         5     0.672     0.461 -66.74   0
       413    310.6539    363.0276 307.7887320  +6.5332171      851.562     1698.113     1585.932     84.35802     168.9174     337.4992      1.934     7.50      1015.24     59.50748     107.8504        14     1.647     0.956 -83.29   0
       414    590.2258    359.8065 307.6726907  +6.5439020     2321.673     3685.514     4023.888     84.08894      168.716     337.3985      1.704     4.11     1008.877     59.50748     275.9401        21     1.259     1.049 -49.84   0
       415    674.8199    353.3597 307.6377611  +6.5493892     72026.95     117415.6     123818.2     84.22359     168.6489     337.3313      1.751     3.66     1008.179     59.50748     8057.672        80     1.625     1.309 -76.06   0
       416    833.0164    354.6380 307.5719916  +6.5541386     1104.427     1754.667     1154.924     84.22359      168.716     337.3313      1.513     4.80     1006.632     59.50748     138.6975        13     1.255     0.750 -75.66   0
       417     54.4082    352.8686 307.8955293  +6.5288136     1330.528     2269.558     2491.552     84.08894     168.5816     337.4992      1.765     3.55     1025.231     59.50748     216.9572        18     1.170     1.021 -82.03   0
       418    537.3327    350.3285 307.6949845  +6.5460474     2375.813     4089.958     5018.902     84.62625     168.9845     337.5664      1.966     4.41     1008.791     59.50748     285.7781        24     1.432     1.059 -66.96   0
       419    916.2440    350.4831 307.5375514  +6.5586270     816.8422     1069.341     907.9838     84.62625     168.8503     337.5664      1.588     3.77     1003.288     59.50748     149.2112         6     0.953     0.429 -89.00   0
       420     74.6161    348.9695 307.8872660  +6.5311022     5729.285     9739.549     10024.41     84.22359     168.5816     337.5328      1.812     4.00     1024.667     59.50748     702.2188        36     1.532     1.224 -82.91   0
       421    520.6863    346.2186 307.7020387  +6.5471877     6275.641     10750.95     11539.74     84.22359     168.5816     337.4656      1.843     4.11     1008.596     59.50748     679.3233        39     1.592     1.221 -76.01   0
       422    249.6602    344.0404 307.8147118  +6.5390118     2232.976     3852.906     3640.765     84.62625     168.8503     337.6671      1.790     4.18     1016.736     59.50748     262.4822        25     1.470     1.043 -82.97   0
       423    383.5054    341.4858 307.7591914  +6.5445514     22002.44     39003.22     41091.86     84.62625     169.2525     337.6671      1.924     4.23     1011.943     59.50748     2157.721        58     1.673     1.367 -78.71   0
       424    491.2929    340.4455 307.7144449  +6.5485882     1100.899     1988.998     2107.541     84.62625     168.7832     337.7342      1.988     5.83     1008.391     59.50748     121.1362        15     1.254     0.986  51.57   0
       425    561.8851    340.9948 307.6850976  +6.5507218     593.0978     903.4591     925.7281     84.08894     168.5144     337.2977      1.448     3.50      1007.88     59.50748     117.4228         5     0.661     0.570  -0.30   0
       426    363.7844    339.5680 307.7674493  +6.5446828     958.1141     1448.534     2612.916     84.22359     168.5816     337.4992      1.773     4.08     1012.707     59.50748     136.4631        10     1.062     0.858  32.52   0
       427    463.0070    336.6050 307.7263259  +6.5492276      1011.14     1745.083     2135.149     83.95407     168.5816     337.4321      1.831     3.90     1008.885     59.50748     132.2555        11     1.006     0.937  42.93   0
       428    472.6106    331.8400 307.7224962  +6.5515163     7161.987     12743.84     13452.69     83.95407     168.6489     337.3313      1.890     4.16     1008.232     59.50748     724.3859        41     1.580     1.300 -77.44   0
       429    741.5349    330.6253 307.6108059  +6.5610024     3046.438     4806.786     4884.338     84.22359     168.8503     337.4992      1.689     3.66     1006.685     59.50748     403.2498        24     1.356     1.019 -71.05   0
       430    896.9513    329.9915 307.5462538  +6.5664451     902.5399      1065.81     373.5069     84.08894     168.6489     337.2305      1.260     5.12     1003.141     59.50748     138.2949        10     1.144     0.726 -57.29   0
       431    689.2708    330.5506 307.6325231  +6.5592891     753.8922     1412.286     1750.692     84.62625     168.7832     337.6335      2.121     5.29     1006.733     59.50748     90.11853         7     0.924     0.857 -59.36   0
       432    760.6984    328.9595 307.6028996  +6.5623295     2257.567     2224.148     2094.293     84.62625      168.716     337.8348      0.838     1.67     1006.516     59.50748     789.3655         6     0.698     0.449  79.86   0
       433    299.4630    328.3458 307.7945503  +6.5471612     799.7604     1305.159      723.999     84.62625     168.7832     337.5664      1.801     5.82     1014.484     59.50748     104.8759         7     1.053     0.921  52.83   0
       434    134.7108    322.4390 307.8631962  +6.5440737     901.0351     1639.135     1561.854     84.62625     168.8503     337.6335      1.925     5.42     1022.279     59.50748     132.7595        11     1.285     1.187   6.88   0
       435    235.0372    322.5761 307.8215109  +6.5473834     667.4496     890.4966     1442.085     84.22359     168.5816     337.3649      1.538     4.20     1016.925     59.50748     86.93018         5     0.789     0.637 -84.30   0
       436    362.4915    316.0726 307.7687779  +6.5543401     6247.453     10771.78     11342.08     84.49224     169.0515     337.6335      1.865     4.23     1011.823     59.50748     620.5674        37     1.555     1.227 -80.97   0
       437    218.2135    316.6764 307.8286994  +6.5492549     1867.743     3356.365     3975.164     84.22359     168.5816     337.3985      2.116     5.63     1017.676     59.50748     201.8157        21     1.449     1.170 -85.35   0
       438    716.0082    315.8922 307.6219063  +6.5662337     880.9329      1486.47     1740.071     84.22359     168.5144     337.3985      1.663     4.60     1005.711     59.50748     120.9294        11     1.126     0.703 -61.62   0
       439    730.3149    311.9374 307.6160948  +6.5683439     50228.24      79959.7     83635.81     84.76005     168.9845     337.5999      1.715     3.61     1005.424     59.50748      6430.86        69     1.592     1.257 -76.35   0
       440    401.9319    311.4003 307.7525491  +6.5575899     1963.406       3341.6     3194.011     84.08894     168.3126     337.3649      1.771     4.48     1010.001     59.50748     261.2258        23     1.363     1.136 -69.78   0
       441    965.0363    308.7498 307.5186765  +6.5774827     1731.304     2218.288     1733.113     84.49224     168.7832     337.4992      1.362     3.19      998.362     59.50748     294.1375        12     1.096     0.651 -75.65   0
       442    548.3217    308.7736 307.6918162  +6.5635718      1107.88     2091.354     2404.547     84.49224     168.7832     337.5664      2.081     7.40     1005.592     59.50748     154.6028        18     1.441     1.101 -58.73   0
       443    439.2610    308.0041 307.7371543  +6.5602416     1001.279     1964.916     3012.278     83.95407     168.6489     337.2977      2.512     6.46     1008.276     59.50748     127.7376        15     1.550     0.757  73.79   0
       444    388.4613    306.9907 307.7582942  +6.5589594     1619.348     2806.747     2778.996     83.95407      168.716     337.3313      1.839     4.88     1010.406     59.50748     210.2606        20     1.353     1.057  72.88   0
       445    268.5268    306.6929 307.8081330  +6.5550640      592.889     1027.787     656.2151     84.49224     168.9845     337.6335      1.753     4.81     1015.107     59.50748      87.6366         6     1.066     0.614  31.43   0
       446    809.8239    301.7318 307.5834019  +6.5752096     1333.217     2030.611     1735.277     84.22359      168.716     337.5664      1.704     4.55     1004.551     59.50748     183.9861        13     1.301     0.723 -84.94   0
       447    906.2042    308.0101 307.5431459  +6.5758291     2477.207     3429.508     3373.211     84.08894     168.5144     337.4656      1.407     3.15     1001.864     59.50748     370.5087        18     1.195     0.864 -63.52   0
       448    941.6609    299.4722 307.5286997  +6.5805351     624.6327     971.4312      934.329     84.76005     168.8503     337.6671      1.732     4.02     999.4875     59.50748     96.05505         6     0.979     0.472  87.64   0
       449    419.0977    298.7173 307.7458442  +6.5634010     1020.332     1904.885     2451.678     84.62625     169.2525     337.6671      2.432     5.95     1008.807     59.50748      110.946        13     1.303     0.765 -61.60   0
       450    165.1272    298.1756 307.8513788  +6.5551121     2006.824     3616.599     4360.539     84.22359      168.716     337.5328      2.050     4.74     1020.209     59.50748     247.6557        24     1.434     1.184  89.89   0
       451    728.8290    296.4681 307.6172314  +6.5746813     5686.627     9062.077       9239.8     84.35802     168.8503     337.5328      1.683     3.71      1004.35     59.50748     696.0162        35     1.502     1.155 -82.59   0
       452    745.2309    294.4796 307.6104833  +6.5760496     2429.028     3791.704     3590.746     84.49224     168.7832     337.5664      1.709     4.44     1004.203     59.50748     305.2458        21     1.372     1.015  84.79   0
       453    318.3806    295.0823 307.7878118  +6.5615286     438.1278     901.5468     323.1169     84.22359     168.5144     337.5328      2.013     4.90     1012.714     59.50748      77.1413         5     1.438     0.472  85.24   0
       454     61.1773    295.8938 307.8946423  +6.5525637      808.075     1254.054      1413.57     84.62625     168.6489     337.4321      1.558     5.24     1024.666     59.50748     113.1571         8     1.021     0.759 -82.26   0
       455    334.5646    289.3644 307.7812805  +6.5644316         1351     3238.953     3157.645     84.35802     168.5816     337.3313      2.305     6.68     1011.826     59.50748     165.4177        28     1.727     1.236   9.83   0
       456     48.5225    289.8134 307.9001052  +6.5546488     1029.553     1925.218      1583.59     84.22359     168.5144     337.3985      1.922     7.57     1025.109     59.50748     118.4744        16     1.426     1.126 -64.69   0
       457    461.3470    285.4622 307.7287368  +6.5702876     1569.811     3148.811      2699.89     84.62625     168.7832     337.5664      1.995     6.56     1005.974     59.50748     166.9191        24     1.619     1.125 -70.06   0
       458    983.4331    285.2989 307.5118178  +6.5877775     6437.179     9214.294     9834.621     84.62625      168.716     337.7342      1.527     3.13     995.6942     59.50748     995.6713        28     1.357     0.967 -80.46   0
       459    224.0666    280.9137 307.8274741  +6.5642164     4841.721     8649.188     9408.122     84.62625     169.0515     337.6335      1.923     4.14      1016.84     59.50748     564.5342        34     1.581     1.187 -73.11   0
       460    743.2682    274.0765 307.6119836  +6.5844082     858.8185     1082.211      729.121     84.76005     168.9845     337.5664      1.358     4.63     1003.411     59.50748     106.6521         9     0.910     0.718 -24.26   0
       461    358.3562    271.5282 307.7719967  +6.5725927     1471.408     2899.284     2761.451     84.49224     168.8503     337.6335      2.014     5.42     1010.305     59.50748     172.8008        23     1.409     1.198  87.68   0
       462    945.1414    270.2535 307.5282323  +6.5927149     1144.709     1622.297     2091.357     84.76005     168.8503     337.5999      1.512     4.85     997.8845     59.50748     161.0339        11     1.218     0.600 -63.48   0
       463    280.4622    267.4789 307.8044965  +6.5716543     1079.117     1948.176     1689.604     84.76005     168.9174     337.5999      1.927     6.42     1013.976     59.50748     124.9727        15     1.438     1.036 -33.70   0
       464    127.8069    267.3036 307.8679262  +6.5666052     1685.704     2941.277     3219.386     84.35802     168.4472     337.3649      1.908     5.16      1021.17     59.50748     209.9924        16     1.146     1.061 -81.45   0
       465    537.5573    262.9858 307.6978285  +6.5821166     1909.158     3545.209     3682.112     83.81898     168.5816     337.3313      1.946     4.75     1003.014     59.50748     226.3756        20     1.399     0.970 -66.75   0
       466    881.0187    261.9971 307.5551526  +6.5939882     1802.505     3048.771     3833.838     84.22359     168.3799     337.3649      2.027     5.59     1000.872     59.50748      288.395        21     1.470     1.164  36.57   0
       467    641.8549    260.8672 307.6545644  +6.5864767     1897.912     3248.937     3461.885     84.62625     168.7832     337.5328      1.809     4.18     1003.093     59.50748     241.2976        22     1.365     1.056 -70.73   0
       468    701.2188    260.6291 307.6299066  +6.5885571     4515.408     7267.145     7892.658     84.22359     168.6489     337.5328      1.757     3.81     1003.115     59.50748     568.0825        28     1.418     1.067 -66.87   0
       469    939.1108    260.3009 307.5310714  +6.5966234     929.0128     1360.215     1267.348     84.62625     169.3194     337.5664      1.468     2.70     997.7922     59.50748     200.5554         9     0.915     0.641 -74.04   0
       470    357.1701    255.1646 307.7730408  +6.5793090     714.6362     1062.267     873.9706     84.22359     168.5816     337.3985      1.646     6.92     1009.762     59.50748     90.04852        11     1.325     1.012  80.64   0
       471    897.1603    252.5385 307.5487625  +6.5984312     1091.687     1511.962     1453.391     84.62625     168.8503     337.6671      1.599     4.28     999.6149     59.50748     160.0057        11     1.093     0.834 -79.70   0
       472    200.8629    246.0384 307.8382913  +6.5778369     2075.099     3511.887      3334.54     84.62625     168.7832     337.6671      1.763     4.26     1017.564     59.50748     253.7601        24     1.394     1.124 -85.77   0
       473    843.4667    244.8628 307.5713303  +6.5998113     1700.521     2385.072     3010.882     84.62625     168.8503     337.5999      1.624     3.99     1001.134     59.50748     232.5715        17     1.240     0.881 -68.58   0
       474    733.8315    244.2240 307.6169066  +6.5964188     1435.589      2070.16     1832.448     83.95407      168.716     337.3985      1.573     3.89     1002.589     59.50748     189.1931        12     1.084     0.748 -77.34   0
       475    434.6685    235.8357 307.7414919  +6.5898843     19240.53      34351.5     36749.51     84.49224     168.9174     337.7006      1.917     4.12     1004.766     59.50748     2017.906        62     1.687     1.401 -72.33   2
       476    440.2029    230.1411 307.7393842  +6.5924207     1264.734     2411.572     3077.497     83.95407     168.6489     337.3313      2.271     5.15     1004.189     59.50748     148.6121        15     1.244     1.036  68.19   3
       477    760.6557    234.9437 307.6060723  +6.6011454     12383.57     19739.16     21234.45     84.89363     168.8503     337.6335      1.730     3.55     1001.907     59.50748     1640.358        50     1.535     1.323 -59.40   0
       478    699.2581    230.8904 307.6317199  +6.6007701      699.876     1003.795     732.1595     84.49224     168.8503     337.7342      1.418     6.24     1002.226     59.50748     87.43774        10     1.203     0.910 -27.35   0
       479    123.0434    229.1201 307.8711948  +6.5822098      2044.99      3495.29     3979.416     84.62625     168.8503     337.5664      1.835     4.10     1020.548     59.50748     240.6975        23     1.275     1.183 -55.67   0
       480     98.1730    228.3812 307.8815528  +6.5816797     964.1867     1660.865     1432.149     84.22359     168.6489     337.4992      1.743     4.89     1021.747     59.50748     171.0447        11     1.142     0.920  45.95   0
       481    897.2579    225.2974 307.5496349  +6.6096819     1505.165     2355.192     2761.186     84.35802     168.7832     337.7677      1.667     4.34     998.1627     59.50748     204.2551        18     1.168     1.130  88.97   0
       482    558.7897    221.5843 307.6903988  +6.5999201     4024.229     6926.781     7225.008     84.35802     168.5816     337.4656      1.819     4.16     1001.295     59.50748     447.5367        32     1.542     1.182 -81.13   0
       483    521.4479    221.7246 307.7059099  +6.5986137     1787.998     2809.906     2759.407     84.49224     168.9174     337.5999      1.791     4.34     1001.376     59.50748     209.9893        18     1.247     0.988 -63.42   0
       484    363.4076    220.7951 307.7716072  +6.5937080     1128.549     2256.315     1908.629     83.95407     168.5816     337.4321      2.030     7.54     1008.325     59.50748     124.7993        18     1.393     1.150 -80.87   0
       485    279.2555    222.2662 307.8065223  +6.5902807     1055.299     1560.415     1757.644     84.76005      168.716     337.5999      1.542     5.28     1013.803     59.50748     130.1985        10     1.064     0.740 -52.11   0
       486    919.5827    218.6003 307.5405829  +6.6131906     2885.304     3886.293     3694.681     84.22359     168.3799     337.2641      1.449     3.13     996.6986     59.50748     393.1188        18     1.173     0.857 -79.65   0
       487    865.7178    218.1146 307.5629814  +6.6115967     11165.16     16495.23     16950.86     84.35802     169.1185     337.6671      1.555     3.32     999.4403     59.50748     1531.675        37     1.411     1.071 -73.57   0
       488    663.6296    215.9637 307.6470254  +6.6057435     2639.438     4389.308     5007.266     84.22359     168.5816     337.4321      1.844     3.85     1001.818     59.50748     355.5114        27     1.512     1.080 -73.44   0
       489    293.5785    218.6140 307.8006944  +6.5922687     864.1174     1541.344     1687.136     84.35802     168.6489     337.5328      1.854     5.84     1013.007     59.50748     98.67316        10     1.221     0.785 -86.48   0
       490    952.3076    215.9740 307.5270728  +6.6153647     10289.72     14840.49     15613.31     84.76005     168.5816     337.4321      1.495     3.01     995.2503     59.50748     1655.679        33     1.370     0.999 -76.07   0
       491    540.2691    218.3609 307.6982027  +6.6006318     612.7616     927.3304     1017.027     84.49224     168.8503     337.7006      1.608     4.55     1001.138     59.50748     91.31079         6     1.066     0.552  31.34   0
       492    185.0354    217.9505 307.8458153  +6.5889023     715.9166     953.6008     769.6473     84.49224     168.8503     337.5328      1.605     3.24      1017.81     59.50748     109.1607         7     0.881     0.519 -45.95   0
       493    238.2569    215.6606 307.8237797  +6.5916331      954.203     1451.392     1190.241     84.76005     168.7832     337.6335      1.671     5.31     1015.864     59.50748     115.2359        11     1.271     0.893  73.58   0
       494    472.2897    210.8197 307.7267024  +6.6014716      1609.58     2705.427     1947.774     84.49224     168.5816     337.4321      1.742     5.73     1001.865     59.50748      195.601        20     1.444     1.138 -74.02   0
       495    856.4663    206.7136 307.5672079  +6.6159957     2056.675     3119.656     3653.543     84.62625     169.0515     337.6671      1.765     4.56     999.0391     59.50748     253.2715        20     1.372     1.039 -79.68   0
       496    804.1523    207.6354 307.5889149  +6.6138712     1970.356     2933.273     3080.007     84.22359     168.7832     337.4992      1.550     3.55     999.8497     59.50748     290.1804        19     1.246     0.950 -73.54   0
       497    484.4026    206.6412 307.7218100  +6.6036021     2178.021     3699.956     3716.152     83.95407     168.5144     337.3313      1.813     4.42      1001.36     59.50748     252.7577        23     1.342     1.118  88.66   0
       498    715.8950    204.0708 307.6257075  +6.6123987      37184.3     59764.59     62663.51     84.49224     168.9174     337.5664      1.695     3.58     1001.416     59.50748     4319.597        60     1.562     1.258 -77.64   0
       499    319.0269    203.6027 307.7906267  +6.5993193     5278.004     11347.36     12907.21     84.08894     168.5816     337.3985      2.284     6.00     1011.436     59.50748     551.5453        47     2.169     1.212 -76.71   0
       500    949.6286    202.8996 307.5286239  +6.6206737      3087.16     4435.835     4815.998     84.62625     168.5816     337.5664      1.476     2.97     994.8412     59.50748     462.7875        18     1.205     0.840 -65.86   0
       501    883.7640    201.2104 307.5560494  +6.6191774     7675.828     11486.08     11864.74     84.08894     168.6489     337.3649      1.602     3.49     997.6852     59.50748     978.3159        32     1.447     1.008 -79.55   0
       502    427.3737    200.4631 307.7457140  +6.6042444     4205.949     7617.678     8097.279     84.22359     168.8503     337.5328      1.911     4.44     1003.238     59.50748     438.5521        34     1.508     1.256 -80.96   0
       503    988.0524    201.4883 307.5127048  +6.6225354     1855.065     2355.108     3012.879     84.62625      168.716     337.7342      1.375     2.98      993.355     59.50748     283.5537        14     0.996     0.865  74.31   0
       504     84.8010    191.6722 307.8883488  +6.5963862     4267.579     7608.672     7507.255     83.95407     168.3799     337.3985      1.866     4.24     1021.101     59.50748     488.3967        34     1.565     1.207 -78.69   0
       505    255.0499    188.3095 307.8177249  +6.6034886     28712.17     51534.92     54606.03     84.62625     168.6489     337.8013      1.920     4.05     1015.159     59.50748     3348.757        66     1.711     1.395 -80.12   0
       506    230.3704    189.3952 307.8279426  +6.6022127     5591.419      9944.28     10685.94     84.08894     168.6489     337.3985      1.883     4.45     1016.086     59.50748     630.9634        37     1.570     1.243 -79.72   0
       507    904.2538    190.4480 307.5478959  +6.6243036      962.536     1354.687     1724.502     84.62625     168.8503     337.6335      1.545     4.18      996.251     59.50748     161.9366        10     1.067     0.806 -87.72   0
       508    684.1444    187.8273 307.6394462  +6.6180454     841.1738     1215.941     880.2269     84.22359     168.9174     337.4321      1.585     3.82     1001.159     59.50748     127.8768         8     1.013     0.807  75.68   0
       509    379.1178    183.7822 307.7663266  +6.6095157     41772.16     75249.56     80116.34     84.22359     168.5144     337.5664      1.915     4.13     1006.392     59.50748     4578.875        74     1.711     1.404 -80.26   0
       510    134.9501    185.0561 307.8677358  +6.6008019     3510.026     6136.372     6252.969     84.62625     168.8503     337.6335      1.827     3.99     1019.114     59.50748     443.5276        29     1.483     1.141 -79.12   0
       511    396.6117    184.5586 307.7590315  +6.6097810     1160.773     1875.703     1975.237     83.95407     168.6489     337.2977      1.764     5.40     1004.654     59.50748     132.3984        14     1.245     0.932  85.81   0
       512    283.1154    181.5202 307.8062925  +6.6072327     15609.76     27782.31     29735.06     84.49224     169.1855     337.7006      1.899     3.99     1014.221     59.50748     1775.258        50     1.641     1.319 -74.46   0
       513    718.3289    179.9986 307.6255045  +6.6224188     30510.12     49289.78     51914.55     84.08894     168.3799     337.4321      1.730     3.69     1000.675     59.50748     3830.922        57     1.548     1.243 -78.73   0
       514    549.1803    182.9931 307.6956895  +6.6155322     590.9987     890.0792     856.8118     84.22359     168.5816     337.3985      1.473     4.45     1000.446     59.50748     75.68304         6     0.827     0.681  88.47   0
       515    290.6588    181.1570 307.8031705  +6.6076355     1736.062     3732.509     4599.621     84.49224     168.8503     337.7006      2.388     5.58     1013.874     59.50748     186.6598        25     1.467     1.243 -78.66   1
       516    666.5893    181.7970 307.6469434  +6.6199490     958.6647      1427.45     1112.753     84.22359     168.5144     337.4656      1.697     6.06     1001.097     59.50748     121.3428        11     1.105     0.935  -3.16   0
       517    766.6368    180.3261 307.6054200  +6.6238954      1213.72     1988.792     2068.179     84.49224     168.9174     337.6335      1.715     5.18     999.6022     59.50748     152.4117        14     1.094     0.928 -81.63   0
       518     35.2774    177.2047 307.9094141  +6.6006952     8207.275     13971.94     14818.29     84.22359     168.3126     337.3985      1.824     3.89     1024.943     59.50748     1042.287        41     1.590     1.218 -83.73   0
       519     69.2890    175.4266 307.8953428  +6.6025722     1309.188      2088.43     2135.507     84.76005     168.5816     337.4656      1.730     5.45     1021.962     59.50748     168.8576        15     1.384     0.863 -75.99   0
       520    976.6194    174.0419 307.5183747  +6.6334871     1154.789     1567.431     2311.308     84.08894     168.6489     337.3649      1.416     3.21     992.7863     59.50748     174.6938        10     0.926     0.769 -71.76   0
       521    703.1048    168.6263 307.6322125  +6.6266060     620.1461     815.6189     916.6371     84.76005     168.5816     337.4656      1.336     3.48       1000.5     59.50748     90.54504         5     0.821     0.425 -19.14   0
       522    551.9843    164.6339 307.6951418  +6.6232060     743.9378     1198.724     1373.966     84.22359     168.5816     337.4656      1.755     5.83     1000.125     59.50748     101.3864         8     1.474     0.648 -48.37   0
       523    977.7566    160.5128 307.5183553  +6.6391108      2437.24     3555.478     3573.535     84.62625      168.716     337.6335      1.610     3.26     992.2801     59.50748       343.78        21     1.281     0.933 -79.09   0
       524    560.7978    158.0124 307.6917023  +6.6262344     885.8289     1689.215     2298.672     84.22359     168.5144     337.3985      2.064     5.56     1000.098     59.50748     119.1262        11     1.378     0.632 -74.13   0
       525    569.1487    156.2974 307.6882898  +6.6272217     1852.799     3051.016     3651.315     84.49224     168.8503     337.8348      1.863     3.96     1000.147     59.50748     218.9475        22     1.273     1.079 -89.54   0
       526    312.9389    157.3228 307.7947164  +6.6182227     979.8757     1772.069     1868.207     84.89363     168.9174     337.5664      1.939     5.96     1012.402     59.50748     117.2992        12     1.181     0.861  73.65   0
       527    253.9248    154.5921 307.8193297  +6.6173716     25897.88     46621.09     50040.51     84.22359     168.3126     337.3985      1.919     4.06     1015.342     59.50748     2876.997        66     1.718     1.429 -67.07   0
       528    685.5571    151.1744 307.6400903  +6.6332257     7415.076     11853.66     12761.49     84.22359     168.8503     337.4321      1.718     3.70     999.9426     59.50748     914.2488        37     1.462     1.184 -78.74   0
       529    163.4566    151.7282 307.8570167  +6.6155187     896.4614     1407.497     1561.475     84.76005     168.7832     337.5664      1.741     5.48     1018.187     59.50748     159.6326         8     1.283     0.659 -89.73   0
       530      1.0000    152.7582 307.9244826  +6.6096358     722.4333     765.1371     553.3977      68.1614     128.2714     247.7341      1.060     3.56     1028.329     59.50748     215.1097         5     1.267     0.289  90.00  24
       531     96.4314    148.2867 307.8849822  +6.6146890      4303.99     7554.079      8520.03     84.76005     168.6489     337.5328      1.939     4.14     1018.923     59.50748     538.8173        34     1.528     1.238 -70.83   0
       532    435.3572    145.4700 307.7442484  +6.6272167     1114.674     2045.278     1890.409     84.49224     168.8503     337.6671      1.979     6.74     1000.777     59.50748     154.2391        17     1.362     1.113 -67.73   0
       533    367.0276    144.3708 307.7726781  +6.6253824     3123.699     6053.724     6679.013     84.08894     168.6489     337.3985      2.066     4.76     1007.252     59.50748     337.0932        34     1.665     1.274  86.29   0
       534    331.6213    143.3230 307.7874255  +6.6246288     2796.512     4975.089     5046.856     84.22359     168.6489     337.5328      1.844     4.36     1010.868     59.50748     308.4569        28     1.502     1.161 -68.44   0
       535     85.9211    143.1995 307.8895211  +6.6164362     1483.996      2620.27     2795.967     83.81898     168.1779     337.3649      1.849     4.40     1019.851     59.50748     186.2755        19     1.313     0.998 -88.34   0
       536    647.1175    141.4522 307.6563901  +6.6359561      779.789      1437.11     1556.506     84.62625     168.8503     337.6671      2.007     4.81     999.8302     59.50748     129.7183         7     0.927     0.758  46.83   0
       537    978.4304    137.3758 307.5188502  +6.6486861     1618.477     2048.077     1832.851     84.08894      168.716     337.3985      1.419     2.88     991.0355     59.50748     275.2192        14     1.048     0.838  83.67   0
       538    645.1472    130.9923 307.6575603  +6.6402089     5486.683     9190.342     10088.54     84.08894     168.6489     337.2977      1.763     3.92     999.4523     59.50748     633.5514        34     1.479     1.174 -86.15   0
       539    183.3990    132.0807 307.8493937  +6.6242997     4756.962     8287.464     8599.355     83.81898     168.3126     337.3313      1.845     4.09     1017.089     59.50748     587.8378        33     1.460     1.237 -84.90   0
       540     66.2239    132.3265 307.8980728  +6.6202634     1934.836     3288.479     3761.675     84.22359     168.6489     337.5328      1.859     4.34      1021.54     59.50748      233.611        22     1.399     1.049 -86.40   0
       541    793.1009    131.0194 307.5960777  +6.6451358     889.1978     1332.716     1676.193     84.62625      168.716     337.3649      1.603     4.66     996.0957     59.50748     135.3149        10     1.213     0.618  81.72   0
       542    597.3157    128.2266 307.6775293  +6.6397528     8331.383     14262.11     15951.06     84.76005     168.5816     337.4656      1.886     4.01     999.8511     59.50748     915.6436        42     1.546     1.287 -85.33   3
       543    600.8245    119.6880 307.6763583  +6.6433954     48049.87     80084.16     85025.25     84.62625     168.6489     337.4656      1.807     3.80     999.7043     59.50748     5449.545        76     1.664     1.339 -72.77   3
       544    232.0847    129.1467 307.8292630  +6.6271446     636.5818     988.5208    -170.7039     84.62625     168.7832     337.7677      1.504     4.01     1015.916     59.50748     91.29974         6     0.972     0.473 -38.79   0
       545   1019.2951    125.4439 307.5022681  +6.6549725     714.9933     1363.768     1513.392     84.62625     168.7832     317.2859      1.905     6.40     988.6396     59.50748     137.7775         9     1.778     0.646 -47.20  16
       546    324.4747    123.9227 307.7910491  +6.6323990     3058.331     5894.918     7249.351     84.89363     169.1185     337.6671      2.196     4.74     1011.749     59.50748     337.0377        35     1.814     1.212 -66.14   0
       547    506.3326    123.3744 307.7154996  +6.6387142     1601.402     2626.525     2650.189     84.22359      168.716     337.4992      1.736     4.40     999.6324     59.50748     203.4326        16     1.190     0.957 -70.10   0
       548    970.6122    123.4363 307.5225660  +6.6541812     984.8702     1418.912     1344.508     84.08894     168.6489     337.2977      1.565     4.82     990.6154     59.50748      136.941         9     1.038     0.646 -85.80   0
       549    280.0089    113.3364 307.8098827  +6.6352792     2916.146     5657.124      6307.81     84.08894     168.6489     337.3985      2.065     4.75     1015.335     59.50748     366.2848        33     1.567     1.274 -69.56   0
       550    679.9042    107.9374 307.6438917  +6.6508884      973.606     1641.488     1503.496     84.49224     168.9845     337.6671      1.783     4.67     997.7028     59.50748     142.8141        10     1.269     0.777  49.68   0
       551    651.1652    106.8666 307.6558702  +6.6503708     1233.056     1945.289     1743.309     84.49224     168.9174     337.6671      1.663     4.90     998.3407     59.50748     146.0182        15     1.200     0.971 -65.68   0
       552    665.1708    103.6390 307.6501586  +6.6521712     3094.834     5104.112     4911.394     84.08894     168.5144     337.4321      1.716     3.74     997.8238     59.50748     384.4694        26     1.414     1.077 -66.56   0
       553     47.7983     96.7183 307.9069324  +6.6343453     783.1124     2201.979     2809.221     83.95407     168.3799     337.3313      2.821     8.72     1022.213     59.50748     130.0314        16     2.067     1.182  88.19   0
       554    406.9992     94.7422 307.7577406  +6.6472112     3573.109     6224.317     6249.542     83.81898     168.4472     337.2641      1.826     3.90     1001.865     59.50748     394.5913        29     1.426     1.155 -81.66   0
       555     13.5712     93.1730 307.9212741  +6.6346585     607.2465     1303.517     2537.255     84.08894     168.6489     337.4321      2.622     4.20       1024.4     59.50748     102.0819         5     0.873     0.576  43.49   0
       556    879.4059     90.0354 307.5615874  +6.6649342      3933.79      5919.43     5917.338     83.81898     168.5816     337.3649      1.546     3.05     991.6733     59.50748      597.392        25     1.366     0.968 -77.87   0
       557    861.3474     90.9485 307.5690614  +6.6639554     2243.575     3151.173     3463.108     84.76005      168.716     337.6335      1.519     3.37     991.9297     59.50748     293.2061        17     1.148     0.869 -78.38   0
       558    571.5948     88.8053 307.6895431  +6.6551691     1568.111     2488.038     2555.104     83.95407     168.5816     337.4656      1.802     4.53     998.9106     59.50748     222.4374        19     1.365     0.939 -77.44   0
       559    217.8213     88.0556 307.8365765  +6.6436310     793.2275     1341.547     1322.362     84.08894     168.8503     337.3985      1.685     5.87     1016.036     59.50748      125.407         9     1.160     0.962  48.63   0
       560    370.3031     86.4203 307.7732698  +6.6494180     1580.751      2792.48     2710.423     84.49224     168.6489     337.3649      1.876     5.15     1006.955     59.50748     187.9581        19     1.282     1.083  81.24   0
       561    118.4215     83.5889 307.8780307  +6.6421385      2773.22     4544.058     4544.988     84.22359     168.5816     337.4656      1.772     4.17     1017.775     59.50748     312.5106        21     1.363     0.965 -78.56   0
       562    266.6493     82.2061 307.8164841  +6.6476839     1136.826     2108.769     2326.539     84.08894     168.6489     337.1969      1.921     7.89     1015.648     59.50748     126.1969        20     1.523     1.142  86.13   0
       563      1.5199     81.1924 307.9266868  +6.6391995     6750.015     9387.252     10605.15     75.57216     136.5719     257.1605      1.374     3.78     1024.533     59.50748     1461.984        24     1.459     0.756  88.15  24
       564    526.9290     81.0461 307.7083652  +6.6568792     747.8869      1083.55     1183.192     84.62625     168.8503     337.5999      1.659     5.54     998.7524     59.50748     96.62158         9     1.160     0.746 -87.19   0
       565    801.8371     75.8372 307.5942989  +6.6682106     6130.264     9520.857     10018.69     84.35802      168.716     337.3985      1.636     3.32      992.738     59.50748     781.6697        37     1.441     1.174 -71.59   0
       566    747.0375     76.2322 307.6170586  +6.6662195     3172.182     4935.537     5523.474     84.22359     168.5816     337.3649      1.700     3.67     994.7146     59.50748     351.5761        23     1.296     1.029 -86.50   0
       567    392.1240     76.8143 307.7645259  +6.6541148      949.239     1509.594     1402.441     84.08894     168.5816     337.4321      1.677     6.35     1004.242     59.50748     131.6229        12     1.197     0.948  74.14   0
       568    868.1090     76.5653 307.5667338  +6.6701192     727.7422     1127.631     1189.444     84.76005      168.716     337.5999      1.688     5.22     991.4933     59.50748     120.9098         7     1.067     0.722  62.56   0
       569     24.6451     74.4382 307.9173063  +6.6427655     853.7153     1571.051     1473.996     84.35802     168.7832     337.4992      1.940     7.16     1022.658     59.50748     114.4819        13     1.440     0.997  83.17   0
       570    509.6000     74.1748 307.7157975  +6.6591365     1151.957     1815.173     2024.156     84.08894     168.4472     337.3649      1.696     4.41     998.6422     59.50748     149.8005        12     1.073     0.852 -67.23   0
       571     40.4341     73.1082 307.9107905  +6.6438453     2923.776     4732.182     4887.564     84.76005      168.716     337.6671      1.795     4.04     1021.657     59.50748     327.9728        24     1.403     1.058 -74.77   0
       572    629.3685     73.1580 307.6660609  +6.6635601     649.6522     1048.355     864.8259     84.08894      168.716     337.3985      1.867     4.31     997.6807     59.50748     100.7578         6     1.224     0.432  57.54   0
       573    402.0081     73.1089 307.7605434  +6.6559757     887.8647     1563.369     1776.202     84.22359     168.5144     337.3649      1.644     5.18     1003.041     59.50748     118.1013        10     1.247     0.609 -59.43   0
       574    564.4367     69.6459 307.6931621  +6.6628401     1225.026     2135.971     2419.718     84.35802     168.8503     337.4992      1.937     6.46     998.2081     59.50748     138.5345        18     1.368     1.158 -74.52   0
       575     55.8060     65.3176 307.9046665  +6.6475783     680.1278      911.975     625.1489     84.22359     168.4472     337.3649      1.542     3.79     1020.308     59.50748     101.7324         5     1.056     0.390  86.32   0
       576    741.4647     63.5409 307.6198006  +6.6712735     1850.486      2963.58     3111.636     84.76005     168.7832     337.6335      1.764     4.10     994.3244     59.50748     239.0106        18     1.167     1.064  83.05   0
       577    382.1699     63.7872 307.7691012  +6.6591599     920.4575     1613.733     1452.464     84.08894     168.5816     337.5328      1.828     6.18     1005.766     59.50748     108.8363        12     1.210     0.888 -74.26   0
       578     79.7417     62.6549 307.8948105  +6.6494819     818.8367     1238.824     1536.911     84.76005     168.9174     337.6335      1.466     5.08     1018.778     59.50748      122.899         7     1.279     0.571 -29.61   0
       579     68.3100     57.4289 307.8997374  +6.6512554     8788.347     14681.85     15486.85     84.76005     168.5816     337.4992      1.823     3.78     1019.273     59.50748     1005.242        43     1.557     1.265 -81.29   0
       580    397.3018     57.1536 307.7630367  +6.6624055     2204.499     3741.467     3741.997     84.62625     168.6489     337.8013      1.819     4.36     1004.029     59.50748     270.3578        23     1.459     1.010 -64.51   0
       581    610.9866     49.4841 307.6744956  +6.6727202     17106.51      27922.3     29214.08     84.22359     168.6489     337.4321      1.756     3.66     996.9797     59.50748     1875.564        55     1.595     1.296 -79.76   0
       582    235.0090     51.4677 307.8306690  +6.6593133     1219.808     2137.259      2435.14     84.08894     168.6489     337.4992      1.787     4.99     1015.709     59.50748     154.8493        13     1.152     0.921 -70.56   0
       583    229.1887     45.7704 307.8332799  +6.6614703     1544.325      2717.48     3336.463     84.08894     168.6489     337.4321      1.869     4.97     1015.705     59.50748     223.2333        21     1.474     0.996 -54.32   0
       584    510.7058     45.4718 307.7163039  +6.6710241     4834.619     7977.438     8182.363     84.49224     168.9174     337.6671      1.782     3.87     997.8903     59.50748     523.6688        29     1.374     1.188 -64.87   0
       585    416.3163     41.1639 307.7556737  +6.6696438     19674.63     33916.43     35991.78     84.62625     168.8503     337.5328      1.852     4.04     1002.097     59.50748      2208.45        54     1.641     1.295 -81.05   0
       586    236.9295     41.5748 307.8302048  +6.6634621     8062.041     14056.91      14600.7     84.22359      168.716     337.5328      1.845     3.96     1015.657     59.50748     928.9959        43     1.582     1.277 -73.32   0
       587    597.3281     39.8856 307.6804944  +6.6762267     2883.629     5289.919     6320.305     84.76005     169.1185     337.6335      2.101     5.95     996.7189     59.50748     333.6953        35     1.888     1.173  74.05   0
       588      2.4749     41.2344 307.9276414  +6.6557283     2237.678     3462.379     3364.935     84.49224     151.1443     273.3927      1.662     4.03     1022.191     59.50748     285.6058        22     1.381     1.004 -79.68  24
       589    893.9855     40.9475 307.5571742  +6.6856873     1999.772     3119.872     3303.824     83.95407     168.7832     337.3313      1.535     3.51     990.3646     59.50748     330.6649        16     1.283     0.729  86.85   0
       590    296.6533     41.9365 307.8053743  +6.6653156     956.7354     1742.116     2715.646     84.62625     168.7832     337.5664      1.993     5.88     1014.765     59.50748     117.7449        12     1.046     1.009 -49.07   0
       591    932.2933   1019.6330 307.5084813  +6.2828764     8047.048     10438.71     10771.96     84.76005      168.716     313.2604      1.381     3.15     1027.243     59.50748     1222.152        25     1.281     0.843 -79.88  16
       592    914.6787     31.7551 307.5488826  +6.6901720     1075.263     1653.728     1550.343     84.62625     168.8503     337.5999      1.583     3.71     989.8661     59.50748     164.0427         9     0.939     0.734 -53.73   0
       593    665.9291     30.9583 307.6522856  +6.6822044     1679.819     2518.055     2522.504     84.49224     168.8503     337.6671      1.600     4.75     995.8867     59.50748     198.1284        16     1.282     0.843 -89.83   0
       594    277.9496     36.4100 307.8133331  +6.6669702        893.8      1762.48     2073.916     84.08894      168.716     337.2641      1.918     5.20     1015.525     59.50748     121.7829         9     1.196     0.639  -5.39   2
       595    686.8540   1020.0542 307.6103871  +6.2745232     1241.248      1718.54     2853.813     84.89363     168.8503     308.3016      1.599     3.77     1032.992     59.50748      174.949        13     1.195     0.694 -89.47  16
       596    177.2929     26.0027 307.8555123  +6.6678901     621.8384     795.9903     571.5761     84.08894     168.5144     337.2977      1.434     4.41     1016.323     59.50748     129.3887         5     0.945     0.725 -28.06   0
       597    415.1402   1018.8622 307.7232543  +6.2659374     977.1695      1455.75     1456.006     84.62625     168.7832      321.684      1.488     3.76     1037.573     59.50748     181.3285         9     1.053     0.633  78.67  16
       598    498.5988     21.8412 307.7221305  +6.6803754      2654.34     4375.652     4133.634     83.95407     168.5144     337.2641      1.806     4.08     997.5187     59.50748     301.7306        24     1.369     1.087 -74.37   0
       599    700.7124     19.9222 307.6382011  +6.6879223     1882.876     2968.218     2702.208     84.62625     169.1855     337.7342      1.642     4.08     994.1329     59.50748     242.2824        17     1.332     0.826 -70.66   0
       600    436.8572     20.2822 307.7478410  +6.6789528     1625.766     2638.407     2077.679     84.62625     168.8503     337.6671      1.723     4.66     1001.063     59.50748     187.6496        17     1.188     1.072  66.46   0
       601    216.7552   1019.6050 307.8056046  +6.2589875     1358.545     1891.651     1762.227     83.95407     168.5144     313.4051      1.323     3.23     1037.922     59.50748     244.4407         8     0.967     0.554 -70.90  16
       602    759.8049     16.9701 307.6137423  +6.6911134     530.5518     871.3959      140.684     84.08894     168.6489     337.3985      1.538     3.85     991.3721     59.50748     74.25128         5     0.840     0.506  34.25   0
       603    692.0840   1017.7507 307.6082926  +6.2756487     3114.897     4343.417     4777.261     84.62625     168.8503     331.4689      1.421     3.02     1032.982     59.50748     522.9192        15     1.204     0.675 -72.17  16
       604    707.9417   1016.8912 307.6017365  +6.2765327     1095.525     1640.276     1453.944     84.49224     168.7832     336.6251      1.480     4.15     1033.052     59.50748     189.3552        11     1.266     0.666 -84.94  16
       605    338.7821   1015.2656 307.7550818  +6.2648669      2128.69     2851.442     2979.998     84.22359     168.8503     337.4992      1.373     3.16      1037.47     59.50748     331.4307        13     1.126     0.684 -72.77   0
       606    949.0092   1013.0613 307.5017597  +6.2861462      653.847     832.5918     489.8156     83.95407      168.716     337.3649      1.336     4.16     1026.285     59.50748     137.6375         6     1.285     0.384 -74.01   0
       607    187.1862   1013.3997 307.8180915  +6.2605582      608.559     675.3157     775.2788     84.22359     168.5144     337.3649      1.433     3.59      1037.64     59.50748     95.42224         5     0.977     0.380 -84.70   0
       608    521.0940   1005.5330 307.6797061  +6.2749835     4852.917     6746.987     7335.321     84.49224     169.0515     337.5999      1.504     3.01     1037.143     59.50748     798.0886        25     1.356     0.907 -73.88   0
       609    725.5933   1004.7828 307.5948126  +6.2821208     9279.719     12547.26     12851.01     84.22359     168.5816     337.4321      1.420     3.07      1032.65     59.50748     1348.697        31     1.358     0.896 -74.93   0
       610    491.4769   1006.3395 307.6919773  +6.2736606      1480.14     1653.857     1413.712     84.76005     168.9174     337.5664      1.287     3.53     1037.555     59.50748     218.5471        12     1.065     0.749 -88.29   0
       611    395.7264   1005.0813 307.7317792  +6.2709777     1137.374     1442.575     1400.149     84.89363     169.1185     337.6671      1.412     5.01     1037.386     59.50748     168.0359        11     1.249     0.646 -79.89   0
       612    271.3893   1004.0629 307.7834426  +6.2672352     16565.56     23725.97     25587.34     84.08894     168.6489     337.3985      1.539     3.18     1037.989     59.50748     2696.607        54     1.769     1.120 -51.07   0
       613    786.6899   1004.0627 307.5694659  +6.2844553     1383.884     1597.479     1207.683     84.62625     168.9845     337.6671      1.264     3.22     1031.415     59.50748      221.551        12     1.124     0.655 -71.56   0
