#   1 NUMBER                 Running object number                                     
#   2 X_IMAGE                Object position along x                                    [pixel]
#   3 Y_IMAGE                Object position along y                                    [pixel]
#   4 ALPHA_J2000            Right ascension of barycenter (J2000)                      [deg]
#   5 DELTA_J2000            Declination of barycenter (J2000)                          [deg]
#   6 FLUX_APER              Flux vector within fixed circular aperture(s)              [count]
#   9 FLUXERR_APER           RMS error vector for aperture flux(es)                     [count]
#  12 FLUX_RADIUS            Fraction-of-light radii                                    [pixel]
#  13 FWHM_IMAGE             FWHM assuming a gaussian core                              [pixel]
#  14 BACKGROUND             Background at centroid position                            [count]
#  15 THRESHOLD              Detection threshold above background                       [count]
#  16 FLUX_MAX               Peak flux above background                                 [count]
#  17 ISOAREA_IMAGE          Isophotal area above Analysis threshold                    [pixel**2]
#  18 A_IMAGE                Profile RMS along major axis                               [pixel]
#  19 B_IMAGE                Profile RMS along minor axis                               [pixel]
#  20 THETA_IMAGE            Position angle (CCW/x)                                     [deg]
#  21 FLAGS                  Extraction flags                                          
         1    174.8118     16.8444 307.8650885  +6.6681788     11829.77     16612.01     17134.14     77.10637     154.7062     309.2892      1.481     3.01      828.731     54.56611     1738.055        32     1.284     1.032 -63.74   0
         2    518.9391     15.1313 307.7221795  +6.6804398     3134.853     4613.268     4940.712     77.72176     154.7678     309.5664      1.529     3.30     816.5823     54.56611     461.0455        21     1.309     0.916 -51.68   0
         3    920.4607     14.6604 307.5553753  +6.6940628      4694.82      6079.75      6123.38     77.59908     154.8293     309.5972      1.334     2.65      813.079     54.56611      679.942        21     1.085     0.932 -64.58   0
         4    721.3762     13.1790 307.6381397  +6.6880232      2230.99     2995.551     3301.251     77.22984     154.6446     309.5356      1.371     2.94     813.4471     54.56611      331.414        17     1.186     0.813 -73.17   0
         5    457.2846     13.4358 307.7478515  +6.6790728     2062.872     2622.768      2416.51     77.59908     154.7678     309.5356      1.320     2.88     817.7471     54.56611     309.3338        14     0.980     0.829 -63.06   0
         6    985.2047     10.9992 307.5285982  +6.6977343     2110.049     3214.382     3506.589      76.9827      154.398     309.3201      1.574     3.45     807.9263     54.56611     306.8903        18     1.282     0.805 -60.30   0
         7    780.1282     10.0403 307.6138354  +6.6912832     649.6768     862.8899     472.1558     77.47619     154.8293     309.6279      1.422     4.27     812.7116     54.56611     99.07855         8     0.864     0.734  89.25   0
         8    704.5513      7.3852 307.6453248  +6.6898524     8589.059     11544.29      12039.1      76.9827     154.7678     304.5395      1.447     2.99     813.4521     54.56611     1330.094        29     1.186     1.030 -66.18  16
         9    624.7624      6.5920 307.6785014  +6.6875098     4176.601      5736.35     6411.295     76.85884      154.583     298.7593      1.518     2.92     813.4512     54.56611     654.8607        20     1.150     0.910 -52.21  16
        10    326.6124      6.4192 307.8023763  +6.6775843     1100.142     1645.899     2252.363     77.35312      154.583     297.4489      1.804     4.13     825.5048     54.56611     157.0928        12     1.063     0.773 -61.22  16
        11    424.9291      2.8964 307.7616492  +6.6823386     7023.736     9730.119     10242.16     77.47619     143.3916     256.6998      1.471     3.27     818.5964     54.56611     1034.307        27     1.234     1.072 -59.99  24
        12    380.4384      4.6792 307.7800729  +6.6801096     849.7986     1334.609     1301.174     77.47619     154.8909     279.8215      1.771     3.56      821.752     54.56611     134.2464         9     1.043     0.673 -63.60  16
        13     25.9497      2.5512 307.9274142  +6.6690688     9653.127     12605.06     12335.68     77.59907     139.2794     251.6012      1.447     3.38     829.0232     54.56611     1430.634        28     1.196     1.045 -55.76  24
        14    672.0425      1.9023 307.6590158  +6.6910283     911.0313     1144.312     1226.078     73.82373     131.1767      242.067      1.275     2.80     813.8331     54.56611     161.5176         7     0.822     0.563 -48.29  24
        15    500.6450      1.1160 307.7302523  +6.6856126     579.8534      710.653     111.6865     64.45271     119.7872     229.3335      1.048     3.29     816.5263     54.56611     132.0955         5     1.011     0.311  -4.66  24
        16    807.1534    997.6946 307.5694466  +6.2844297     1189.156      1591.71     1579.162     77.47619     154.7678     309.6895      1.499     3.58     847.6187     54.56611     166.2719        12     0.963     0.881  59.11   0
        17    713.2261   1023.1588 307.6075850  +6.2707787     6634.749     8260.088     8384.003     73.04525     130.3753     240.9228      1.257     2.85     850.0287     54.56611     1037.708        21     1.153     0.830   1.91  24
        18    705.5812   1022.6657 307.6107752  +6.2707268     1344.536     1535.101     1795.342     76.61051     136.7249     248.4766      1.371     4.39     850.1515     54.56611     171.5229        12     1.030     0.838 -59.86  24
        19    580.5665   1023.5274 307.6626437  +6.2661899     2188.012     3409.565     4052.762     69.29681     125.1552     235.2401      1.813     4.60     852.8242     54.56611     581.6546        18     1.701     0.727  -4.68  24
        20    569.2297   1022.4073 307.6673876  +6.2662729     4356.093     5846.872     6204.702     77.22984     139.7574     252.2064      1.464     3.08     853.0032     54.56611     585.9618        23     1.183     1.048 -86.82  24
        21    428.0228   1023.1569 307.7259806  +6.2612341     3419.738      4378.96     4884.674     73.04525     130.3753     240.9228      1.300     2.81     852.1699     54.56611     656.6926        20     1.306     0.837  12.26  24
        22    263.1311    995.1550 307.7953739  +6.2672635     1008.239     1488.558     1955.055     77.59907     154.7678     309.5664      1.772     3.95      851.077     54.56611      158.538        13     1.220     0.745 -64.19   0
        23    907.2964    991.8878 307.5280670  +6.2901694     8844.577      13855.5      14810.3     77.59907     155.1981     309.5972      1.666     3.44     846.5092     54.56611     1147.114        39     1.419     1.232 -61.87   0
        24    538.6265    991.1802 307.6811422  +6.2781406     9076.342     13190.87     14162.69     77.10638      154.583     309.4432      1.544     3.05     852.5406     54.56611     1305.614        39     1.354     1.164 -69.01   0
        25    880.8701    988.0407 307.5391670  +6.2908760     12516.46     19680.49        21196     77.47619     154.8293     309.6279      1.680     3.39      846.985     54.56611     1512.176        47     1.475     1.270 -57.58   0
        26   1002.5828    987.5345 307.4886542  +6.2951439     4603.003     7766.203     8346.418     77.10638     154.7678     309.4432      1.845     3.80     840.5978     54.56611     532.8405        35     1.470     1.233 -82.05   0
        27    593.6017    988.2421 307.6584187  +6.2811937     1378.794     2074.813     2220.783      76.9827     154.5214     309.2892      1.643     4.65     851.3612     54.56611      207.889        17     1.419     0.956  80.22   0
        28    525.1238    987.0522 307.6868865  +6.2793927     4517.264     6618.842     7240.024     77.59907     154.8909     309.5664      1.570     3.23     852.4179     54.56611     638.1006        30     1.298     1.245  -2.23   0
        29    634.7086    986.4437 307.6414140  +6.2833114     1548.654     2151.775     1846.079     77.59908     154.7678     309.6895      1.497     3.77     850.5923     54.56611     255.3951        15     1.214     0.794 -68.27   0
        30     60.0017    985.4103 307.8800244  +6.2644607     915.2055     1442.581     1769.544     77.22984     154.5214     309.3817      1.801     5.03     848.1588     54.56611     128.4363        13     1.203     0.803 -54.43   0
        31    478.2045    983.6010 307.7064805  +6.2792461     2311.454     3314.677     3404.696      76.9827      154.398     309.3201      1.645     3.49     852.2748     54.56611     316.9991        17     1.143     0.961 -67.37   0
        32    912.6120    975.6239 307.5264053  +6.2970614        44961     69377.83     72961.36     77.22984     154.6446     309.5048      1.693     3.31      845.808     54.56611     5638.098        70     1.502     1.330 -64.21   0
        33    219.9541    973.8246 307.8140171  +6.2746198     1712.166     2271.794     2452.774     77.22984     154.8293     309.4432      1.431     3.49     849.9084     54.56611     231.8322        15     1.110     0.894 -50.73   0
        34    107.7510    972.8023 307.8606292  +6.2712715      625.406     899.5599     965.7209      76.9827     154.4597      309.166      1.337     4.60     848.6226     54.56611      94.3103         7     1.277     0.470 -63.69   0
        35    618.7941    971.9001 307.6485096  +6.2887834     882.9625     1206.928     1641.236     77.35311     154.4597     309.2892      1.617     4.85     850.3755     54.56611     124.9761        10     1.072     0.740 -72.86   0
        36    758.7599    967.4299 307.5905528  +6.2953082     7004.594     10679.16     11544.56     77.10638      154.583     309.4124      1.679     3.73     848.2863     54.56611     933.0973        38     1.667     1.080 -67.76   0
        37    810.6552    969.2963 307.5689456  +6.2962710     2300.962     3473.019     3410.168     77.47619     154.7678      309.751      1.617     3.42     847.4525     54.56611     312.0892        21     1.243     1.010  86.66   0
        38    228.0903    966.3612 307.8108914  +6.2779742     1638.233     2174.812     2027.831     77.59907     154.7678     309.5972      1.470     3.47     849.8084     54.56611     228.6552        16     1.162     0.876 -81.14   0
        39    192.5856    966.1376 307.8256378  +6.2768740     952.6436     1702.568     1618.496     77.10638     154.7062     309.3817      1.688     5.85     849.3728     54.56611     148.7751        13     1.381     0.897 -53.42   0
        40    545.5014    966.8088 307.6791079  +6.2884325     851.4764     1233.727     1630.067     77.35312     154.4597     309.3817      1.526     2.75     851.7809     54.56611     133.0947         6     0.757     0.500  89.89   0
        41     53.0987    964.2534 307.8836050  +6.2729628     3110.425     4441.279     4705.943     77.47619     154.8293     309.7817      1.516     3.07      848.032     54.56611     426.1494        24     1.287     1.016 -70.33   0
        42    947.0120    962.3511 307.5125685  +6.3036885     6906.823     10741.66     10834.71      76.9827     154.7678     309.2585      1.656     3.41     843.8743     54.56611     879.5277        33     1.328     1.189 -47.04   0
        43    202.7651    958.3473 307.8216750  +6.2804321     692.2402      966.599     1015.369     77.47619     154.8293      309.474      1.670     4.33      849.318     54.56611     104.5278         7     0.972     0.549 -57.89   0
        44    920.8013    954.1435 307.5237253  +6.3062029     2097.762     3254.963     1851.489      76.9827     154.5214     309.2892      1.599     3.66     844.8062     54.56611     285.2574        22     1.278     1.037 -64.83   0
        45    629.9350    956.5073 307.6444018  +6.2955111     739.3817     930.5748      506.112     77.59907     155.0139     309.5972      1.330     4.15     849.8243     54.56611     128.7213         6     0.985     0.500   0.65   0
        46    780.2634    950.6791 307.5821877  +6.3029422     1339.494     2003.693     2084.764     77.84425     154.8909     309.5664      1.547     3.56       847.82     54.56611     208.3732        12     1.142     0.809 -67.23   0
        47    641.5561    950.0008 307.6397960  +6.2985860     4997.617     7317.337      7675.15      76.9827     154.5214     309.1968      1.540     3.21     849.5593     54.56611     688.3564        28     1.277     1.082 -69.85   0
        48    253.6684    950.0761 307.8008227  +6.2855563     4753.409     6457.716     6583.865     77.72176     154.9524     309.5664      1.442     3.00     849.9186     54.56611     721.3234        22     1.215     0.940 -60.44   0
        49    991.0682    949.3754 307.4947124  +6.3105145     702.6726     1079.576     1575.571     77.22984     154.7062      309.474      1.805     5.91     841.4044     54.56611     92.18018        10     1.455     0.677 -80.58   0
        50    463.7098    948.3751 307.7136836  +6.2933034     1357.429     1853.852     1766.474     77.72176     154.6446     309.4124      1.507     3.57     851.0649     54.56611     181.5044        12     1.073     0.785 -73.14   0
        51     22.4392    947.5292 307.8968975  +6.2788356     2391.826     3462.357     3193.028     77.47619     154.8293     309.6279      1.548     3.27      847.737     54.56611     349.5372        18     1.156     0.936 -65.20   0
        52    873.3737    946.7120 307.5436647  +6.3076887     1048.283     1625.531     1187.453     77.72176     154.6446     309.4432      1.658     5.42     845.9656     54.56611     129.3625        13     1.093     0.972 -87.52   0
        53    289.6375    943.5333 307.7861114  +6.2894649     857.2839     1428.015     1607.654     77.47619     154.7678     309.6587      1.623     4.66     850.5657     54.56611     144.9841         8     1.319     0.467  84.65   0
        54    997.7066    941.8603 307.4922081  +6.3138385     773.0543     1638.137     2151.021     77.47619     154.7678     309.5972      2.518     7.05     841.0876     54.56611     120.8884        12     2.018     0.690 -79.33   0
        55    965.3722    943.8438 307.5055660  +6.3119416     564.7186     939.3674     859.6027     77.22984     154.8909      309.474      1.345     3.39     842.5749     54.56611     94.32373         5     0.746     0.446 -71.76   0
        56    945.1585    943.9434 307.5139548  +6.3112265     640.5595     1192.274       1288.7     77.47619     154.8293     309.5972      1.841     4.28     843.4798     54.56611     127.8544         5     1.077     0.485  21.58   0
        57    566.0828    942.4645 307.6713824  +6.2991720     1901.845     2698.872     2451.215     77.72176     154.9524     309.5972      1.477     3.26      850.519     54.56611     297.0674        19     1.247     0.885 -53.79   0
        58    605.4053    938.8170 307.6551801  +6.3019939     1404.992     2253.826     2086.005     77.22984     154.5213     309.4124      1.792     2.98     849.4551     54.56611      232.124        13     1.081     0.737 -69.55   0
        59     55.0817    939.1830 307.8836292  +6.2833794     827.4727     1233.587     1636.501     77.22984     154.5214      309.474      1.531     3.30     847.9977     54.56611     141.0371         8     0.956     0.588 -67.98   0
        60    285.2435    936.3289 307.7881784  +6.2922917     1618.154     2141.465     3013.446     77.47619     154.8293     309.5972      1.485     3.53      850.336     54.56611      210.095        15     1.098     0.868 -77.84   0
        61    553.2253    934.6360 307.6769835  +6.3019736     573.0366      690.802     572.6202     77.22984     154.6446     309.3509      1.353     3.69      850.622     54.56611     87.71527         5     0.961     0.407  83.76   0
        62    752.1860    932.7062 307.5944477  +6.3094245     890.4668     1280.042     1267.107     77.35311      154.583     309.4124      1.455     4.54     847.9548     54.56611     124.3376        10     1.010     0.812 -88.95   0
        63    889.6700    929.2698 307.5374838  +6.3154337     7420.387      11176.6     11465.08     77.59908     154.9524     309.5356      1.618     3.27     844.8906     54.56611     1017.536        33     1.327     1.164 -67.65   0
        64    127.5709    930.2888 307.8538376  +6.2894890     777.1152     1127.303     871.3931     77.72176      154.583      309.474      1.553     2.84     848.4579     54.56611     141.6639         8     0.861     0.645  40.22   0
        65    425.5468    926.2943 307.7302704  +6.3011405     2325.538     3143.148      3308.11     77.47619     154.7678     309.8125      1.464     2.96     850.2993     54.56611     379.1978        18     1.140     0.869 -82.67   0
        66    327.1760    924.7163 307.7711620  +6.2984930     10608.89     14831.69     15580.49     77.47619      154.583     309.5048      1.480     2.94     850.2328     54.56611      1474.11        34     1.300     1.053 -58.57   0
        67    247.3073    923.6793 307.8043540  +6.2962404     7802.771     11101.29     11542.95     77.35312     155.0139     309.6279      1.513     2.99     849.2183     54.56611     1109.225        32     1.292     1.062 -65.80   0
        68    575.3987    918.2921 307.6683277  +6.3094635      1393.36     1958.674     1946.737      76.9827     154.4597     309.3201      1.569     3.20     849.5897     54.56611     233.5765        13     1.079     0.791  58.61   0
        69    759.3505    917.6149 307.5919798  +6.3158944     734.8964     1088.462      1501.62      76.9827     154.7678     309.2892      1.477     5.24     847.5524     54.56611      121.274        10     1.136     0.778 -13.15   0
        70    905.4295    914.2787 307.5314434  +6.3221487     1222.662     1839.798     2189.315     77.47619     154.8909     309.5664      1.633     4.06     844.0663     54.56611     169.9939        14     1.204     0.863  81.92   0
        71    209.2986    913.5914 307.8204733  +6.2991286     581.1236     710.4022     1137.781     77.35312     154.4597     309.3509      1.466     4.47     848.6503     54.56611     94.83752         7     1.319     0.431 -82.86   0
        72    137.6376    914.1448 307.8502038  +6.2964922     676.8013     827.5394     692.7457     77.59907     154.8909     309.5972      1.445     4.33     848.2685     54.56611      96.3161         8     0.945     0.816  72.73   0
        73    861.8439    912.7354 307.5495909  +6.3213315     835.0438     1190.424      1032.96     77.59907     154.7678     309.5664      1.598     5.25     845.2621     54.56611     108.0023         9     1.188     0.656 -63.98   0
        74    404.0666    912.1622 307.7396640  +6.3062548     580.9601     825.7681     900.5233     77.47619     154.7678     309.6587      1.383     3.10     849.9944     54.56611     107.1274         5     0.781     0.506 -54.33   0
        75    834.7249    908.0228 307.5610081  +6.3223718     604.6794     884.8523      764.538     77.22984     154.7062      309.474      1.686     4.26     845.8448     54.56611     88.73962         5     0.853     0.607  -2.64   0
        76    741.8567    907.1943 307.5995926  +6.3196120     1769.538     2524.717     2618.841     77.10637     154.7062     309.2892      1.433     3.09     847.4678     54.56611     300.4634        15     1.020     0.957 -10.04   0
        77    565.4752    907.8698 307.6727981  +6.3134341     700.3199     827.5311     282.2683     77.72176     154.9524     309.5664      1.272     2.86     849.5164     54.56611      123.874         6     0.890     0.648  66.38   0
        78    973.2162    903.1619 307.5036721  +6.3289991     1245.984     1895.036      2334.85     77.22984     154.6446     309.3201      1.668     4.33     841.2227     54.56611     160.6095        16     1.154     0.990  68.94   0
        79    605.8834    904.0870 307.6561492  +6.3163482     821.7134       1106.7     514.3087     77.35311     155.0139     309.5972      1.396     5.11     848.6799     54.56611     110.7208        10     0.996     0.742 -32.98   0
        80    526.9857    902.7740 307.6889490  +6.3142493     1234.689     1732.738     2177.815     77.35311     154.6446     309.5048      1.520     3.44     849.7642     54.56611      159.584        12     0.939     0.866 -17.80   0
        81    660.2189    900.6169 307.6337073  +6.3195984     2812.429     4189.469     4464.651     77.35312      154.583     309.5048      1.570     3.61     848.2912     54.56611     361.7766        23     1.213     1.120  80.70   0
        82   1011.4555    899.3457 307.4879235  +6.3318493     604.3205     1097.735     935.2252     77.84425     154.8293     309.5664      1.785     4.25     839.3525     54.56611     84.13306         5     0.996     0.518 -50.19   0
        83    950.5388    898.6633 307.5132381  +6.3301003     701.9803     851.7437     1188.729     77.59908     154.8293     309.5972      1.531     5.26     842.1076     54.56611     89.55237         7     1.154     0.678  81.04   0
        84    821.3079    897.2575 307.5669397  +6.3263684      1049.91       1411.4     987.0542     77.47619     154.7678     309.6587      1.383     3.13     845.8599     54.56611     184.3951         9     0.997     0.604 -68.83   0
        85    557.7031    897.3138 307.6763799  +6.3175320     656.4033     818.3851     377.2567     77.59908     155.1981     309.6279      1.364     4.58     849.3021     54.56611     83.78076         8     1.002     0.596  72.23   0
        86     74.4014    896.2028 307.8770617  +6.3017730     2294.494     3393.669     3991.904      76.9827      154.398     309.3201      1.606     3.44     847.3134     54.56611     336.6196        19     1.271     0.866 -70.59   0
        87     56.9444    896.7694 307.8842896  +6.3009519     3360.396     4721.596     4801.947     77.47619     154.8909     309.5356      1.466     2.88     847.2598     54.56611      507.399        21     1.141     0.961 -65.88   0
        88    200.5081    895.6248 307.8247290  +6.3062506     2344.943     3533.719     3102.905     77.72176      154.583     309.4124      1.603     3.50     848.5474     54.56611     300.7928        20     1.302     0.923 -62.63   0
        89    938.2917    895.9674 307.5184132  +6.3308049     979.9755     1451.302     1496.826     77.72176     154.7062     309.5972      1.547     3.42     842.6437     54.56611     133.9194         9     0.914     0.691 -79.57   0
        90    234.6047    892.2354 307.8106883  +6.3087952     804.1352      864.806     908.1779     76.73477     154.6446     309.3509      1.258     4.08     848.8242     54.56611     125.0147         7     0.984     0.484  85.52   0
        91    654.9451    889.8275 307.6362595  +6.3238765     7686.247     10915.87     11554.24     77.22984     154.8909     309.4124      1.491     3.03     848.0467     54.56611     1142.792        32     1.359     1.011 -65.83   0
        92    339.4052    891.8568 307.7671928  +6.3124692     1076.689     1726.312     1956.183     77.10638     154.7062     309.2892      1.737     3.54     849.5867     54.56611     163.8591        11     0.977     0.859 -64.69   0
        93    792.2911    890.8378 307.5792024  +6.3280499     718.5826     1027.684     1075.327     77.72176     154.7678     309.5972      1.389     3.39     846.3328     54.56611     112.5836         6     0.876     0.468 -52.43   0
        94    444.4581    887.7869 307.7237161  +6.3176720      608.678     544.0866     296.1605      76.9827     154.7678     309.2892      1.006     3.36     849.5073     54.56611     102.2529         5     0.751     0.435 -66.61   0
        95     15.2455    887.7957 307.9019037  +6.3032535     1361.755     1876.878     2097.203      76.9827     154.5214     309.2585      1.479     2.77     846.8873     54.56611      203.267        12     0.911     0.826 -69.94   0
        96    892.8159    886.0039 307.5376282  +6.3334014     2956.746     4338.857     4474.021     77.22984     154.4597     309.4124      1.545     3.15     843.6915     54.56611     437.3542        20     1.165     0.962 -70.45   0
        97     28.1314    886.3992 307.8966015  +6.3042636     1240.004     1831.828     1822.156     77.10638      154.398     309.3817      1.588     3.20     846.8972     54.56611     180.2892        13     1.048     0.802 -63.73   0
        98    337.9315    882.9506 307.7681048  +6.3160966     18330.09     25788.95     26882.46     77.47619     154.7678     309.5664      1.476     2.99     849.4069     54.56611     2794.958        44     1.367     1.102 -66.64   0
        99     72.3757    883.8759 307.8783193  +6.3067938     1460.079     2207.146     1963.994     77.22984     154.7062     309.5356      1.515     3.43     847.0194     54.56611     213.3936        15     1.096     0.893 -50.24   0
       100    209.0609    882.5507 307.8216197  +6.3119355     1519.136     2052.569     2320.847     77.59907     154.7678     309.6279      1.513     4.05     848.5628     54.56611     214.9682        13     1.143     0.856  66.76   0
       101    388.7830    882.1643 307.7470198  +6.3181268     829.2009     1114.254     1149.656     77.10637     154.6446     309.3509      1.462     4.61     849.4299     54.56611     132.4374         9     1.018     0.792  -3.12   0
       102    415.6203    874.0035 307.7361527  +6.3223958     1123.373     1561.523     1330.226     77.22984     154.4597     309.3509      1.402     3.81     849.2794     54.56611     185.6385        11     1.047     0.775 -69.74   0
       103    101.1773    873.6588 307.8667077  +6.3119805     1802.863     2267.316     2135.183     77.22984     154.8293     309.4432      1.338     2.89     846.9327     54.56611     276.7768        14     1.069     0.750 -77.89   0
       104    496.0724    870.3347 307.7028749  +6.3266065     698.2352     1093.233     830.7819     77.59907     154.8909     309.5972      1.514     4.56     848.8474     54.56611     141.2006         8     1.179     0.580 -62.49   0
       105    669.5616    869.8036 307.6308638  +6.3326323     887.8769     1281.075     2123.552     76.73477      154.583     309.3201      1.690     3.32     847.3709     54.56611     162.9194         7     0.941     0.558 -39.10   0
       106    883.2435    867.8774 307.5422103  +6.3405656      2071.49     2949.175      2351.78     77.47619     154.8293     309.5972      1.507     3.31     843.4111     54.56611     296.1501        19     1.137     1.021 -54.35   0
       107    853.6854    867.5547 307.5544934  +6.3397124      2362.15      3444.66      3383.02     77.59908     154.7678     309.5664      1.585     3.58      844.024     54.56611     321.8513        19     1.253     0.893 -71.74   0
       108    817.1119    866.7750 307.5697045  +6.3388133     3386.378     4769.077      5244.66     77.72176     154.6446     309.4432      1.559     3.14     844.9538     54.56611     461.6508        22     1.272     0.951 -74.36   0
       109     84.8019    866.9125 307.8737339  +6.3142149     2858.096     4184.229     4308.886     76.85884     154.4597     309.2892      1.553     3.50     846.6498     54.56611     390.6827        22     1.316     0.920 -68.94   0
       110    332.8335    865.3400 307.7708150  +6.3231960      761.163     982.2385     1132.211     77.47619     154.8909     309.5048      1.449     4.01     849.0324     54.56611     140.7335         8     0.961     0.672  64.89   0
       111    553.0336    858.1890 307.6796347  +6.3335284     372325.8     517803.2       540614     77.10638      154.583     309.4124      1.470     3.00     848.1132     54.56611     56328.16       186     1.538     1.341 -66.91   4
       112    447.8276    864.5260 307.7231005  +6.3273881     632.5432     965.4427     1450.762     77.47619     154.7678     309.5048      1.721     4.38     848.9583     54.56611     108.8629         7     0.863     0.680 -76.30   0
       113    640.8550    861.3270 307.6430672  +6.3351718     1369.028     1841.992     1917.317     77.47619     154.7062     309.5048      1.462     3.29     847.4754     54.56611     223.0444        12     1.025     0.747 -61.97   0
       114    397.2647    860.7925 307.7442185  +6.3272345     8563.896     11863.54      12333.4     77.10638      154.583     309.4432      1.469     3.10     849.0003     54.56611     1142.627        31     1.315     0.997 -61.10   0
       115    340.4899    859.1418 307.7678453  +6.3260118     14048.67     19463.51     20167.12     77.47619     154.8293     309.6895      1.458     2.92     848.9969     54.56611     2085.479        37     1.293     1.072 -60.14   0
       116    658.8269    855.5623 307.6357993  +6.3381529     3970.182     5628.034     5838.806     77.22984     154.6446     309.4124      1.511     3.06     847.0358     54.56611     598.2159        21     1.144     0.981 -65.30   0
       117    891.3443    854.3828 307.5392993  +6.3464073     5696.543     8405.403      9024.82     77.10638     154.7678     309.3201      1.605     3.28     842.9759     54.56611     769.3561        28     1.263     1.089 -70.52   0
       118    730.7372    852.2140 307.6060553  +6.3419394     847.3658     920.3352     543.9515     77.10638     154.6446     309.3817      1.187     3.24      846.243     54.56611     144.1249         7     0.825     0.619  34.29   0
       119    633.7327    849.4960 307.6464220  +6.3398180     3734.329     5110.806     5798.497     77.59908     154.9524     309.5664      1.495     2.94     847.1962     54.56611     584.1668        21     1.191     0.930 -68.66   0
       120   1023.7165    848.6510 307.4845302  +6.3531878      2316.54      3156.36      3422.93     66.91861     122.2281     232.2235      1.266     3.72     836.8716     54.56611     510.9418        11     1.376     0.440 -85.75  24
       121    822.0517    848.6969 307.5682601  +6.3464419     1747.112     2503.618     2007.299     77.47619     154.8293     309.7817      1.490     3.39      844.386     54.56611     281.4788        17     1.162     0.973 -52.39   0
       122    176.6745    849.2532 307.8361892  +6.3245939     560.2609     686.6926     186.5417     77.59908     154.8293     309.5664      1.339     3.91     847.8359     54.56611     76.67944         6     1.078     0.406  76.46   0
       123    624.1948    848.5595 307.6504135  +6.3398855     1089.016     1508.743     1966.787     76.85884     154.5214     309.2892      1.331     2.84     847.3657     54.56611     163.0505         7     0.761     0.624 -18.34   3
       124    626.5391    844.1933 307.6495869  +6.3417666     2353.442     3579.017     3573.863      76.9827     154.6446     309.3201      1.620     3.58     847.1664     54.56611     394.2594        21     1.454     0.906 -58.18   2
       125    949.5305    847.2288 307.5153802  +6.3513019     745.5258     1263.101     1640.096     77.35312     154.8293     309.5048      1.843     5.30     840.9606     54.56611     110.0742         9     1.174     0.868 -47.38   0
       126    910.2885    842.3299 307.5318377  +6.3520156     3531.617     5130.033     5062.177     77.59908     155.0753     309.5664      1.542     3.22     842.3831     54.56611     473.1196        25     1.293     1.067 -57.76   0
       127    320.5023    843.0016 307.7766877  +6.3320046     1165.233     1628.897     1500.158     77.10638      154.583     309.2585      1.362     3.42     848.7922     54.56611      179.708         9     0.908     0.737 -87.39   0
       128    368.4150    838.1099 307.7569605  +6.3356315     2893.823     3988.417     4103.694     77.35311     154.6446     309.4124      1.453     2.89     848.6517     54.56611     456.6064        19     1.141     0.964 -72.42   0
       129    849.1970    833.5936 307.5574961  +6.3535837     498.2358     524.1129     288.7217      76.9827     154.5214     309.4432      1.214     2.80     843.4496     54.56611     95.46027         5     0.726     0.446 -20.93   0
       130    504.6235    827.9697 307.7007506  +6.3443833     3365.031     4616.445     4873.131     77.10637     154.7062     309.3817      1.418     2.98     847.3591     54.56611     536.8683        18     1.149     0.846 -69.12   0
       131    849.6567    826.7619 307.5575344  +6.3564195     990.1373     1532.011      1586.53     77.59908     154.8909     309.5664      1.494     4.34     843.2917     54.56611     163.7756         9     0.986     0.847  28.68   0
       132    569.7542    825.8182 307.6737814  +6.3474525     885.0444     1296.179      1277.56     77.22984     154.7062     309.3201      1.360     5.29     847.1212     54.56611     135.9731        10     1.184     0.667 -57.58   0
       133    551.5187    823.9692 307.6814148  +6.3476054     6755.049     9367.655     10423.48     77.47619     154.7062     309.5356      1.452     2.92     847.0988     54.56611     1038.038        28     1.258     1.007 -67.33   0
       134    558.2321    823.5053 307.6786431  +6.3480217     1437.953     2135.325     2638.716     77.72176     154.7062     309.6587      1.561     3.40     847.0873     54.56611     209.1995        11     1.010     0.692 -68.62   0
       135    469.2665    822.8781 307.7156018  +6.3453008     1800.508     2405.283     2422.605     77.72176     154.8909     309.5356      1.341     3.29     847.3258     54.56611     250.6561        16     1.122     0.868  87.49   0
       136    263.3468    823.7913 307.8010650  +6.3380169     778.6561     1163.292     1114.513     77.10638     154.7062     309.2892      1.503     2.47      848.451     54.56611     147.9986         5     0.710     0.453 -74.42   0
       137    887.3605    821.9995 307.5420392  +6.3596441     1423.984     2241.711     2405.403     76.73477      154.583     309.2892      1.679     3.76     842.4417     54.56611      215.719        17     1.251     0.888  60.55   0
       138    110.9400    821.9910 307.8644005  +6.3336391     1541.479     2159.271      2001.79      76.9827     154.7062     309.2892      1.448     3.00     846.3603     54.56611     259.4863        16     1.186     0.795 -82.21   0
       139    687.1297    820.9845 307.6252100  +6.3533749     821.7408     1264.102     1497.117     77.10638     154.7678      309.474      1.703     4.81     845.3622     54.56611     104.3364         9     1.169     0.560 -64.34   0
       140    522.1458    817.8543 307.6938160  +6.3491463     22044.34      30180.9     31404.87     77.84425     154.8293     309.5664      1.445     2.91      846.978     54.56611       3189.6        42     1.321     1.061 -65.73   0
       141    363.1477    819.6100 307.7597709  +6.3430924     739.4872     1027.078     587.7652      76.9827     154.7062     309.3201      1.434     5.14     848.4273     54.56611     102.8536        10     1.118     0.669 -72.35   0
       142    935.8622    816.2550 307.5220933  +6.3636339     3924.413     5703.204      5453.28     77.72176     154.7678     309.5356      1.563     3.20     841.0737     54.56611     580.9906        27     1.243     1.122 -80.66   0
       143    168.8186    817.2292 307.8405320  +6.3375506     657.2201      849.671     237.3717     77.22984     154.6446     309.5048      1.266     4.67     847.1038     54.56611     127.9196         8     1.176     0.526 -60.76   0
       144    408.3717    813.6655 307.7411949  +6.3470632     679.2753     1012.182     979.5863     77.35312     154.8293     309.5048      1.557     4.10     847.5096     54.56611     132.6316         8     1.044     0.653  53.33   0
       145     55.4512    814.0627 307.8877054  +6.3350458     635.4445     929.9908      678.653     77.59907     154.7678     309.5356      1.473     4.71     845.5242     54.56611     103.2253         8     0.960     0.656 -40.16   0
       146     32.5440    808.2981 307.8974105  +6.3366549     1701.374     2566.683      2835.32     77.47619     154.8293     309.7817      1.644     3.83     845.0887     54.56611     228.7073        19     1.236     1.074 -22.22   0
       147    577.2134    807.9059 307.6712868  +6.3550973     515.4002     883.0921     752.4332     77.35311      154.583     309.4124      2.033     4.45     846.6046     54.56611     84.03705         5     1.373     0.409  89.33   0
       148    314.7897    806.5448 307.7802888  +6.3468638     3704.506     5153.328     4981.709      76.9827     154.7678     309.2585      1.481     3.09     848.4821     54.56611     534.4218        23     1.256     0.934 -60.31   0
       149    780.3096    802.4554 307.5871435  +6.3641389     61628.11     84555.45        88348     77.47619     154.7062     309.6895      1.496     2.99     844.0125     54.56611     8546.672        75     1.401     1.211 -67.62   0
       150     14.7747    804.5219 307.9049154  +6.3376158     2395.404     3472.747     3332.533     77.35312     154.7678     309.5356      1.545     3.44     844.7449     54.56611     358.1334        19     1.260     1.134  46.44   0
       151    718.8698    803.9202 307.6126047  +6.3614811     747.8908     1150.783     1643.115     77.84425     155.1367     309.5356      1.593     4.56     844.7524     54.56611      97.7323         8     0.862     0.685 -38.22   0
       152    237.5032    800.2271 307.8125899  +6.3468773     5888.863     8806.411     10957.74     77.72176      154.583     309.5048      1.722     3.01     848.0098     54.56611     895.6228        32     1.370     1.064 -63.74   0
       153    423.8231    800.7363 307.7352152  +6.3529190     1018.986     1346.407     1351.586     77.22984     154.8293     309.4432      1.408     3.65     846.8444     54.56611     170.0954         8     0.918     0.633 -84.80   0
       154    905.6000    797.7120 307.5352802  +6.3702800     9353.704      13433.5     13830.05     76.85884     154.3363     309.2276      1.540     3.10     841.5372     54.56611     1373.018        34     1.297     1.101 -70.71   0
       155    708.5543    797.0739 307.6171177  +6.3639628     23954.21     33903.29     36410.34     77.47619     154.8909     309.5664      1.496     2.97     844.5162     54.56611     3750.302        48     1.362     1.185 -56.74   3
       156    702.2531    793.5508 307.6198523  +6.3652067     99350.73     135570.9     142112.6     77.72176     154.8293     309.5664      1.490     2.96     844.4155     54.56611     13492.28        87     1.442     1.191 -63.80   3
       157    347.1080    794.3745 307.7672810  +6.3529727     23002.22     31628.59     32491.77     77.72176      154.583     309.4124      1.459     2.96     848.0277     54.56611     3388.185        50     1.383     1.099 -64.40   0
       158    237.0748    778.8211 307.8134902  +6.3557002       756879      1648965      1819701     77.22984     154.7062     309.5048      2.198     6.51     847.2368     54.56611     63923.67       607     2.373     2.174 -73.30   4
       159    409.0281    792.2175 307.7416449  +6.3559399     24612.66     34103.07      35531.1     77.22984     154.6446      309.474      1.474     3.03     846.8004     54.56611     3738.939        49     1.368     1.102 -64.27   0
       160    396.4136    794.6396 307.7468008  +6.3545170     1558.102     2087.738     2189.391     77.10638     154.6446     309.3201      1.436     3.36     847.1649     54.56611     259.1761        14     1.086     0.812 -66.24   0
       161    206.1932    796.3536 307.8257199  +6.3474248     555.6928     711.3309     979.3555     77.10638     154.6446     309.2276      1.262     4.05     847.3954     54.56611      87.8175         6     0.726     0.661 -64.32   0
       162    636.0282    793.4370 307.6473533  +6.3630390     779.7905     794.7203     826.6085     77.10637      154.583     309.3817      1.105     2.44     845.2838     54.56611     149.9509         7     0.801     0.590  72.73   0
       163    946.0690    791.2590 307.5186930  +6.3742941     2303.022     3530.605     3570.343     77.72176     154.7678     309.5356      1.614     3.34       839.96     54.56611     320.1801        18     1.213     0.909 -70.76   0
       164    902.4978    789.1366 307.5368559  +6.3737170     7242.914      10334.9     10779.17     77.47619     154.9524     309.5972      1.527     3.21     841.3632     54.56611     1024.179        31     1.300     1.078 -70.82   0
       165    875.4104    789.6673 307.5480853  +6.3725940     899.2928     912.3977     1046.376     77.10638     154.6446     309.4124      1.380     4.75     842.0429     54.56611     111.5214         9     1.077     0.725 -68.26   0
       166    643.0675    788.0388 307.6446120  +6.3655031     7007.602     9633.189     9784.863     77.47619     154.7678     309.6279      1.435     2.98     844.9019     54.56611     1081.469        29     1.321     0.971 -72.41   0
       167    383.4264    787.7429 307.7524254  +6.3569288      533.915     425.6859    -40.77676     77.22984     154.8909     309.4124      1.022     3.50      847.155     54.56611     102.4138         5     0.736     0.479 -77.34   0
       168    431.6726    786.1045 307.7324490  +6.3592228     1932.314     2584.997      2350.27     77.47619     154.9524     309.5356      1.361     2.98     846.2973     54.56611     326.8892        16     1.126     0.813 -66.80   0
       169    157.0324    785.2556 307.8465052  +6.3503545     720.0728     931.8938     1012.394     77.47619     154.8293     309.5356      1.482     4.22     846.2537     54.56611     131.4131         8     1.108     0.679 -50.09   0
       170    596.3740    780.0011 307.6642698  +6.3672591      937.855     1430.442     1902.049     77.22984     154.5214     309.3509      1.585     3.99     845.2698     54.56611     143.8884        11     1.156     0.702 -72.66   0
       171    871.0891    779.8453 307.5502090  +6.3765048     736.7758     1033.531     845.7983     77.59907     154.7062     309.6279      1.364     3.76     841.9084     54.56611     122.1806         7     0.899     0.518 -47.90   0
       172    147.3503    778.9935 307.8507365  +6.3526143     1014.929     1279.122     1380.244     77.10637     154.6446     309.1968      1.328     3.01      846.034     54.56611     175.0674        10     0.882     0.783  75.93   0
       173    678.1158    778.3663 307.6303846  +6.3706687      2624.34     3437.422     3452.168     77.59907     154.7062     309.5356      1.411     2.92     843.9169     54.56611     428.5664        17     1.105     0.892 -61.87   0
       174    255.2540    778.9225 307.8059389  +6.3562689     500.2173     1363.915      3079.01     77.72176     154.8293     309.5664      3.593     5.14     847.3362     54.56611     92.27716         5     1.261     0.592  12.75   1
       175    122.2959    778.7014 307.8611485  +6.3518925     1130.861     1420.064     1154.565     77.59908     155.3209     309.4124      1.290     4.04     845.7977     54.56611     183.2959        11     1.174     0.643 -56.31   0
       176    411.9399    774.8897 307.7410198  +6.3631913     59847.64     83295.66     86981.55     77.47619     154.9524     309.6279      1.468     2.97     846.2336     54.56611     8989.118        67     1.383     1.192 -57.47   0
       177    954.6973    776.5601 307.5156029  +6.3806505     888.3259     1155.413     1023.632     77.59908     154.7062     309.7817      1.606     5.60     839.2339     54.56611     124.3666        10     1.298     0.682 -65.80   0
       178    529.6542    773.9040 307.6921775  +6.3675427     7737.488     10589.83     10848.06     77.47619     154.8293     309.8125      1.436     3.01      844.992     54.56611     1204.395        28     1.239     0.982 -62.01   0
       179    446.4581    772.5945 307.7267651  +6.3652960     5019.105     6778.982     7299.753     77.10638     154.7062     309.2892      1.500     3.13     845.6519     54.56611       706.02        22     1.191     0.933 -61.64   0
       180    774.9062    770.5303 307.5904587  +6.3771389     12829.43     17715.66        17923     77.47619     154.8909     309.5664      1.479     3.01     843.1614     54.56611     1934.273        34     1.297     1.067 -63.99   0
       181    443.0244    765.9178 307.7284156  +6.3679374     2562.208     3458.712     4467.662     77.35311      154.583     309.5048      1.437     3.16     845.4466     54.56611     381.3253        18     1.195     0.854 -60.87   0
       182      4.3052    766.5220 307.9105473  +6.3529510     1331.709     1756.766     1550.997     77.35312     154.5214     275.3594      1.411     3.20     844.6633     54.56611     185.8293        12     0.973     0.858 -39.27  16
       183    796.9438    764.5104 307.5815103  +6.3803604     1619.856     2160.571      2426.85     77.47619     154.7678     309.6895      1.417     2.89     842.6232     54.56611     283.4274        13     0.966     0.879 -79.63   0
       184    140.7988    762.7939 307.8540038  +6.3590818     3341.347     5069.546     4893.345      76.9827     154.5214     309.3817      1.572     3.35     845.6597     54.56611     503.3475        23     1.356     0.923 -60.84   0
       185    132.6317    762.4948 307.8574048  +6.3589307     12814.88     17545.83     19191.92     77.72176     154.6446     309.6279      1.513     3.01     845.5729     54.56611     1956.042        37     1.325     1.059 -58.47   0
       186    964.7440    763.9954 307.5118523  +6.3861730     566.5298      834.987     1382.405      76.9827     154.6446     309.2892      1.469     3.55     838.6241     54.56611     91.12592         5     0.803     0.493  34.90   0
       187    920.4677    759.1962 307.5303980  +6.3866777     7207.447     10110.31     10096.43      76.9827     154.5214     309.3509      1.486     2.98     839.9374     54.56611     1020.888        26     1.236     1.014 -69.64   0
       188    124.8848    759.8583 307.8607103  +6.3597587     3194.123     4742.089     5397.464     77.59907     154.8293     309.6587      1.618     3.05     845.4681     54.56611     489.8472        22     1.211     0.971 -66.40   1
       189    969.7037    759.1147 307.5099564  +6.3883534     1715.463     2578.828     2836.163     77.59907     155.1981     309.6279      1.574     3.77     838.3905     54.56611      226.869        16     1.215     0.855 -47.96   0
       190    675.9223    756.5826 307.6320274  +6.3795888     1920.589      2702.97     3138.214     77.10637      154.583     309.5048      1.465     3.36     843.3167     54.56611     320.7136        16     1.183     0.891 -77.74   0
       191    562.7064    756.0788 307.6790537  +6.3760086     2592.134     3705.601     3915.855     77.35311     155.0139     309.5972      1.490     3.40     843.9673     54.56611     411.1526        17     1.233     0.796 -64.70   0
       192    410.6041    755.3422 307.7422330  +6.3712166      1295.59     1996.111     2212.192      76.9827     154.7062     309.2892      1.776     4.45     845.6434     54.56611      219.951        15     1.227     1.018 -54.01   0
       193    124.8418    753.5005 307.8609430  +6.3623820     2187.485     3149.185     3536.895     77.59908     154.7062     309.7817      1.564     3.53     845.3551     54.56611     353.8177        17     1.251     0.836 -54.38   0
       194    694.4141    753.7934 307.6244429  +6.3813586     509.1531     567.2645     514.2455     77.22984      154.583     309.4124      1.284     3.53     843.2407     54.56611      90.3573         5     0.821     0.438 -71.02   0
       195    975.0101    750.4562 307.5080431  +6.3921051     2065.073     2907.217     2603.741      76.9827     154.7678     309.2585      1.535     3.32      838.142     54.56611     302.3553        18     1.155     0.945  89.27   0
       196    944.0143    750.6594 307.5209068  +6.3909876     3423.085     5065.368     5088.319      76.9827     154.7678     309.3201      1.540     3.16     838.9839     54.56611     484.0306        23     1.219     1.049 -85.91   0
       197    914.6417    751.1299 307.5330876  +6.3898135     3257.255     4307.303      4039.58     77.47619     154.8293     309.6279      1.427     3.03     839.8336     54.56611     461.8374        18     1.116     0.899 -79.24   0
       198    667.1161    750.3125 307.6358947  +6.3818829     1692.705     2309.458     2847.608     77.35311     155.0139     309.5972      1.421     2.78     843.1655     54.56611     279.6711        14     0.974     0.868 -46.52   0
       199    814.1700    748.7283 307.5748872  +6.3874515     1278.554     1567.283     1160.702     77.47619     154.8293     309.5356      1.377     3.70     841.9367     54.56611     193.6011        12     1.096     0.731 -84.79   0
       200    889.7526    746.2036 307.5435876  +6.3910170     844.2288     1228.992     1329.099      76.9827      154.583     309.2276      1.510     3.89     840.4976     54.56611     133.4351         9     1.008     0.716  85.75   0
       201    239.6037    745.2940 307.8135717  +6.3696265     2016.702     2858.687     3879.004     77.35312     154.5214     309.3201      1.723     3.96     846.0019     54.56611     267.3204        19     1.377     0.869 -45.04   0
       202    932.7573    740.7232 307.5259142  +6.3947144      1314.26     1625.868     1578.362     77.47619     154.8293     309.5972      1.319     3.01     838.9526     54.56611     226.4427        12     0.986     0.800 -79.11   0
       203    259.8685    740.4868 307.8053200  +6.3722917     750.2875     1204.654     1523.675     77.72176     155.0753     309.5972      1.643     4.36     845.8257     54.56611     122.8625         7     1.132     0.589 -81.08   0
       204    958.9236    738.5379 307.5151222  +6.3964893     2731.495     3918.972      4064.31     77.84425     154.8293     309.5664      1.532     3.54     838.3555     54.56611     356.9375        20     1.249     0.956 -59.54   0
       205    906.2071    739.5306 307.5369789  +6.3943210     1243.789     1562.932      1348.26     77.10638     154.4597      309.474      1.365     3.93     839.7896     54.56611     170.2484        12     1.137     0.689 -87.77   0
       206    155.2811    739.9484 307.8487627  +6.3690001     832.9561     1198.384     508.8871     77.59907     154.8293     309.5664      1.253     3.02     845.3011     54.56611     159.4088         7     0.773     0.579 -78.06   0
       207    678.3392    737.7236 307.6316576  +6.3874556     1052.012      1592.69     2281.911     77.84425     154.8909     309.5356      1.853     3.84     842.7759     54.56611     170.7631        13     1.078     0.914  16.62   0
       208   1000.8844    731.9009 307.4979207  +6.4006284     1855.544     2606.342     2218.758     77.59907     155.3209     309.6587      1.496     3.03     837.4199     54.56611     280.3031        18     1.111     0.966 -56.63   0
       209    469.1392    733.3813 307.7186683  +6.3822452      1040.14     1422.651     1551.143     77.22984     154.7678     309.4124      1.217     3.86     843.5771     54.56611     309.0677         8     1.078     0.607 -48.88   0
       210    627.1930    731.3324 307.6531097  +6.3883834      709.765     774.4908     686.4261     77.10638      154.583     309.4124      1.184     4.37     842.7534     54.56611     132.7628         7     1.048     0.519 -64.50   0
       211    400.0816    732.4500 307.7473734  +6.3803148     537.5699     837.3708     943.0659     77.59907     154.8909     309.5972      1.640     4.30     844.9049     54.56611     87.77277         5     0.958     0.551 -43.91   0
       212    895.5969    730.7508 307.5416790  +6.3975918     465.6714     501.0054     288.1565      76.9827      154.583      309.166      1.130     3.50     839.8689     54.56611     90.32739         5     0.747     0.473  76.89   0
       213    801.9990    730.0497 307.5805679  +6.3947566     1429.414     2042.188     2092.724      76.9827     154.4597     309.1352      1.479     4.57     841.5496     54.56611     224.4375        15     1.291     0.915 -49.52   0
       214    888.3957    727.6865 307.5447720  +6.3986166     1641.208     2331.548      2519.51     77.10638     154.5214     309.2892      1.532     3.69     840.0546     54.56611     247.4324        16     1.157     0.887  89.43   0
       215    862.8653    722.6232 307.5555431  +6.3998550     1098.289     1486.332     1844.005     77.22984     154.8293     309.4432      1.574     3.92     840.7112     54.56611       169.67        10     0.966     0.721 -81.82   0
       216    648.6064    722.3401 307.6445206  +6.3928123     665.9349     789.5363     1096.281      76.9827     154.7062     309.3509      1.352     4.00     842.5062     54.56611     128.3503         7     0.888     0.682 -75.44   0
       217    845.2070    718.9416 307.5629990  +6.4007855     1681.406     2221.394     2330.695      76.9827     154.7062     309.2892      1.415     3.35     840.7988     54.56611     260.1349        17     1.102     0.993 -65.89   0
       218     44.3354    717.8898 307.8955722  +6.3743753      2819.67     3944.957     4453.667     77.47619     155.0139     309.5972      1.510     3.25     844.3521     54.56611     357.0912        21     1.250     0.921 -63.50   0
       219    108.1866    716.4058 307.8691116  +6.3771360     941.8719     1657.839     1619.547     77.22984     154.6446     309.4432      1.880     7.06     844.3095     54.56611      131.711        17     1.548     0.902  80.30   0
       220    561.9663    713.5279 307.6807925  +6.3935510     692.5895     941.6361     1217.713     77.47619     154.8293     309.5356      1.737     5.02     842.3908     54.56611     108.1387         7     1.050     0.680  79.32   0
       221    657.0698    706.4553 307.6415403  +6.3996535     7192.079     9725.395     10332.65     77.59907     154.7062     309.5048      1.458     2.96     842.1589     54.56611     1111.751        29     1.295     0.962 -65.12   0
       222    525.6632    706.2856 307.6961104  +6.3953253     696.7877     734.5156     585.7708     77.72176     154.9524     309.5972      1.253     4.53     842.2708     54.56611     109.9645         7     0.933     0.624  66.81   0
       223    514.5276    706.0294 307.7007428  +6.3950581     992.4781     1178.515     1344.176     77.47619     154.8293     309.5356      1.327     4.11     842.3202     54.56611     169.6624        10     1.138     0.692 -74.51   0
       224    603.8445    705.6192 307.6636694  +6.3982179     1578.344     2188.958      2310.57     77.22984     154.7062     309.3817      1.563     3.17     842.2402     54.56611     251.7207        12     1.004     0.792 -81.64   0
       225    120.0446    702.2270 307.8646673  +6.3833883     4190.348     5929.557     5528.396     77.10637     154.8909      309.474      1.463     3.09     843.8655     54.56611     635.6516        24     1.229     0.959 -57.77   0
       226    994.1483    701.7490 307.5017280  +6.4128525     2818.814     4039.901     3940.731     77.72176     154.7062     309.5664      1.548     3.07     837.0172     54.56611     401.2662        20     1.093     1.000  85.35   0
       227    630.9148    701.9694 307.6525516  +6.4006306     2459.594     3557.575     3766.553     77.59907     154.6446     309.4432      1.445     2.86     842.1195     54.56611     390.7831        18     1.139     0.905 -81.49   0
       228    306.5736    702.0861 307.7872231  +6.3897132     825.0863     888.8143     1202.453     77.72176      154.583     309.4432      1.229     3.40     843.7338     54.56611     117.6471         8     0.827     0.709 -29.97   0
       229    242.0409    701.6277 307.8140335  +6.3877356     775.9517     1195.272     991.4991     77.22984     154.6446     309.4124      1.508     4.17     843.7354     54.56611      106.081        10     1.031     0.675 -64.55   0
       230    903.8548    698.3881 307.5393352  +6.4112286     4212.944     5937.917     6518.954      76.9827     154.7678     309.2585      1.534     3.26     838.6268     54.56611     633.6984        24     1.335     0.943 -65.55   0
       231    773.9161    698.5568 307.5932863  +6.4068206     22614.88     30644.12     31681.96     77.59907     154.8293     309.5356      1.463     3.02     841.3423     54.56611      3549.35        43     1.313     1.073 -64.18   0
       232    472.9472    698.9698 307.7182459  +6.3965795     1546.973     2422.937     2094.229     77.35311     154.8909     309.5048      1.622     3.55     842.4361     54.56611     239.1548        17     1.257     0.866 -65.10   0
       233    501.5385    698.2430 307.7063984  +6.3978376     986.1668     1656.854     1669.828     77.59908     154.8293     309.6895      1.748     4.28      842.158     54.56611     181.0232        11     1.105     0.962 -65.61   0
       234    319.0901    698.7057 307.7821400  +6.3915289     820.9912     1013.085     1181.881     77.59907     155.3209     309.5972      1.400     5.25     843.5877     54.56611     116.5248         9     1.005     0.775 -54.90   0
       235    545.0193    697.5658 307.6883665  +6.3995735     557.1264      748.935     534.7491     77.10637     154.6446     309.3817      1.589     5.06     841.9915     54.56611     97.62152         6     1.093     0.661 -61.16   0
       236    275.6442    697.8043 307.8002100  +6.3904426      582.178     755.4725     871.8784      76.9827     154.4597     309.2585      1.239     2.67       843.51     54.56611     111.5212         5     0.732     0.440  71.21   0
       237    247.3710    692.2089 307.8121383  +6.3918031     6722.696     9370.465     9839.748     77.22984     154.6446     309.3817      1.500     3.04     843.1719     54.56611     984.5608        28     1.257     1.010 -61.46   0
       238     82.4229    694.2562 307.8805574  +6.3854136     480.2891     981.5887     1053.105     77.22984     154.7678     309.3817      1.891     4.78       843.73     54.56611     100.9016         6     1.147     0.564 -62.64   0
       239    654.4667    691.3495 307.6431289  +6.4058029     8021.713     10883.82     11726.17     77.47619     154.7062     309.5356      1.482     3.05      841.855     54.56611     1192.734        31     1.305     0.997 -63.32   0
       240    636.9844    692.1481 307.6503615  +6.4048884     1007.743     1561.628     1574.864      76.9827     154.8909     309.2892      1.546     3.34     841.8972     54.56611     148.5153        10     1.003     0.669  76.43   0
       241    349.9112    691.2777 307.7695929  +6.3956297      845.325     1210.615     1287.073     77.35311     155.0753     309.6895      1.486     4.30     843.2888     54.56611     131.5671         9     0.986     0.671  57.85   0
       242    914.5612    683.7657 307.5353796  +6.4176228     1316.042     1554.426      2144.52     77.35312     154.7062     309.3817      1.266     2.94     837.8619     54.56611     208.1458        10     0.913     0.748 -72.16   0
       243    726.1985    679.7261 307.6137332  +6.4130003     3991.181     5925.427     6764.518     77.10638     154.2745     309.4432      1.575     3.36     841.6127     54.56611     507.2164        27     1.321     1.067 -85.22   0
       244    681.4413    679.9573 307.6323108  +6.4114084     1205.653      1788.52     2531.742     77.35311     154.8293     309.4432      1.909     3.64     841.6127     54.56611     196.0505        14     1.123     0.831 -67.37   0
       245    992.4601    676.4037 307.5032782  +6.4232602     9750.838      13724.2     14351.85      76.9827     154.7062     309.3201      1.536     3.06     836.5746     54.56611     1388.668        35     1.310     1.139 -77.72   0
       246    930.9767    676.9000 307.5287931  +6.4210050      2643.92     3709.374     3705.366     77.84425      154.583     309.3509      1.494     3.39     837.1938     54.56611     421.9045        21     1.213     0.939 -55.92   0
       247     11.6381    676.1434 307.9105601  +6.3905091     2109.875     3315.898      3683.95     77.59907     154.8909     309.5664      1.734     3.65     843.2635     54.56611     344.2399        23     1.257     1.140 -55.45   0
       248    545.0940    674.6855 307.6891055  +6.4090221     659.1723     746.2103     866.1439     77.59907     155.2595     309.6587      1.322     4.72     841.4343     54.56611     94.40839         7     0.950     0.739 -86.07   0
       249    428.6351    674.5330 307.7374688  +6.4051830     571.7171     810.2189     952.7257     77.47619     154.8909     309.6279      1.619     3.91     842.4613     54.56611      98.6311         6     0.920     0.477  85.29   0
       250     69.8183    671.1174 307.8865732  +6.3945420      28056.3     39509.36     40990.93     77.22984     154.5214     309.5356      1.475     3.03     843.1655     54.56611     4281.392        50     1.375     1.115 -55.93   0
       251    530.9898    672.0673 307.6950503  +6.4096307     2245.395      3232.96     3480.775     77.10638     154.6446     309.4124      1.508     3.32     841.3837     54.56611      337.415        18     1.195     0.891 -58.14   0
       252    499.6779    669.5571 307.7081367  +6.4096182     1476.614     2080.168     1857.834     77.47619     154.8293     309.5972      1.604     4.19     841.3974     54.56611      277.429        15     1.363     0.744 -51.55   0
       253    920.9630    668.4119 307.5332360  +6.4241753      1098.28     1423.589     1343.711     77.10637     154.6446     309.2585      1.371     3.60     837.2178     54.56611     178.1948        11     0.934     0.854  68.15   0
       254    540.2133    666.1147 307.6914206  +6.4123972     994.9072     1523.424     1876.999     77.22984     154.7062     309.4432      1.556     3.55      841.184     54.56611     171.8748         9     1.062     0.620 -28.97   0
       255    715.7838    663.4258 307.6186056  +6.4193818      4011.96     5216.699     5205.886     77.35312     154.7062     309.5048      1.392     2.97     841.1083     54.56611     665.9354        19     1.183     0.846 -61.45   0
       256    737.8297    661.7112 307.6095085  +6.4208266     4660.783     6425.361     6152.721     77.72176      154.583     309.4432      1.458     3.14     841.0535     54.56611     716.1773        21     1.188     0.903 -61.13   0
       257    569.3105    659.6078 307.6795571  +6.4160578       3754.1      4742.37     4675.776     77.10638     154.5214     309.3201      1.369     3.01     841.0072     54.56611     487.7102        19     1.093     0.911 -62.25   0
       258    405.2182    660.1577 307.7476767  +6.4103326     1436.876     1921.233     1943.054     77.10637     154.6446     309.3509      1.437     3.18     842.0181     54.56611     215.1343        13     1.045     0.801 -70.42   0
       259   1010.7201    657.8521 307.4963169  +6.4315281     5496.771     7720.486     7189.344     77.59907     154.8293     309.5664      1.508     3.26     835.6526     54.56611     754.7927        27     1.255     1.032 -76.02   0
       260    229.9202    659.1023 307.8205017  +6.4048848     1945.445     2559.958     2386.517     77.47619     155.1367     309.5972      1.380     3.42      841.869     54.56611     302.2545        14     1.188     0.709 -63.89   0
       261    976.1832    656.7717 307.5106952  +6.4308228     8833.497      12513.1     13000.14     77.22984      154.583      309.474      1.481     3.06      836.061     54.56611     1227.442        35     1.300     1.095 -79.89   0
       262    313.3834    658.5214 307.7858650  +6.4079271     1637.251      2091.64     2060.214     77.22984      154.583     309.4432      1.453     3.14     841.6711     54.56611     234.5811        14     1.031     0.849 -38.74   0
       263    530.3897    657.0402 307.6958052  +6.4158146      595.851     913.2286     681.0873      76.9827     154.6446     309.3201      1.627     3.22     840.9523     54.56611     100.2612         7     0.841     0.750   2.00   0
       264    696.0712    655.4637 307.6270588  +6.4220099     1181.277     1631.591     1416.246     77.59907     154.8293     309.5972      1.359     2.84     840.8174     54.56611     199.4315        10     0.982     0.615 -67.70   0
       265    134.5593    650.0350 307.8604042  +6.4054232     26926.78      37235.5     38812.04     77.35311     154.8293     309.3817      1.452     2.97     842.5067     54.56611     4014.684        49     1.352     1.111 -59.06   0
       266     87.3823    652.9804 307.8798935  +6.4026205     936.1992     1328.327     1900.822     77.35311     154.6446     309.5048      1.452     5.17     842.9464     54.56611     123.9065         9     1.054     0.718  17.13   0
       267    802.7298    650.8389 307.5829232  +6.4274838     1342.572      1811.75     1933.926     77.47619     154.8293     309.6279      1.479     4.63     839.5603     54.56611      223.005        13     1.209     0.826 -47.85   0
       268    421.4918    650.9459 307.7412297  +6.4146814     3254.103     4597.358     4420.214     77.47619     154.7062     309.7202      1.500     3.28     841.6796     54.56611     477.1611        22     1.267     0.978 -70.69   0
       269    639.2437    650.6039 307.6508201  +6.4221156     466.9898     487.0926    -3.334229      76.9827     154.4597     309.2585      1.334     4.44     840.7002     54.56611     74.27386         5     1.115     0.503 -57.64   0
       270    353.9737    645.2991 307.7694563  +6.4147480     786.4089     1024.282     792.6149     77.72176      154.583      309.474      1.431     4.87     840.8112     54.56611     127.5637         8     1.153     0.582 -47.18   0
       271    596.7848    645.1498 307.6686348  +6.4229466     553.2401     835.2824     920.6033      76.9827     154.8293     309.3201      1.592     3.56     840.5121     54.56611     92.58649         6     0.751     0.574 -42.18   0
       272    971.0151    639.7645 307.5134113  +6.4376721     7390.463     11504.88     12031.15     77.22984     154.6446     309.3817      1.652     3.10     835.5012     54.56611     920.8748        38     1.380     1.274  50.22   0
       273     15.7150    638.7595 307.9101320  +6.4060796     1355.444     2007.532       1986.8     77.59908     154.7678     309.5356      1.555     4.11     843.0362     54.56611     220.9812        15     1.151     1.069 -82.56   0
       274   1023.6423    635.5032 307.4916993  +6.4411858     6412.016     8734.378     9944.684     67.90796     123.6233     233.3287      1.299     3.24     834.4034     54.56611      1971.47        26     1.708     0.667 -85.04  24
       275    564.5722    634.9410 307.6823547  +6.4260829     53483.54     74278.18     76715.04     77.22984     154.8909     309.4432      1.469     3.06     840.1942     54.56611     8163.523        62     1.359     1.154 -66.99   0
       276    929.3700    636.5952 307.5308116  +6.4375917     704.7209     905.3514     698.7122     77.10638     154.6446     309.3509      1.442     4.08     836.1346     54.56611     106.9681         9     1.061     0.700 -66.43   0
       277    207.9568    636.3453 307.8303899  +6.4135419     642.8458     760.9269     949.7798     77.59907     154.8293     309.5664      1.191     3.74     841.6897     54.56611     107.5349         5     0.876     0.467   7.03   0
       278    523.8598    634.7440 307.6992673  +6.4248009     895.1053     1101.515     1137.559     77.72176     154.8293     309.5972      1.412     4.81     840.3581     54.56611     115.6068         9     0.982     0.669 -67.95   0
       279    789.4050    633.8721 307.5890262  +6.4340435     610.4196     910.5592     1140.198     77.22984      154.398      309.474      1.686     4.16      839.246     54.56611     97.71771         7     1.033     0.478  82.91   0
       280    171.9759    631.5716 307.8454916  +6.4143035     3194.612      4480.11     4845.167     77.10637     154.7062     309.4124      1.493     3.03     841.9767     54.56611     468.7059        23     1.234     1.008 -54.76   0
       281    975.5018    631.0674 307.5118395  +6.4414124     692.6132     898.0656     966.2848     77.59907     154.9524     309.5972      1.673     5.23     835.0749     54.56611     83.70288         8     1.098     0.704 -58.66   0
       282    494.7498    631.6558 307.7114593  +6.4251006     583.5203     908.9202     1079.953     77.59908     154.8293     309.5972      1.423     3.42     840.4859     54.56611     92.42511         5     0.754     0.448  15.02   0
       283     65.1774    625.7157 307.8900353  +6.4131293     1594.497     2185.652      2103.95     77.47619      154.583      309.474      1.478     3.95     842.7334     54.56611     233.4937        13     1.092     0.903 -63.10   0
       284    461.8230    618.7144 307.7255681  +6.4293401     69450.62     95682.04     99488.84     77.59907     154.6446     309.4432      1.479     2.99     840.3466     54.56611     10184.95        69     1.391     1.173 -63.43   0
       285      5.5287    620.1262 307.9149920  +6.4134292     1890.342     2407.219     2499.496     77.84425     154.9524     289.0335      1.366     3.25     843.0091     54.56611     284.4138        14     1.054     0.865 -57.69  16
       286    647.7381    615.7971 307.6484630  +6.4367699     896.7293     1358.765     1612.971      76.9827     154.6446     309.2892      1.658     3.92     839.4297     54.56611     124.9051         9     0.889     0.733 -82.78   0
       287    136.1297    613.7091 307.8609796  +6.4204727     1746.478     2224.819     1515.588     77.47619     155.0139     309.5664      1.440     4.08     842.1109     54.56611     263.9298        18     1.318     0.911 -27.60   0
       288    931.5856    612.0810 307.5307134  +6.4477865     632.0657     912.3413     265.8769     77.22984      154.583     309.3817      1.566     4.83     835.3926     54.56611     134.7422         6     0.952     0.694  85.46   0
       289    415.6570    611.0275 307.7449977  +6.4309659     874.5446     1264.316     1361.405     77.22984     154.8909      309.474      1.571     4.23     840.1268     54.56611      123.553         7     0.873     0.583  63.77   0
       290    608.0022    610.0533 307.6651571  +6.4378116     984.3267      1434.48     1261.603      76.9827      154.583      309.166      1.470     3.41     839.2642     54.56611     173.7642        11     1.056     0.707 -32.04   0
       291    489.5599    609.3423 307.7143658  +6.4341388     675.4934     1202.194     1726.532     77.59908     154.8909     309.5972      2.402     4.76     839.9789     54.56611      98.2066         7     1.112     0.578 -38.95   0
       292    307.2761    608.1212 307.7901011  +6.4285295      2386.33     3432.409     3423.686     77.84425     155.0753     309.6587      1.535     3.25     839.5992     54.56611       314.13        20     1.298     0.880 -67.67   0
       293      8.3466    609.1600 307.9141929  +6.4180512     551.8948      825.811     1003.829     77.47619     154.8293     309.2585      1.355     3.49     842.9587     54.56611     100.4324         5     0.767     0.457  77.63   0
       294     15.1911    607.8453 307.9113954  +6.4188244     567.3433     744.6545     1066.536     77.10637     154.7062     309.2585      1.234     3.41     842.9164     54.56611     112.0612         6     0.771     0.546 -43.19   0
       295    459.6608    606.4396 307.7268795  +6.4343352      1014.54     1473.651     1655.509     77.59908     154.8293     309.6279      1.702     4.88     839.9851     54.56611      146.209         9     0.993     0.679 -76.36   0
       296    733.9461    602.2499 307.6131187  +6.4452457     5852.997     8006.872     8154.184     77.72176     154.8293     309.5972      1.438     2.98     838.8719     54.56611     968.9787        28     1.197     1.063 -62.37   0
       297    787.4494    597.5405 307.5910581  +6.4489779     15949.53     20832.44     21620.68     77.59908     154.8293     309.6279      1.429     3.01     838.0898     54.56611     2395.156        36     1.257     1.029 -61.57   0
       298   1004.9133    598.0446 307.5007320  +6.4560268     1181.839     1659.075     1269.966     77.59907     154.7062     309.5664      1.498     3.40     833.0942     54.56611     182.6729        14     1.151     0.805 -57.37   0
       299    529.8109    596.6721 307.6980777  +6.4407181     1395.125     2262.898     2516.198     77.10638     154.4597     309.4124      1.637     5.88     839.2622     54.56611      243.796        18     1.903     0.776 -83.00   0
       300    611.3039    595.5833 307.6642728  +6.4438961     3278.445     4182.265     4056.755     77.47619     154.6446     309.4124      1.357     3.02     838.7595     54.56611     454.0798        17     1.123     0.830 -73.29   0
       301     32.4899    596.7219 307.9045887  +6.4239989     667.9485     886.9301     1008.906     77.35312     155.0753     309.6587      1.470     4.25     842.7986     54.56611     97.76703         6     1.036     0.496 -86.29   0
       302    928.6171    591.6938 307.5326297  +6.4561045     1262.204     1779.947     1614.727     77.47619     154.6446     309.4432      1.461     3.43     834.9697     54.56611     174.8525        11     1.015     0.737 -71.70   0
       303    369.7204    589.2654 307.7648068  +6.4384096     1045.036     1337.693     1346.867     77.84425     154.8909     309.5356      1.316     3.11     838.5653     54.56611     160.0708        10     0.849     0.814  17.61   0
       304    223.7229    589.3271 307.8254308  +6.4334826     1461.835     1912.111      2338.93     77.84425     155.0753     309.5972      1.380     2.92     840.3164     54.56611     260.7075        13     1.054     0.751 -58.32   0
       305    187.3501    590.3157 307.8405012  +6.4318522     728.4061     1046.497     2361.775     77.59908     154.8293     309.6587      1.301     3.40     840.9312     54.56611     121.2066         6     0.852     0.496 -46.44   0
       306    354.1930    588.8633 307.7712682  +6.4380546      564.663     950.1428     800.1846      76.9827      154.583     309.3509      1.726     4.01     838.2936     54.56611     80.59082         6     0.800     0.575 -50.78   0
       307    863.5494    580.8041 307.5600167  +6.4584290     3119.599     4274.187     4911.812      76.9827      154.583     309.1968      1.458     3.11     836.0716     54.56611     442.8662        20     1.168     0.896 -55.85   0
       308    158.3962    580.3941 307.8528593  +6.4349750     774.3663      909.003     931.2818      76.9827     154.5214     309.4432      1.251     3.43      841.088     54.56611     129.4354         8     0.954     0.594 -70.99   0
       309    822.2808    578.2588 307.5772405  +6.4581019     2824.287     3898.876     3603.238     77.72176     154.8909     309.5664      1.421     3.05     836.8239     54.56611      399.335        19     1.191     0.869 -64.58   0
       310    802.8270    569.4171 307.5856163  +6.4611025       179277     240677.5       250394     77.22984      154.583      309.474      1.444     2.94     836.9182     54.56611     29197.47       112     1.437     1.213 -62.82   2
       311    793.1580    574.1630 307.5894724  +6.4588201     2865.992     4080.028     4749.389     77.35311     154.8293     309.4432      1.483     3.18     837.2125     54.56611     449.8678        20     1.237     0.909 -56.58   2
       312    736.0894    574.9421 307.6131460  +6.4565915     760.4451     1262.614     1976.494     77.47619     154.7678     309.6895      1.832     4.42     837.8636     54.56611     128.0156         7     0.992     0.775  32.59   0
       313    250.2460    573.1653 307.8149626  +6.4410458     8712.767      12212.9     12624.04     77.22984     154.7678     309.4124      1.474     3.07     839.3081     54.56611     1177.078        31     1.286     1.038 -66.26   0
       314    610.0511    571.7587 307.6655944  +6.4536902     479.8555     498.7671     677.5984     77.59907     154.8293     309.5664      1.384     4.51     837.9057     54.56611     87.37659         5     0.938     0.626 -31.66   0
       315    854.7953    571.6088 307.5639608  +6.4619331     475.5022      691.933     655.4388      76.9827      154.583     309.4124      1.594     3.48      835.924     54.56611     70.49536         5     0.777     0.451  17.22   0
       316    184.4213    567.6657 307.8424824  +6.4411046     65009.69     90923.37     96111.04     77.22984     154.8293      309.474      1.522     3.03      840.257     54.56611     8977.082        80     1.451     1.236 -58.71   0
       317    732.7120    569.5217 307.6147306  +6.4587165     656.5922     940.0846      1697.78     77.35312     155.0753     309.6895      1.456     4.13     837.6772     54.56611     107.0538         9     1.035     0.629  87.08   0
       318    108.4570    563.9432 307.8741525  +6.4400872     6702.357     9535.648     9556.504     77.72176     154.8293     309.5972      1.469     3.07     841.3347     54.56611     923.5559        27     1.229     1.040 -59.09   0
       319    973.6135    561.2098 307.5149649  +6.4701909     1499.865     2233.574     2582.625     77.35312      154.583     309.5048      1.589     3.10     832.6727     54.56611     249.3863        14     1.097     0.819  80.41   0
       320    223.0231    559.4221 307.8267311  +6.4458050     917.7833     1237.296     1346.626     77.35311     154.6446     309.5356      1.477     3.60     839.1133     54.56611     141.6353         8     0.836     0.664 -81.52   0
       321    839.3492    556.6605 307.5708771  +6.4675889     4930.521     6708.709     6548.556     77.59908     154.7678     309.5664      1.462     2.97     835.7263     54.56611      753.874        25     1.191     0.986 -64.54   0
       322    357.8708    554.8017 307.7708896  +6.4522401     18535.88     26077.68     27095.56     77.10637      154.398     309.4124      1.481     3.12     837.9164     54.56611     2646.313        46     1.339     1.131 -62.44   0
       323    447.8833    555.0113 307.7335028  +6.4551725     821.3782     1001.365     767.7723     77.22984      154.583     309.4124      1.360     4.94     838.4109     54.56611     120.0424        11     1.063     0.802  85.64   0
       324    159.7565    553.7121 307.8531960  +6.4460361     2220.633     2959.685     3603.259     77.59908     154.7062     309.5972      1.483     2.88     840.3373     54.56611     345.1237        16     1.133     0.909 -51.46   0
       325    793.3398    549.9919 307.5902084  +6.4688054     6344.952     8767.702     9316.282      76.9827     154.6446     309.3201      1.440     2.96     836.4111     54.56611     923.2225        29     1.280     0.997 -68.19   0
       326     97.0157    551.2564 307.8793323  +6.4449399     1049.159      1505.67     1409.812      76.9827     154.7678     309.3201      1.477     3.51     841.2366     54.56611     171.4698         9     0.976     0.621 -59.01   0
       327    524.2040    549.7931 307.7019842  +6.4598843     7188.491     9843.585     10096.57      76.9827     154.5214     309.4432      1.419     3.03     838.1334     54.56611     1024.755        25     1.192     0.977 -50.40   0
       328    234.6851    551.5766 307.8221533  +6.4494358     1012.585     1413.067      1948.63     77.59908      154.583      309.474      1.465     4.58     838.6656     54.56611     136.3369        13     1.216     0.769 -54.33   0
       329    382.5032    546.4315 307.7609427  +6.4565222      1527.34     2173.164     1924.181     77.72176     154.6446     309.6587      1.593     3.08      837.816     54.56611     195.4272        14     1.052     0.813 -46.36   0
       330    568.8298    542.7985 307.6836872  +6.4642666     2503.476     3999.687     3912.995      76.9827     154.6446     309.3817      1.674     4.06     837.3888     54.56611     325.7886        25     1.478     0.976 -44.99   0
       331    171.2068    542.7792 307.8488105  +6.4509345     7373.638     10444.65     10559.35     77.22984     154.6446     309.3817      1.488     3.06     839.7781     54.56611      1069.33        31     1.294     1.056 -71.08   0
       332     42.7799    541.5255 307.9021830  +6.4471321     5738.222      8197.07     8311.613     77.22984     154.7062     309.5048      1.541     3.12     842.4706     54.56611     878.9376        30     1.344     1.039 -59.16   0
       333    809.8758    542.3486 307.5835977  +6.4725133     1472.035     1860.184      2193.97     77.59907     154.8909     309.5664      1.297     3.00     835.8763     54.56611     236.1742        12     0.987     0.746 -59.22   0
       334    266.4436    539.2963 307.8093796  +6.4555724     96407.21     134271.4     140299.3     77.59908     154.7678     309.7202      1.533     3.03      837.877     54.56611     13646.19        88     1.453     1.233 -56.86   0
       335    556.2092    536.5003 307.6891404  +6.4664441     1003.096     1500.032     1641.466     77.35312     154.4597     309.3817      1.495     5.15     837.2599     54.56611      177.335        13     1.599     0.768 -63.26   0
       336    250.4581    534.1622 307.8161912  +6.4571550     1626.381     2143.232     2244.448     77.59907     154.8909     309.5972      1.440     4.18     837.9665     54.56611     218.1276        16     1.256     0.893 -50.69   0
       337    965.9838    533.3260 307.5190682  +6.4814485     1729.319     2242.839     2530.672     77.10637      154.583     309.4432      1.521     3.79     832.0637     54.56611     242.3151        15     1.177     0.838 -64.97   0
       338    493.1842    530.1561 307.7155274  +6.4669522     43302.49     67048.74     71200.48     77.10637     154.6446     309.3817      1.658     3.23     837.4571     54.56611     6194.526        79     1.513     1.407 -31.26   0
       339    643.7700    528.6883 307.6530399  +6.4726002     943.9561     1258.851     1536.686     77.72176     154.6446     309.5048      1.487     3.75     836.2176     54.56611     157.0857        10     1.036     0.668 -57.13   0
       340    205.5120    526.6402 307.8351099  +6.4587503     2014.888     3018.325     3634.795     77.59908     154.7678     309.5972      1.658     3.56     838.6315     54.56611     307.0386        19     1.235     0.918 -69.18   0
       341     41.3980    526.8323 307.9032538  +6.4531514      1387.42     1679.683     1670.308     76.85884     154.6446     309.3509      1.315     2.96     842.2411     54.56611     208.2605        13     0.992     0.827 -53.01   0
       342     91.4882    526.7477 307.8824563  +6.4548720     703.9026     895.0364     368.2631     77.59908     154.7062     309.6895      1.387     5.24     840.8513     54.56611     91.87793         9     1.086     0.713 -19.28   0
       343    663.3583    525.1253 307.6450248  +6.4747265     1718.621     2102.427     2199.881     77.47619     154.8909     309.5972      1.307     2.77     836.0017     54.56611     267.6088        16     1.019     0.901 -74.24   0
       344    653.2474    525.2015 307.6492213  +6.4743568     3240.336     4444.969     4801.712      76.9827     154.5214      309.166      1.475     3.21      836.034     54.56611      486.537        17     1.113     0.853 -69.65   0
       345    789.5590    531.8203 307.5923888  +6.4761813     18045.93     24293.61     24766.02     77.22984     154.6446     309.3509      1.424     2.85     835.8544     54.56611     2761.755        38     1.261     1.068 -68.62   0
       346    715.3471    524.2586 307.6234630  +6.4768230     1444.869     2135.182     2398.613     77.59908     154.8293     309.5664      1.539     3.98     835.8737     54.56611     192.8036        12     1.173     0.715 -76.62   0
       347     72.5431    522.4580 307.8904685  +6.4560054      805.946     1281.391     1756.945     77.72176     154.8293     309.5972      1.669     3.32     841.2419     54.56611     137.8367         8     0.992     0.564 -45.75   0
       348    390.9791    520.7931 307.7582871  +6.4673911     2012.274     2759.508     2752.056     77.22984     154.6446     309.3817      1.437     3.34     836.5396     54.56611     292.8644        14     1.044     0.882 -47.84   0
       349    322.3133    519.0501 307.7868615  +6.4658067     4337.294     6035.166     5786.065     77.59907     154.7062     309.6587      1.460     2.98     836.7255     54.56611      678.629        25     1.258     0.981 -51.98   0
       350    502.2795    518.5963 307.7121395  +6.4720294     2235.085     2926.412      3110.69     77.10638     154.3363     309.3201      1.424     3.32     836.7688     54.56611     276.5683        17     1.118     0.940 -50.72   0
       351    137.5240    517.6163 307.8636480  +6.4601901     28525.97     39778.34     41302.36     77.10638      154.583     309.4432      1.506     3.01     839.8007     54.56611     4218.994        50     1.379     1.115 -61.60   0
       352    865.5704    517.7041 307.5612946  +6.4845478      1620.23     2142.243      2438.72     77.72176      154.583     309.5664      1.325     3.15     833.8678     54.56611     257.4985        11     0.985     0.735 -60.76   0
       353    102.7115    515.8373 307.8781646  +6.4597537     2930.315         4200     4642.328     77.59907     154.7062     309.5664      1.594     3.19     840.3203     54.56611     403.1711        19     1.175     0.912 -72.65   0
       354    339.4770    514.2540 307.7798956  +6.4683628     1264.305     1617.436     1842.933     77.72176     154.8293     309.5664      1.324     2.89     836.4031     54.56611     203.9144        10     0.911     0.706 -55.19   0
       355    963.1825    512.3813 307.5209337  +6.4900023     5685.065     7769.246     8075.246     77.35311      154.583     309.5048      1.447     2.88     831.5091     54.56611     869.5132        27     1.249     1.010 -64.17   0
       356    536.3630    504.7666 307.6984505  +6.4788807     1636.179      2294.99     2287.332     77.35312      154.583     309.3509      1.477     3.13      835.782     54.56611     236.7158        17     1.105     0.936 -74.01   0
       357      2.0810    501.9135 307.9204237  +6.4621150     26879.87     34261.92     35471.72     75.35657      133.766     244.8845      1.366     3.17     842.9497     54.56611     4233.112        35     1.276     0.955 -86.14  24
       358    434.5465    498.8405 307.7409340  +6.4779152     46486.68     64571.89     67422.87     77.47619     154.8293     309.5972      1.500     3.07     835.3958     54.56611     6582.814        65     1.401     1.176 -64.48   0
       359    642.5615    498.5254 307.6545562  +6.4850126     13491.98     18202.75     18821.33     77.47619     154.8293     309.6279      1.479     3.08     835.0622     54.56611     2048.436        35     1.291     1.028 -67.33   0
       360    282.2454    498.8196 307.8041836  +6.4728134     1050.883     1577.081     1236.122     77.22984     154.7062     309.4124      1.604     4.63     836.4178     54.56611     155.4081        13     1.203     0.927  71.60   0
       361    199.7846    496.3819 307.8385103  +6.4710496     18005.92     28102.12      29373.4     77.35312     154.5214     309.5048      1.720     3.09     838.1738     54.56611      2704.86        52     1.439     1.346 -68.94   0
       362   1009.1824    498.0310 307.5023100  +6.4974607     642.2393     829.4769     472.3298     77.22984     154.6446     309.4432      1.331     3.86     829.7286     54.56611     88.50372         6     0.939     0.455 -53.41   0
       363    976.5939    496.9098 307.5158823  +6.4968371     1184.128     1451.687     1829.962     77.22984     154.5214     309.3509      1.279     2.78     830.6317     54.56611     194.8416         9     0.893     0.641 -42.89   0
       364    905.0735    496.2164 307.5456094  +6.4947376      826.782       1142.1     1375.377     77.10637     154.6446      309.474      1.396     2.89     832.4468     54.56611     169.3489         8     1.023     0.568 -65.43   0
       365    816.8709    496.2664 307.5822397  +6.4917723     975.2141     1449.441     1443.917     77.59907     154.8909     309.5664      1.559     3.78     834.3395     54.56611     150.6262        11     1.022     0.843  83.29   0
       366    564.3470    495.2264 307.6871499  +6.4837566     3139.182     4248.281     4430.825     77.35312     154.9524      309.474      1.444     2.90     835.1526     54.56611     493.0532        17     1.039     0.919 -60.31   0
       367    938.2375    492.4901 307.5319607  +6.4973825     5399.713     7155.453     7274.541     77.59908     154.7678     309.5972      1.412     2.83     831.5805     54.56611     757.9921        23     1.169     0.927 -62.92   0
       368    611.3839    490.8779 307.6677616  +6.4871265     7120.296     9873.622     10367.54     77.22984      154.583     309.4432      1.469     3.13     834.8599     54.56611     978.8609        27     1.240     0.985 -54.16   0
       369     99.3843    491.2642 307.8803770  +6.4697864     1210.395     1623.902     1723.836     77.10638     154.7062     309.4432      1.431     3.01     839.7787     54.56611     175.6745        11     0.902     0.798 -36.78   0
       370    165.4930    497.5932 307.8527099  +6.4693969      1786.53     2271.034     2091.405     77.22984     154.5214     309.3817      1.370     2.89     838.8763     54.56611     252.2957        15     1.055     0.823 -79.59   0
       371    960.8763    484.7462 307.5228179  +6.5013348     3696.787     4933.917     5061.064     77.72176     154.8293     309.5664      1.429     2.99     830.7127     54.56611     593.1093        22     1.198     0.926 -64.22   0
       372    739.3181    482.7568 307.6149022  +6.4947585     545.7653     744.0821     436.0275     77.59908     154.8293     309.5356      1.253     4.40     834.0946     54.56611     90.02478         6     1.227     0.449  83.87   0
       373    523.5543    482.1135 307.7045327  +6.4878040     8108.499     11230.33     12202.38     77.59907     154.7062     309.5664      1.476     3.00     834.6172     54.56611     1243.912        29     1.271     0.998 -59.53   0
       374    399.2050    483.5713 307.7561258  +6.4830339     1014.078     1274.473     1733.669     77.10638     154.6446     309.3817      1.424     4.29     834.5453     54.56611     144.5279        10     1.078     0.661 -43.59   0
       375    369.6971    482.2986 307.7684232  +6.4825694     2895.541     3978.701     4265.648     77.59908     155.2595     309.4124      1.481     3.17     834.6531     54.56611      404.492        19     1.166     0.927 -81.05   0
       376     92.9429    481.5930 307.8833790  +6.4735623     623.2254     990.0984     319.3482     77.10637     154.7062     309.2892      1.528     4.87     839.7211     54.56611     90.14587         8     0.979     0.687 -81.30   0
       377    880.0657    477.9553 307.5566082  +6.5014422      3583.13      4791.59     5722.489     77.59907     154.7678     309.5664      1.409     3.03     832.3572     54.56611     514.4934        21     1.115     0.962 -62.76   0
       378    532.9866    478.1819 307.7007478  +6.4897431      671.381     1090.903     1437.998     77.35311     154.5213      309.474      1.422     3.43     834.3751     54.56611     109.5741         5     0.797     0.488  65.81   0
       379    228.0040    477.0372 307.8274446  +6.4799841     723.0137     859.6021     480.3993     76.73477      154.583     309.3817      1.338     4.51     837.2631     54.56611     119.3793         8     1.092     0.640  85.59   0
       380    887.5375    472.4070 307.5536912  +6.5039822     2336.635     3130.419     3183.308      76.9827     154.6446     309.3509      1.455     3.18     832.0109     54.56611     359.3398        14     1.048     0.772 -60.27   0
       381    106.5077    471.8336 307.8780758  +6.4780476     842.8919     1208.196     1060.542     77.72176     154.7062     309.6279      1.484     3.93     839.1907     54.56611     146.0145         9     1.131     0.639 -62.72   0
       382    926.8937    471.5878 307.5373730  +6.5056337     1311.531     1707.682      2029.66     77.35311      154.583     309.3817      1.418     3.35     831.2245     54.56611     222.1022        11     1.116     0.782 -41.01   0
       383    711.4046    468.3231 307.6269802  +6.4997843     3390.396     4497.431      4752.61     77.22984     154.3363     309.4124      1.450     3.16     833.4661     54.56611     497.0507        19     1.200     0.846 -61.46   0
       384    738.3315    469.0944 307.6157710  +6.5003661     478.5869     577.6136      571.976     77.47619     155.0139     309.5972      1.099     3.49     833.3924     54.56611     101.6055         5     0.807     0.436  74.85   0
       385    382.2616    466.5719 307.7637355  +6.4894836     4202.668     5872.276     6295.656     77.22984     154.8293     309.5356      1.471     3.10     833.9576     54.56611     607.5593        25     1.306     0.931 -57.91   0
       386     73.2762    467.2843 307.8920300  +6.4788077     2187.501     2847.491     3080.346     77.72176     155.1367     309.6279      1.424     3.20     840.0493     54.56611     298.4246        16     1.114     0.870 -71.59   0
       387    422.7165    466.6136 307.7469331  +6.4908233     1112.722      1634.75      1692.94     77.22984      154.583     309.4124      1.534     3.82     833.6424     54.56611     143.0612        11     1.027     0.769 -72.94   0
       388    610.0306    463.1202 307.6692575  +6.4985410     11108.34     15476.19     16245.16     77.47619     154.8293     309.5356      1.457     3.02     833.5701     54.56611     1586.243        40     1.337     1.097 -56.21   0
       389    772.7180    459.6919 307.6018054  +6.5053972     18112.25     24449.48     25494.02     77.35312     155.0753     309.6279      1.453     2.92     833.0297     54.56611     2906.385        43     1.337     1.075 -56.84   2
       390    776.9521    454.9408 307.6002064  +6.5075002     1525.008     2234.271     1873.018     77.59907     154.8293     309.6279      1.566     3.79     832.7726     54.56611     199.7476        13     1.060     0.865 -84.24   3
       391    292.5233    459.9038 307.8012287  +6.4892246     2856.204     4087.281     3654.584     77.22984     154.9524     309.6279      1.511     3.30     834.7324     54.56611     417.6516        21     1.241     0.945 -57.31   0
       392    264.5107    470.2482 307.8125130  +6.4840133     619.0166     785.5273     704.8569     77.59908     154.7062     309.7202      1.393     3.42     835.9304     54.56611     99.21515         5     0.750     0.452  69.01   0
       393    416.1908    458.7998 307.7499066  +6.4938303     715.8999     1073.118     640.7378      76.9827     154.5214     309.3201      1.686     4.94     833.2513     54.56611     112.6569         9     1.040     0.715 -72.65   0
       394    801.9764    456.8138 307.5897503  +6.5075630     1416.056      2015.36     1735.148     77.35311     154.6446      309.474      1.498     3.11     832.9271     54.56611        249.5        13     1.170     0.647 -74.02   0
       395    375.5935    456.7163 307.7668371  +6.4933287     1778.181     2590.172     2810.822     77.22984     154.5214     309.4432      1.589     3.09     833.6316     54.56611     267.7341        17     1.125     0.894 -75.66   0
       396    958.0164    454.7303 307.5250120  +6.5136317     2189.377     3006.786     2623.231     77.10638     154.7062      309.474      1.426     3.18     829.9086     54.56611     361.9031        16     1.128     0.872 -55.45   0
       397    110.2294    451.4862 307.8772182  +6.4865730     4978.349     7119.118     7798.458     77.72176     154.5214     309.4432      1.556     3.25     838.6287     54.56611      624.369        31     1.355     1.070 -46.79   0
       398    748.4030    450.5952 307.6122096  +6.5083402     2504.298      3351.89     3096.069      76.9827      154.398     309.4124      1.416     3.01     832.4945     54.56611     367.6929        17     1.082     0.912 -68.33   0
       399    364.1711    452.3415 307.7717284  +6.4947516     668.7585     744.7071     989.2144     77.22984     154.8909      309.474      1.157     3.32     833.5908     54.56611     111.3634         6     0.741     0.616 -45.88   0
       400   1012.0081    449.4140 307.5027656  +6.5176268      4325.85     6781.775     6973.884     77.22984      154.583     309.4124      1.677     3.49     828.1516     54.56611     563.5793        29     1.374     1.116  43.16   0
       401    267.9777    448.4073 307.8118105  +6.4931465     1642.794     2199.994     2519.242     77.10637     154.6446     309.3817      1.428     3.48     835.0193     54.56611     245.9269        16     1.204     0.853 -51.45   0
       402    346.2244    446.2467 307.7793873  +6.4966655     3494.375     4812.323     4766.263     77.22984     154.8293     309.4432      1.461     3.09     833.5971     54.56611     497.6738        21     1.174     0.931 -78.26   0
       403    702.1125    444.2687 307.6316479  +6.5094045     1868.084     2355.784     2495.842     77.72176     155.0753     309.5972      1.392     3.39     832.3369     54.56611     260.1175        17     1.245     0.814 -65.84   0
       404    976.1068    442.9828 307.5178923  +6.5190850     829.5561     969.9373     1306.748     77.35311     154.6446     309.4432      1.375     4.65     829.0215     54.56611     111.6794         8     0.881     0.709 -71.75   0
       405    406.0237    442.3400 307.7546840  +6.5002847     437.9621     879.8364     1324.958     77.22984     154.7678     309.4432      2.854     5.53     832.6184     54.56611     73.70984         6     1.131     0.763 -71.62   0
       406    234.1252    442.1171 307.8260818  +6.4946062     1003.275     1268.792     960.6894     77.72176     155.1367     309.6279      1.429     3.70     836.0338     54.56611     170.8418        11     0.951     0.868 -36.69   0
       407    543.6553    436.4681 307.6977213  +6.5073219     1043.177     1360.702     1573.043     77.59908     154.7062     309.5048      1.466     3.83     832.2109     54.56611     150.2902        11     1.029     0.784 -81.53   0
       408    445.0219    437.1559 307.7386623  +6.5037326     612.7172     814.8365     795.4163     77.10638     154.7062     309.3817      1.361     3.52     832.2954     54.56611     118.1912         7     1.006     0.817  26.30   0
       409    465.7548    435.1821 307.7301181  +6.5052426     1380.288     1992.862     1955.574     77.22984     154.7062     309.3201      1.483     3.88     832.2414     54.56611     208.0876        13     1.124     0.778 -64.85   0
       410    828.4584    434.2241 307.5795100  +6.5177738     1605.549     2023.433     1561.016     77.22984     154.8293     309.4432      1.395     3.42     831.4933     54.56611     226.7849        14     1.136     0.802 -69.20   0
       411    813.9411    433.2812 307.5855712  +6.5176782     2156.127     2775.027     2788.035     77.72176     154.8909     309.5664      1.384     3.32     831.5359     54.56611     358.0671        15     1.093     0.846 -69.78   0
       412    711.2213    431.4114 307.6282969  +6.5150172     16516.17     22378.87     23744.99     77.22984      154.583     309.4432      1.438     2.99     831.6364     54.56611     2272.207        39     1.311     1.050 -73.33   0
       413    632.2469    427.2831 307.6612361  +6.5140799     2863.889     3928.775     4781.278     77.59908     154.8293     309.5664      1.497     3.10     831.7426     54.56611     443.8193        21     1.163     1.003 -69.81   0
       414    613.3906    433.5192 307.6688579  +6.5108742     872.1533      1178.96      1320.21     77.22984     154.4597     309.4432      1.441     4.11     832.1046     54.56611     171.0153        11     1.154     0.753 -49.89   0
       415    607.6094    424.2433 307.6715710  +6.5145103     5991.146     8492.013     9588.403     77.10638     154.6446     309.3201      1.536     3.22     831.6031     54.56611     880.1929        22     1.218     0.914 -66.48   3
       416    603.7032    421.8923 307.6732725  +6.5153501     16103.92     22258.33     23711.85     77.59907     155.3209     309.5356      1.484     3.05     831.5022     54.56611     2330.375        38     1.326     1.085 -64.24   3
       417    936.4391    421.2475 307.5350967  +6.5267355     4173.484     5646.938     5125.347     77.47619     154.8293     309.3817      1.421     3.26      829.629     54.56611     645.3503        20     1.208     0.864 -70.30   0
       418    375.6308    417.1774 307.7681550  +6.5096533     31596.73      44466.6     46513.85     77.10638     154.6446     309.4124      1.508     3.04     832.0873     54.56611     4738.292        56     1.367     1.186 -64.35   0
       419    412.8647    418.6965 307.7526399  +6.5102752      602.035     752.6016      896.075     77.59907     154.9524     309.5972      1.149     3.36     831.4774     54.56611     124.7355         5     0.939     0.348 -48.20   0
       420    892.0651    417.0812 307.5536669  +6.5269749     1593.074     2471.511     3076.178     77.84425     154.9524     309.5664      1.843     4.92      830.298     54.56611     245.3971        19     1.296     1.094  45.55   2
       421    121.6385    416.6134 307.8736590  +6.5013535     2447.545     3341.064     3390.912     77.22984     154.6446     309.2892      1.437     2.91     837.5619     54.56611     370.0402        18     1.138     0.911 -82.40   0
       422    905.2711    411.7264 307.5483615  +6.5296264     5580.775     7457.189     7704.316     77.84425     154.9524     309.5972      1.426     2.96     829.8839     54.56611     750.7134        25     1.201     0.970 -67.70   0
       423    587.3618    412.6568 307.6803703  +6.5186159     644.6255     798.2064     1358.666     77.59908     154.8909     309.5664      1.261     3.43     831.0087     54.56611     124.1826         5     0.744     0.461 -76.68   0
       424     54.9761    412.0972 307.9014965  +6.5009748     1620.583     2349.543     2718.041     77.72176      154.583     309.4432      1.541     3.49     839.5447     54.56611     213.1118        14     1.095     0.845 -48.15   0
       425    233.1757    407.6989 307.8276384  +6.5087834     15145.51     21322.13     22062.85     77.72176      154.583     309.3817      1.489     3.06     834.9211     54.56611     2018.151        38     1.356     1.071 -66.39   0
       426    728.1532    401.4593 307.6222711  +6.5279492     782.7114     834.3624     1316.308     77.59907     154.8293     309.6895      1.355     3.25     830.3051     54.56611     133.4456         8     0.867     0.680  54.66   0
       427     69.2229    401.4855 307.8959388  +6.5058352     810.3577     1117.145     958.6746     77.59908      154.583     309.4432      1.481     3.35     838.6909     54.56611     141.0791         8     0.886     0.705 -46.07   0
       428   1005.7264    400.5142 307.5070134  +6.5376061     542.1343     806.7226     867.0302     77.72176     155.1367     309.5664      1.440     3.77     826.7405     54.56611     95.95331         7     0.862     0.654 -73.50   0
       429    696.0810    400.5573 307.6356224  +6.5272491     919.8244     1045.288     1286.489     77.59907     154.8293     309.5356      1.379     3.26     830.3459     54.56611     159.9177        10     1.032     0.616 -61.66   0
       430    956.8077    399.6272 307.5273616  +6.5363411     997.4483     1409.716     1261.944     77.22984     154.6446     309.3817      1.430     2.84     828.1367     54.56611     169.7906         9     0.862     0.715  76.14   0
       431    346.1504    397.4297 307.7810648  +6.5168168      1376.19       1710.9     1969.489     77.22984     154.8909      309.474      1.397     4.42     831.6956     54.56611     195.4187        13     1.254     0.749 -70.56   0
       432    179.1230    397.8517 307.8504196  +6.5110320     798.2196     1107.454     1071.467     77.72176     154.8909     309.5664      1.418     4.08     835.7097     54.56611     113.3816         9     0.953     0.697 -82.71   0
       433    133.3644    396.3132 307.8694755  +6.5101285     5602.436     8061.363     8143.838     77.59908     154.7062     309.5664      1.544     3.13     836.7153     54.56611     782.5036        30     1.292     1.124 -56.18   0
       434    238.2335    395.5211 307.8259490  +6.5139808     1468.086     2046.108     2066.517     77.47619     154.8293     309.5664      1.533     5.19     834.2361     54.56611     219.5267        13     1.253     0.798 -48.89   0
       435    430.8605    394.9315 307.7459669  +6.5206900     800.6508     1123.143     1679.068     77.72176     154.7678     309.5664      1.483     4.07       829.98     54.56611     107.2623         8     0.847     0.656 -57.91   0
       436    819.5823    393.0891 307.5845776  +6.5344601      836.624       890.48       645.93     77.35311      154.583      309.474      1.238     4.67     829.9735     54.56611     143.8854         9     0.884     0.778 -31.80   0
       437    155.5301    392.0610 307.8604137  +6.5126294     2838.481     4307.033     4430.196     77.72176     154.8293     309.5664      1.594     3.73     836.0035     54.56611     386.4297        21     1.338     0.922 -74.96   0
       438    551.1577    391.0313 307.6961350  +6.5263317     1081.457     1424.972     1199.575     77.10638     154.7678     309.4124      1.391     4.45     829.6019     54.56611      143.061        11     1.098     0.696 -73.05   0
       439    379.0076    386.8448 307.7677754  +6.5222892     2337.136     3343.907     3145.829     77.10638     154.7062     309.2585      1.472     3.68     830.4598     54.56611     314.9554        20     1.267     1.054 -84.36   0
       440    267.1042    387.5394 307.8142280  +6.5182458     765.8962     785.5686     433.1662     77.35311     154.8293     309.6587      1.348     4.47     833.1568     54.56611     127.0219         9     0.951     0.797  -6.86   0
       441    967.7049    386.1605 307.5232869  +6.5422644     948.6187     1410.356     1691.353     77.59907     154.7062     309.6895      1.471     2.93     827.2701     54.56611     170.3683         8     0.837     0.698  30.51   0
       442    312.9309    384.5738 307.7952953  +6.5210091     677.6807      1024.69     950.1946     77.22984     154.7062     309.5048      1.716     4.42     831.9686     54.56611     104.1085         7     0.876     0.771 -60.52   0
       443     29.2135    381.3154 307.9132372  +6.5128152      3389.05     5515.008     5980.926     77.22984     154.6446     309.4124      1.743     3.89     839.2759     54.56611     480.7656        29     1.650     0.984 -57.85   0
       444    432.7540    380.5202 307.7456662  +6.5267031     8212.527     11377.38     11876.61     77.59908     154.8293     309.5664      1.504     3.18     829.1266     54.56611     1181.706        30     1.298     1.008 -54.25   0
       445    773.4188    377.9779 307.6042592  +6.5391565      14261.6     19277.04     19960.71     77.35311     154.7678     309.5048      1.431     2.88     829.6589     54.56611     2137.247        36     1.248     1.037 -65.10   0
       446    765.5669    379.4052 307.6074725  +6.5383049     2123.479     3016.716     3783.143      76.9827     154.7062     309.3817      1.519     3.39     829.6865     54.56611     300.2573        16     1.152     0.893 -73.46   0
       447    336.8004    376.2882 307.7856613  +6.5252310     1180.552     1673.468     1175.443     76.85884     154.3363     309.2276      1.424     3.50     831.0345     54.56611     175.2487        11     1.002     0.760 -49.50   0
       448    287.5352    376.4844 307.8061158  +6.5234960     495.8985     487.5095     274.1491     77.72176     155.0139     309.6279      1.158     3.73     832.4458     54.56611     69.62897         6     1.015     0.394 -19.16   0
       449   1017.3304    373.1208 307.5031116  +6.5493025     4054.339     5483.011     5562.398     77.84425     155.0753     306.5042      1.434     2.94     825.6032     54.56611     600.9084        21     1.171     0.957 -55.35  16
       450    948.4332    369.7852 307.5318407  +6.5483822     687.9949     840.1093     871.9042     77.22984      154.583     309.4432      1.246     3.52     827.1071     54.56611     106.3358         5     0.788     0.454 -71.97   0
       451    181.7536    369.0497 307.8503003  +6.5230109     855.7297      1149.79     1497.126     77.59907     154.7062     309.6279      1.472     3.88     834.4647     54.56611     115.4132        10     0.940     0.788 -53.84   0
       452    899.1865    367.6735 307.5523667  +6.5476109      590.535     759.1901     569.0301     77.10638      154.583     309.3509      1.192     1.76     828.0547     54.56611     150.2151         5     0.691     0.425 -21.23   0
       453    388.6490    366.4633 307.7644584  +6.5310270     422.2695     751.0307     615.0862     77.47619     154.7678     309.6279      1.658     5.75     829.0779     54.56611      69.8877         8     1.724     0.539 -48.85   0
       454    521.2061    366.1867 307.7094116  +6.5355853     441.1162     611.6312     632.0652     77.22984     154.6446     309.4432      1.377     3.79     827.9954     54.56611     70.31689         5     0.940     0.438  44.51   0
       455    453.1211    364.8205 307.7377361  +6.5338675     2393.329     3328.861     3152.767     77.22984     154.5214     309.5664      1.462     3.06     828.0651     54.56611     330.0603        19     1.135     0.934 -62.89   0
       456    480.9665    364.1445 307.7261936  +6.5350800     3378.172      4858.91     5013.173     77.47619     154.8293     309.5664      1.502     3.13     827.8735     54.56611     502.3141        21     1.182     0.981 -63.48   0
       457    909.8231    363.8549 307.5480768  +6.5495424     967.7976     1115.922     1029.298     77.22984     154.8293     309.3817      1.190     2.54     827.6541     54.56611     193.0862         8     0.765     0.694 -59.64   0
       458    838.7862    360.8802 307.5776826  +6.5483990     36277.99     51702.78     53856.36     77.22984      154.583     309.3817      1.489     2.98     828.7557     54.56611     5834.306        55     1.458     1.104 -74.54   0
       459    984.4396    360.7699 307.5171872  +6.5533051     449.1572     625.9476     733.0116     77.10638      154.583     309.4432      1.597     3.43      825.955     54.56611     85.15497         5     0.789     0.430 -68.03   0
       460    331.2028    356.5828 307.7886510  +6.5331783     937.5248     1178.137     752.5259     77.22984      154.398     309.3817      1.490     3.54     830.5251     54.56611     144.6076        11     1.005     0.849 -82.76   0
       461     56.2752    356.0583 307.9028528  +6.5241531     661.2338     920.2416     680.8737     77.72176     154.8293     309.5356      1.518     5.30     837.6631     54.56611     82.56946         7     1.154     0.687  56.95   0
       462     18.7608    353.5748 307.9185171  +6.5239153     1207.956     1642.429     1503.717     77.22984     154.6446     309.3817      1.506     3.13     838.3974     54.56611     211.9885        14     1.118     0.833 -72.73   0
       463    610.6296    353.2000 307.6727070  +6.5439415     3037.383     4343.487     4664.113     76.85884      154.583     309.3509      1.565     3.12     827.5243     54.56611     463.6642        18     1.108     0.916 -66.48   0
       464    695.2432    346.8495 307.6377760  +6.5493944     88674.59     119900.3     125064.9     77.59907     154.7678     309.5664      1.419     2.88     827.8382     54.56611     12308.16        82     1.386     1.187 -52.65   0
       465    853.5182    348.0993 307.5719925  +6.5541676     1321.821     1639.841     1598.476     77.59907     155.2595     309.6587      1.330     3.49     828.0187     54.56611     197.7027        12     1.105     0.743 -52.52   0
       466     74.5086    346.2746 307.8956112  +6.5288058     1344.139     1785.905     1498.342     77.59908     155.0139     309.5664      1.441     3.86      837.058     54.56611      193.235        11     1.111     0.688 -52.67   0
       467    557.5801    343.5255 307.6950668  +6.5461594     2923.107     4006.049     4359.407     77.22984     154.7678     309.5048      1.575     3.23     826.8169     54.56611     433.9003        21     1.228     0.963 -63.60   0
       468    936.8586    343.8364 307.5375187  +6.5587092     1058.897     1166.576     1406.167     77.59907     154.8293     309.5664      1.218     2.97     826.1821     54.56611      182.443         9     0.913     0.672  76.00   0
       469     94.9561    342.2722 307.8872543  +6.5311463     6794.177     9419.659     9737.176     77.47619     154.8909     309.5972      1.472     3.12     836.5295     54.56611     912.0365        29     1.282     1.009 -68.12   0
       470    541.0146    339.6992 307.7020762  +6.5471842     7968.252     10906.28     11207.09     77.59907      154.583     309.2892      1.447     2.95     826.6092     54.56611      1125.86        32     1.251     1.079 -60.29   0
       471    765.3879    340.9972 307.6088373  +6.5541557     536.7292     684.6212     413.7031     77.22984     154.5214     309.4124      1.252     4.52     828.2206     54.56611     87.67084         6     0.856     0.678 -57.82   0
       472    403.8426    334.8970 307.7592123  +6.5445686     28402.28     40196.57     41865.57     77.59907     154.7678      309.751      1.500     3.01     827.5238     54.56611      4060.43        54     1.370     1.174 -65.57   0
       473    269.9371    337.1233 307.8147536  +6.5391547     2873.121     3905.032     3927.084     77.84425     154.8293     309.5356      1.438     3.01     831.5844     54.56611     416.2989        18     1.163     0.889 -52.80   0
       474    669.8611    333.7494 307.6487591  +6.5539538     542.2604     744.0119     562.1714     77.59907     154.7678     309.5664      1.512     4.79     826.7509     54.56611     81.17871         8     1.316     0.494 -41.58   0
       475    583.0928    333.9751 307.6847915  +6.5509566     726.0249     997.9714     686.7437     77.72176      154.583     309.4124      1.437     2.84     826.3575     54.56611     123.2799         6     0.784     0.625  79.89   0
       476    511.6534    333.4943 307.7144804  +6.5487622     1396.598     1969.193      1879.49     77.47619     154.7678     309.8125      1.540     3.56     826.3206     54.56611      206.882        14     1.151     0.779 -60.14   0
       477    383.7631    332.8036 307.7676228  +6.5447592     1281.226     1779.569     2802.716     76.73477     154.6446     309.3817      1.602     3.28     828.0227     54.56611      179.937        12     0.908     0.878 -20.04   0
       478    483.1488    330.2568 307.7264289  +6.5491435     1240.642      1765.54     1829.612     77.59907     154.8293     309.5664      1.506     3.43     826.2039     54.56611     195.3912        13     1.095     0.843 -57.94   0
       479    798.4646    327.4995 307.5955517  +6.5608335     1032.373     1502.838     1411.828     77.59908     154.9524     309.5356      1.565     3.31     827.3475     54.56611     164.5579        14     1.080     0.873  81.73   0
       480    381.0998    327.4835 307.7689084  +6.5468662     983.3894     1396.674     1865.374     77.59907     155.3209     309.6587      1.806     4.21     827.9498     54.56611     131.1402         9     0.887     0.766 -53.49   0
       481    492.9866    325.2962 307.7225099  +6.5515212     9399.041     13173.41     13645.01     77.35311      154.583     309.3509      1.471     3.27     825.9922     54.56611      1367.79        34     1.346     1.022 -55.30   0
       482    762.0648    324.0919 307.6107855  +6.5610240     3456.576     4601.363     5496.137     77.59907     155.0139     309.5664      1.373     2.87     827.1604     54.56611     553.2545        19     1.132     0.909 -67.05   0
       483    917.8239    323.8533 307.5460955  +6.5663242     952.0691     1187.851      1519.86     77.10637     154.8293     309.3817      1.251     2.79     825.6537     54.56611     167.7032         8     0.810     0.647 -45.17   0
       484    709.8917    323.7339 307.6324686  +6.5594276     943.2545     1262.906     1049.004     77.59907     155.0139     309.5664      1.598     4.86     826.7778     54.56611     123.2751         9     0.981     0.683 -63.59   0
       485    319.7292    321.8245 307.7945893  +6.5471427     1185.024     1688.986     966.3192     77.22984     154.7062     309.5048      1.471     3.76     829.4966     54.56611     157.9704         9     0.912     0.644 -72.06   0
       486    107.8452    322.3863 307.8825736  +6.5397895      616.146      881.601     983.9284      76.9827     154.6446     309.3201      1.355     3.43     835.8125     54.56611     84.17004         5     0.746     0.455 -17.00   0
       487     78.2440    318.3879 307.8950031  +6.5404441     502.1156     693.7001     1051.835     77.10638     154.7062     309.2892      1.263     3.40     836.5696     54.56611     79.83527         5     1.164     0.288 -54.35   0
       488    255.5332    315.8436 307.8214546  +6.5474559     632.1345     738.1224     815.2122     77.59907     154.7678     309.5972      1.361     4.71     831.2158     54.56611     104.2709         8     0.927     0.678 -44.54   0
       489    154.9754    315.6009 307.8632283  +6.5441761     1359.559     1915.266     2181.775     77.22984     154.5214     309.3509      1.504     3.52     834.5387     54.56611     190.3694        12     0.984     0.834 -73.50   0
       490    670.9612    310.5091 307.6490837  +6.5635854     533.2112     697.9534     598.6682     77.72176     154.7678     309.5972      1.589     4.70     825.5622     54.56611     91.60712         5     1.119     0.560 -75.74   0
       491    382.8394    309.4801 307.7687931  +6.5543572     8365.541     11603.43      12427.9     77.47619     154.8909     309.5356      1.502     3.01     827.4409     54.56611     1251.309        30     1.273     1.021 -59.06   0
       492    238.6161    310.0448 307.8286768  +6.5492814     2235.666     3083.958     3363.817     77.10637     154.7062     309.3509      1.449     2.99     831.6995     54.56611      343.679        16     1.133     0.822 -67.49   0
       493    736.4282    309.3044 307.6219312  +6.5662721      1099.16     1391.237     1289.823     77.72176      154.583     309.5356      1.369     3.35     826.2132     54.56611     169.5535        10     0.980     0.735 -59.84   0
       494    750.7094    305.3849 307.6161309  +6.5683677     61134.05     81785.73      85129.8     77.35312     154.6446     309.4432      1.442     2.89     825.9754     54.56611     10019.12        64     1.324     1.153 -63.79   0
       495    422.2569    304.7043 307.7525819  +6.5576511     2544.286     3376.279       3592.6     77.47619     154.8293     309.7817      1.425     3.17     826.4729     54.56611     345.2096        18     1.186     0.896 -67.89   0
       496    985.7278    302.5948 307.5186024  +6.5773660     1961.571     2478.185     2057.269     77.22984      154.398      309.474      1.331     2.83     823.2408     54.56611     324.3274        13     1.028     0.771  86.68   0
       497    568.3164    302.4510 307.6919903  +6.5634764     1460.213     1853.973     1592.131     77.59908     154.7678     309.6587      1.373     3.27     824.7862     54.56611      235.173        12     1.034     0.770 -54.78   0
       498    926.5681    301.5552 307.5432114  +6.5758219     2740.713     3602.721     3403.931     77.35312     154.8909     309.4124      1.401     2.90     824.4863     54.56611     407.2992        15     1.034     0.851 -66.40   0
       499    459.5459    301.1367 307.7372138  +6.5603743      1327.77     1880.869     2149.596     77.59907     154.7678     309.5356      1.708     3.32      825.494     54.56611     169.8629        14     1.070     0.845 -57.22   0
       500    408.7820    300.4763 307.7583213  +6.5589446     2132.272     2956.699     2955.401     77.10638      154.583     309.5356      1.526     3.31     826.6573     54.56611     322.8934        17     1.127     0.940 -66.35   0
       501    288.9424    299.7470 307.8081217  +6.5552234     863.3217     1240.348     964.2701     77.59907     154.8293     309.5664      1.559     4.12     829.1995     54.56611     121.1395        12     1.048     0.826 -63.19   0
       502    830.2414    294.9181 307.5834466  +6.5753463     1333.661     1851.904     1851.968     77.59907     154.8293     309.5048      1.453     2.90     825.2871     54.56611     195.3829        12     0.945     0.809 -77.67   0
       503    459.2762    295.3122 307.7375221  +6.5627699     847.1235     1212.695     638.5684     77.59908     155.1367     309.6587      1.522     4.07     825.3139     54.56611     137.2365         8     0.979     0.583 -62.94   0
       504    962.4406    293.0509 307.5285957  +6.5805296     556.2669     1031.111     947.8509     77.59907     154.8293     309.5356      1.659     2.63     823.3034     54.56611     106.2455         6     0.768     0.496 -88.14   0
       505    439.4752    292.0119 307.7458579  +6.5634685     1385.702     1943.893     2110.864     77.22984     154.5214     309.3817      1.743     3.36     825.7449     54.56611     198.9081        15     1.203     0.845 -65.03   0
       506    185.4721    291.7535 307.8513678  +6.5550465     2433.208     3478.241     3269.104     77.59908     154.8909     309.5664      1.491     2.93     833.5189     54.56611     347.6329        16     1.047     0.899 -61.89   0
       507    749.1895    290.0156 307.6172787  +6.5746621     6838.771      9035.99     9298.095     77.35311      154.583     309.4432      1.365     2.88     825.0399     54.56611     1007.334        23     1.181     0.940 -57.26   0
       508    220.9548    289.6957 307.8366997  +6.5570888     775.4751     925.8699     803.2896     77.59907     154.7678     309.7202      1.356     4.58     832.2564     54.56611     138.6814         9     0.933     0.762 -74.54   0
       509     81.8768    288.9091 307.8944915  +6.5527361      1149.63      1744.06     1306.052     77.47619     155.0753     309.5664      1.496     3.60     835.9977     54.56611      167.312        13     1.078     0.858  81.85   0
       510    765.6001    287.9081 307.6105329  +6.5760807     2941.104     4007.245     4358.333     76.85884     154.3363     309.2276      1.426     3.20     824.9348     54.56611     451.6666        20     1.136     0.964 -62.14   0
       511    340.5026    289.2923 307.7870589  +6.5612707     628.0778     855.3662     628.2841     77.59908     155.3209     309.5048      1.281     3.39     827.7189     54.56611     110.7729         5     0.740     0.450 -68.25   0
       512    468.0783    287.2188 307.7341388  +6.5664063     708.6215     817.4708     167.4093     77.10637     154.5214     309.5356      1.300     3.16      824.788     54.56611     113.5119         9     0.972     0.810 -82.87   0
       513    355.0134    282.6477 307.7812559  +6.5645009      1730.18     3509.319     3713.548      76.9827     154.7062     309.3201      2.052     6.10     827.3596     54.56611     204.2436        25     1.746     1.010  -3.66   0
       514     68.7101    282.9916 307.9001603  +6.5547358     1428.602     1867.594     1514.837     77.22984     154.5214     309.3509      1.361     3.07     836.3752     54.56611     244.5831        13     1.048     0.783 -58.70   0
       515   1003.8478    278.9007 307.5118699  +6.5877524     6660.578     8888.942      9448.68     77.59907     154.7062      309.751      1.410     2.91     821.6716     54.56611     1038.836        23     1.172     0.928 -58.54   0
       516    481.7817    278.6877 307.7287343  +6.5703877     2272.481     3267.612     3353.697     77.35312      154.583     309.4124      1.555     3.21     824.1106     54.56611     338.6644        18     1.225     0.955 -47.90   0
       517    253.2574    274.7871 307.8237863  +6.5643290     621.6006      1066.84     1757.717      76.9827     154.7062     309.2892      1.624     3.94     830.4739     54.56611     130.5029         6     1.220     0.365  78.08   0
       518    244.4120    274.2600 307.8274781  +6.5642494     6464.375      8927.89     9471.505      76.9827     154.7062     309.2892      1.487     3.09     830.9348     54.56611      906.975        29     1.260     1.050 -75.78   0
       519    704.4063    274.4538 307.6364039  +6.5795894     2606.137     2448.514     2372.344     77.10638      154.583     309.2892      0.829     3.11     824.1158     54.56611      770.785         6     0.616     0.458 -64.33   0
       520    809.1318    272.7867 307.5929584  +6.5837782      630.387     906.4359     1227.937     77.10637     154.6446     309.4432      1.554     4.65     824.2853     54.56611     93.43085         6     0.959     0.640 -74.49   0
       521    935.2568    269.5647 307.5406753  +6.5893192     597.3907     829.3813      580.475     77.47619     154.8293     309.5972      1.536     3.41     823.0984     54.56611     92.34546         5     0.767     0.438 -21.64   0
       522    764.0073    267.4142 307.6118831  +6.5844884     960.2662     1208.214     1234.782     77.22984      154.583     309.4124      1.253     3.34     824.0359     54.56611     173.5379         9     1.004     0.646  89.27   0
       523    116.2194    267.7370 307.8809436  +6.5626322     429.6793     536.8586      323.122     77.22984     154.8293     309.4124      1.415     3.90     834.7989     54.56611     84.94873         5     0.987     0.442 -45.83   0
       524    378.5949    264.9984 307.7720563  +6.5725786     1806.724      2693.54     2560.763      76.9827     154.4597     309.3509      1.512     3.93     826.4644     54.56611     252.0311        18     1.345     0.884  89.46   0
       525    221.2990    267.2321 307.8373156  +6.5663741      625.009     897.1252     1144.479     77.59908     154.7062     309.6895      1.265     3.38     831.9721     54.56611     111.5085         5     0.773     0.429  75.53   0
       526    965.4234    264.2015 307.5283241  +6.5925397     1153.879      1472.88     1225.508     77.22984     154.5214     309.3509      1.333     3.57     822.0447     54.56611     153.6658        10     0.890     0.802  72.56   0
       527    148.2643    260.9485 307.8678632  +6.5665126     2025.758     2816.278     2843.985     77.59907     154.7678     309.5356      1.457     3.28     834.1561     54.56611      284.354        19     1.169     0.971 -61.70   0
       528    300.8905    260.8702 307.8044714  +6.5716744     1358.364     1735.776      1183.83     77.47619     155.0139     309.5664      1.415     3.56      828.291     54.56611     224.3231        14     1.087     0.907 -68.80   0
       529    557.9084    256.4825 307.6978611  +6.5821057      2489.05     3355.079     3590.283     77.35311     155.0753     309.6279      1.487     3.97     822.8868     54.56611     324.1696        18     1.243     0.931 -62.04   0
       530    901.7972    255.8038 307.5550360  +6.5938838     1885.542     2660.353     2973.184      76.9827      154.398     309.3817      1.577     3.07     823.0276     54.56611     312.1905        13     1.070     0.789 -74.55   0
       531    721.6047    254.0470 307.6299459  +6.5885895     5751.624     7607.561     8075.875      76.9827     154.6446     309.2585      1.379     2.99     823.4009     54.56611     950.1514        23     1.179     0.943 -67.15   0
       532    662.3862    254.0067 307.6545460  +6.5866254     2401.222     3224.161     3619.092     77.22984      154.583     309.4124      1.386     2.96     823.1346     54.56611     384.1759        17     1.114     0.859 -53.23   0
       533    959.5250    253.7608 307.5311244  +6.5966535     970.9816      1295.52       907.34     77.47619     154.8293     309.5972      1.518     4.38     821.7969     54.56611     158.6714         9     1.033     0.763 -58.91   0
       534    377.5307    248.1166 307.7730678  +6.5795124     820.4301     1045.085     584.3544     77.84425     155.0753     309.5972      1.463     5.28     826.1018     54.56611     114.5372        10     1.026     0.767 -51.53   0
       535    917.7305    246.3946 307.5487330  +6.5983002     1379.084     1814.656      1546.22     77.10638     154.4597     309.4124      1.447     3.83     822.5552     54.56611     225.9036        12     1.043     0.763 -54.15   0
       536    221.0483    239.2100 307.8383664  +6.5779342     2554.814      3702.69     3760.457     77.10637     154.6446     309.2585      1.532     3.40      831.618     54.56611     335.8306        20     1.247     0.941 -73.58   0
       537    810.6073    239.6562 307.5934583  +6.5975054     609.2325      786.097     947.0887     77.10638     154.7062     309.3201      1.537     6.17     822.8643     54.56611     90.76318         6     1.314     0.814  60.31   0
       538    863.9222    238.3336 307.5713556  +6.5998321     2007.137     2548.417     2816.084     77.72176     154.8909     309.5356      1.336     2.80      822.459     54.56611     365.6006        13     0.978     0.817 -51.88   0
       539    754.3633    237.9566 307.6168790  +6.5963276     1873.035     2481.551     2582.667     77.35311     154.7678     309.4124      1.410     3.14     822.7829     54.56611     262.7189        17     1.142     0.890 -76.11   0
       540    243.1628    232.9303 307.8293929  +6.5812698     668.3344     844.2817      621.518     77.47619     154.8293     309.6587      1.269     3.20     830.6178     54.56611     109.8295         6     0.871     0.488 -57.17   0
       541    781.0645    228.4288 307.6061075  +6.6011536     14968.31     20572.96     22116.66     77.35311     154.8293     309.5048      1.463     2.93     822.3909     54.56611     2406.856        46     1.432     1.154 -38.84   0
       542    460.7537    223.8285 307.7393176  +6.5923309     1514.013     2187.961     2452.805     77.10638     154.8909      309.474      1.466     3.59     822.7555     54.56611      243.988        14     1.261     0.707 -59.68   3
       543    316.0770    230.8729 307.7991759  +6.5845684     714.2554     1078.828     540.7336     77.84425     155.0753     309.5972      1.519     4.55     827.6646     54.56611     85.41644         8     0.881     0.668  42.35   0
       544    278.3207    230.8391 307.8148600  +6.5833143      506.575     908.2856     1315.449     77.47619     154.8909     309.5356      1.864     4.19     829.0746     54.56611     68.99585         6     0.763     0.656  29.13   0
       545    719.6204    224.1782 307.6317743  +6.6008544     830.6469     1142.183     1187.036     77.35311     154.7678     309.5048      1.640     4.01     822.1745     54.56611     133.9888         8     0.929     0.647 -79.02   0
       546    143.2795    222.3666 307.8712381  +6.5822728     2348.157     3236.669     3047.322     77.47619     154.8293     309.5664      1.456     3.25      833.609     54.56611     315.8929        19     1.156     0.955 -59.81   0
       547    117.9406    221.7321 307.8817845  +6.5816823     1265.043     1896.787     2101.715     77.72176     154.7678     309.5664      1.583     3.74     834.0081     54.56611     184.3587        10     1.047     0.660 -66.41   0
       548    455.0197    229.1918 307.7415187  +6.5899245     25017.63     35368.33     36832.02     77.35311      154.583     309.3509      1.499     3.06     823.1616     54.56611     3614.849        48     1.377     1.121 -57.03   2
       549    169.8439    220.6930 307.8602607  +6.5838572      724.153     905.3434     906.7499     77.59907     154.7678     309.6895      1.325     3.98     833.0082     54.56611     98.73523         9     0.924     0.678 -64.08   0
       550    917.6356    218.7766 307.5496991  +6.6096992     1714.208     2419.018      2572.38     77.10638      154.583     309.3509      1.420     3.71     821.5564     54.56611      267.548        16     1.192     0.904  80.19   0
       551    541.7571    215.1202 307.7059630  +6.5986409     2215.633     3285.435     3422.561     77.59907     154.8293     309.5356      1.534     3.21       821.05     54.56611     321.3369        20     1.176     1.044 -83.61   0
       552    579.0175    214.9628 307.6904906  +6.5999539     5135.949     7122.201     6990.449     77.22984     154.7062     309.3201      1.447     3.10     821.3471     54.56611     731.5653        24     1.151     1.030 -59.87   0
       553    299.6009    215.6490 307.8065336  +6.5903001     1322.484     1909.482     1844.869      76.9827     154.4597     309.1352      1.422     2.99     828.2418     54.56611     189.5742        13     0.928     0.881  67.18   0
       554    383.6340    214.1802 307.7716774  +6.5937274     1689.464     2220.527     2291.216     77.10638     154.6446     309.3817      1.436     3.76     825.1218     54.56611     237.9951        13     1.165     0.709 -59.65   0
       555    939.9747    212.1530 307.5406414  +6.6131792     2952.025     3764.119     3262.205     77.22984     154.8909     309.4432      1.353     2.92     820.8925     54.56611     454.3307        19     1.071     0.942 -64.81   0
       556    886.1517    211.5744 307.5630196  +6.6116218      12775.3     17104.74     17782.76     77.22984     154.8909      309.474      1.406     2.84     821.2399     54.56611     1922.812        34     1.224     1.047 -69.41   0
       557    972.7537    209.4596 307.5271148  +6.6153846     11122.32      14687.4     15260.81     77.47619     154.8293     309.6587      1.423     2.80     819.7745     54.56611     1839.446        33     1.231     1.040 -63.18   0
       558    561.2031    211.5439 307.6980057  +6.6007687     967.0783      1283.31     1176.406      76.9827     154.6446     309.2585      1.376     3.49     821.0426     54.56611     156.8138         7     0.875     0.571 -75.00   0
       559    314.0269    211.6890 307.8006750  +6.5924194     1029.611     1476.532      1709.26     77.72176      154.583     309.4432      1.636     3.24     827.7121     54.56611     157.6998        12     0.967     0.835  63.05   0
       560    205.4229    211.3098 307.8457994  +6.5889271     685.3465     991.5748     1257.525     77.59908     154.6446     309.4432      1.670     4.30     831.7878     54.56611     100.5217         9     0.930     0.774  79.51   0
       561    684.1603    209.3551 307.6470030  +6.6057881     3231.197     4608.145     5062.003     77.35311     154.8293      309.474      1.466     2.98     821.7011     54.56611     460.4841        21     1.280     0.865 -59.33   0
       562     12.2398    208.0780 307.9261505  +6.5837608     27610.23     39432.12     41106.96     77.47619     154.8293     309.5664      1.514     3.07     838.6198     54.56611     3742.799        51     1.401     1.143 -57.12   0
       563    258.5080    208.9050 307.8238304  +6.5917039     1381.772     1850.014     1973.384     77.59907     155.3209     309.5664      1.401     3.06     829.9035     54.56611     220.0112        15     1.116     0.827 -76.84   0
       564    492.8259    204.3271 307.7266524  +6.6014571     2298.982     3257.924     2777.306     77.22984     154.7062      309.474      1.486     3.00     821.2156     54.56611     369.7562        17     1.112     0.904 -54.59   0
       565    824.6808    200.8916 307.5889140  +6.6139796     2372.226     2938.529     2467.342     77.35311     155.0753     309.6279      1.302     2.86     821.2017     54.56611     407.2404        15     1.067     0.795 -82.76   0
       566    876.9005    199.9731 307.5672521  +6.6161026      2323.14     3048.694     3416.317     77.59907      154.583      309.474      1.416     3.20     820.6972     54.56611     378.1511        14     1.104     0.764 -85.27   0
       567    504.7702    200.1544 307.7218314  +6.6035801      2816.11     3714.542     3920.774     77.22984     154.8909     309.4432      1.421     3.13     820.9112     54.56611     421.3054        19     1.111     0.940 -69.73   0
       568    339.3348    196.9040 307.7906615  +6.5993729     6261.554     12374.05     13725.33     77.59907     154.9524     309.5972      2.131     6.15     826.6713     54.56611     741.1006        42     2.029     1.054 -73.47   0
       569    736.2759    197.5166 307.6257518  +6.6124185      45984.7        61036     63344.05     77.72176     155.1367     309.6587      1.429     2.88     821.6495     54.56611     6358.578        59     1.323     1.139 -60.12   0
       570    970.0428    196.3305 307.5286813  +6.6207146     3199.295     4140.118     3901.195     77.47619     154.8293     309.6279      1.391     3.15     819.5193     54.56611     482.3412        19     1.156     0.928 -70.14   0
       571    904.1862    194.6842 307.5560946  +6.6191970     8597.048     11365.78     11988.79     77.22984     154.6446     309.4124      1.378     2.79     820.4711     54.56611     1312.214        26     1.232     0.913 -69.62   0
       572   1008.3490    195.0723 307.5128103  +6.6225114     1814.523     2327.104     2535.551     77.59907     154.8293     309.5972      1.336     2.86      818.586     54.56611     277.4894        16     1.108     0.811 -72.17   0
       573    447.6838    193.6520 307.7457640  +6.6043508     5464.103     7598.953     7341.694     77.59908     154.7678     309.6587      1.508     3.10     822.0834     54.56611     779.7052        28     1.313     1.010 -57.33   0
       574    314.1644    191.8380 307.8012880  +6.6006192     433.4844     723.5465     788.1355     77.35311     154.7062     309.3817      1.500     4.47     827.7492     54.56611        61.87         6     1.193     0.475 -62.48   0
       575    222.0232    190.1218 307.8396199  +6.5982322     884.2543     1239.853     1381.525     77.22984     154.6446     309.5356      1.489     5.22     831.2266     54.56611     108.8115        10     0.974     0.789 -64.04   0
       576    105.0548    184.9236 307.8883818  +6.5964443     5268.175     7529.614     7643.936     77.59907     154.8293     309.5664      1.503     3.25     833.8309     54.56611     715.4882        27     1.278     1.014 -66.23   0
       577    924.6696    184.1939 307.5479375  +6.6242115     888.0068     1159.415     1803.164     77.10638     154.4597     309.4124      1.299     4.17     819.9737     54.56611     139.3006         9     1.013     0.628 -68.90   0
       578    275.3751    181.6664 307.8177440  +6.6035156     37163.01     52692.28     54683.67     77.22984     154.8293      309.474      1.532     3.15      829.409     54.56611     5036.828        54     1.382     1.154 -61.47   0
       579    250.7240    182.6875 307.8279492  +6.6022658      7420.96     10596.51     11339.04     77.59908     155.1367     309.6587      1.534     3.01     830.2415     54.56611     1055.151        31     1.289     1.066 -62.98   0
       580     75.3434    183.7827 307.9007617  +6.5959154     445.1967      447.556     265.3101     77.10638     154.7678     309.3201      1.203     5.13     835.2861     54.56611     75.22308         5     1.045     0.711 -12.36   0
       581    704.5781    181.1168 307.6394709  +6.6181292     1035.891     1464.264     1842.361     77.35311     154.5214     309.4432      1.604     4.40     821.0223     54.56611     142.8611        12     1.159     0.785 -74.51   0
       582    190.5808    181.3539 307.8529768  +6.6007949     597.2276     847.3576     1187.722     77.22984     154.7678     309.3509      1.607     3.94     831.5809     54.56611     87.27258         5     1.045     0.426 -74.89   0
       583    399.4558    177.1566 307.7663539  +6.6095430     55286.57     77748.34     80694.85     77.47619     154.8293     309.5664      1.508     3.05     823.2692     54.56611     7853.928        66     1.393     1.190 -61.44   0
       584    155.3449    178.3693 307.8677140  +6.6008420     4374.367     6264.213     6231.425     77.47619     154.8909     309.5356      1.515     3.08     832.0723     54.56611      588.984        25     1.231     1.014 -67.88   0
       585    416.7793    177.5371 307.7591449  +6.6099671     1552.945     2312.021     2101.995     77.22984     154.8293     309.4432      1.526     2.98     822.2753     54.56611     250.2947        13     1.078     0.737 -50.34   0
       586    303.4639    174.8148 307.8063075  +6.6072876     20161.88     28832.44     30299.31     77.10638     154.7062     309.4432      1.528     3.10     828.3068     54.56611     2846.019        44     1.360     1.140 -74.23   2
       587    311.1091    174.2199 307.8031518  +6.6077900     2286.486     4040.469      4989.37     77.47619      154.583     309.4124      2.012     6.24     827.9268     54.56611     367.2092        30     2.056     1.056 -68.87   2
       588    738.7551    173.4150 307.6255322  +6.6224517     37491.23      50482.6     52206.81      76.9827     154.6446     309.3509      1.440     2.93     821.1326     54.56611     5969.536        53     1.307     1.117 -67.62   0
       589     26.2779    173.3817 307.9214941  +6.5985571     669.6212     1064.046     1173.153     77.10638     154.5214     309.5356      1.670     6.28     838.0358     54.56611     95.63849         9     1.661     0.667 -54.80   0
       590    787.0249    173.8764 307.6054644  +6.6238747      1382.89     1913.792      1924.19     77.22984     154.7678     309.5356      1.505     3.60     820.6932     54.56611     224.3375        10     0.955     0.695  88.41   0
       591     55.5530    170.6017 307.9094281  +6.6006906        10063     14310.33     14806.62      76.9827     154.5214      309.166      1.545     3.14     836.3256     54.56611     1452.691        34     1.352     1.072 -73.44   0
       592    562.3330    171.7487 307.6988764  +6.6172357     517.4536     629.1791     1060.763     77.47619     154.7062     309.5664      1.112     3.49     819.3237     54.56611     105.8481         5     0.787     0.447 -76.57   0
       593     89.3122    168.5901 307.8954734  +6.6026575     1701.948     2288.018     2208.471     77.22984     154.5214     309.3817      1.438     3.60      834.424     54.56611     221.4188        15     1.107     0.873 -64.03   0
       594    997.3466    167.9321 307.5182909  +6.6333495      1288.58     1765.247     2067.452     77.59907     154.7678      309.474      1.407     3.56     818.4615     54.56611     215.9012        11     1.033     0.784 -79.31   0
       595    686.6786    174.9199 307.6471150  +6.6200888     1132.731      1423.72     962.0832     77.84425     155.0753     309.6895      1.337     3.87      820.676     54.56611     172.3599        11     1.170     0.642 -54.91   0
       596    572.5547    157.9035 307.6950964  +6.6232940       907.97     1225.108     1008.403     77.59907     154.7062     309.7202      1.397     3.73     818.9847     54.56611     122.9525         9     0.915     0.755 -88.79   0
       597    998.0765    154.0927 307.5184517  +6.6390874     2386.945     3326.015     3385.676     77.35311     155.0139     309.5664      1.463     3.19     817.9217     54.56611     361.8775        20     1.166     0.940 -58.83   0
       598    581.3152    151.4304 307.6916751  +6.6262598      1160.14     1514.715     1465.626     77.59908     154.6446     309.4432      1.450     3.24     818.9954     54.56611     187.0486        10     0.966     0.778 -77.52   0
       599    589.6032    149.6740 307.6882912  +6.6272625     2345.937     3356.049     3935.039     77.10638     154.3363     309.4432      1.595     3.11     819.0978     54.56611     373.0138        19     1.182     0.942 -57.78   0
       600    274.3167    147.8931 307.8193241  +6.6174228     33392.16     48033.62     50252.93     77.35311     155.1981     309.6895      1.511     3.11     829.5397     54.56611     4486.111        57     1.397     1.183 -63.90   0
       601    267.3090    151.0277 307.8221293  +6.6158933     682.4362     1190.199     2038.493     77.72176      154.583     309.4432      1.399     3.40     829.7556     54.56611     120.8268         5     0.805     0.416  73.08   0
       602    333.9816    148.8677 307.7945064  +6.6190243     966.2462     1563.617     1827.182     77.22984     154.7678      309.474      1.625     6.69     826.5516     54.56611      146.875        15     1.606     0.782 -75.77   0
       603     19.5285    146.5266 307.9252069  +6.6094162     5023.336     6890.565     6959.239     77.84425     154.9524     309.5972      1.544     3.33     838.5037     54.56611     684.2186        26     1.393     0.994 -65.37   0
       604    705.9680    144.5901 307.6401218  +6.6332555      8886.94     12060.24     12645.38     77.10637      154.583     309.4124      1.450     2.98     819.8322     54.56611     1345.055        30     1.240     1.028 -66.80   0
       605    183.3847    145.6169 307.8571739  +6.6153062     1021.789     1260.433     1306.697     77.35312     154.5214     309.5048      1.321     3.68     830.9789     54.56611     130.0302        10     0.965     0.736 -68.69   0
       606    260.1051    142.8129 307.8253992  +6.6190426     787.0198     1230.356      1187.36     77.35311      154.583     309.4124      1.673     3.66     829.9603     54.56611     103.2169         7     0.899     0.727  38.88   0
       607    116.7023    141.5642 307.8850102  +6.6147363     5637.407      7693.34     7968.101     77.59908     154.7062     309.7202      1.510     3.12     832.4238     54.56611     824.1276        24     1.206     1.004 -66.72   0
       608    578.6403    139.9502 307.6931728  +6.6309097     710.7009     960.3816     831.2361     77.72176     154.8293     309.5048      1.462     4.44     818.7985     54.56611     126.8393         8     1.062     0.561 -69.14   0
       609    412.6387    140.8562 307.7621020  +6.6249715     530.4487     478.0069    -174.6185     77.59907     154.8909     309.5356      1.191     4.25     821.2971     54.56611     91.29688         5     1.181     0.437 -79.51   0
       610    455.7947    138.9621 307.7442383  +6.6272009     1442.525     1939.788     1963.304     76.73477      154.583     309.3201      1.367     3.09     820.1035     54.56611     264.6024        13     1.115     0.745 -58.25   0
       611    644.7211    138.5357 307.6657690  +6.6337060     938.3226     1329.579     1518.243     77.84425     154.8909     309.5356      1.580     3.73      819.256     54.56611     151.2582        10     1.021     0.818 -87.84   0
       612    387.4842    137.6785 307.7726586  +6.6254394     4311.467     6597.109     6557.033     77.72176     155.1367     309.6895      1.671     3.47     822.9408     54.56611     506.4556        30     1.385     1.137  78.60   0
       613    351.7519    136.5267 307.7875410  +6.6247156     3642.846     5154.021     5388.608     77.59908     154.8909     309.5972      1.519     3.18     825.2113     54.56611     514.4675        24     1.217     1.020 -68.89   0
       614    564.0543    136.4475 307.6993501  +6.6318672      824.479     1121.704     1213.383     77.59907     154.8293     309.5972      1.602     3.72     818.5967     54.56611     145.6498         9     1.028     0.693 -89.11   0
       615    106.1708    136.3561 307.8895610  +6.6165319     1952.574     2778.961     2445.844     77.22984     154.8909      309.474      1.526     3.71     832.5858     54.56611     248.1603        13     1.020     0.856 -53.45   0
       616    742.3575    134.7552 307.6253352  +6.6385327     566.2618      796.742      627.005     77.47619     154.8293     309.4124      1.452     3.49     819.4958     54.56611     92.47693         5     0.792     0.445 -74.19   0
       617    667.8806    134.3663 307.6562882  +6.6362023     922.6494     1473.096     2078.028     77.47619     154.7678     309.5972      1.823     4.62     819.2125     54.56611      150.353        11     1.141     0.773  73.89   0
       618     44.8574    132.4193 307.9151632  +6.6160931      541.032     667.6172      559.458     77.22984     154.7678     309.3817      1.230     2.24     836.6779     54.56611      105.817         5     0.696     0.457 -20.75   0
       619    998.6282    130.6985 307.5190069  +6.6487642     1715.746     2305.022     2075.609     77.72176      154.583     309.5356      1.346     3.30     816.4993     54.56611     278.7583        14     1.137     0.817 -63.77   0
       620    724.9575    130.8859 307.6326938  +6.6395483     564.6656     741.2318      413.378     77.59907     154.7062     309.5664      1.288     3.51     819.3082     54.56611     103.9196         5     0.655     0.577 -87.09   0
       621    203.7263    125.4351 307.8494061  +6.6243218     6115.406     8387.855     8486.093     77.47619     154.8293     309.5356      1.492     3.32      830.804     54.56611     868.2512        26     1.263     0.997 -68.90   0
       622    665.4553    124.2988 307.6576344  +6.6402774     7090.477     9518.054       9897.6     77.47619     154.8293     309.8125      1.442     2.96     818.9011     54.56611     1086.735        27     1.212     0.987 -59.74   0
       623     86.4021    125.3341 307.8981457  +6.6204168     2343.587     3277.274      3481.44      76.9827     154.4597     309.3509      1.460     3.20     833.3259     54.56611      357.713        18     1.082     1.018  78.69   0
       624    842.3632    125.0480 307.5841155  +6.6458821     579.4488     741.2921     818.3196     77.35311     154.8293      309.474      1.364     3.42     817.6227     54.56611     98.48749         5     0.780     0.434  71.39   0
       625    813.6578    124.2165 307.5960687  +6.6452665     1145.917     1482.601     1722.146      76.9827     154.7678     309.3201      1.412     3.08     818.0235     54.56611     202.1937        13     1.058     0.805 -77.08   0
       626    617.6597    121.6053 307.6775808  +6.6397898     10729.83      14767.2     15414.33     77.10638     154.7062     309.3509      1.493     3.05     818.7103     54.56611     1574.196        37     1.276     1.122 -68.81   3
       627    621.2114    113.1059 307.6763914  +6.6434176     60082.65     82093.55     84953.81     77.35311     154.5214     309.3509      1.436     2.94     818.4936     54.56611     8395.897        67     1.367     1.145 -63.13   2
       628    252.3946    121.9382 307.8293073  +6.6274013     779.8572      865.329     513.0799      76.9827     154.6446     309.3509      1.406     4.99     830.1716     54.56611     115.9215         8     0.968     0.788 -80.81   0
       629    555.2294    121.0289 307.7035355  +6.6379371     664.5266     951.7797     1412.385     77.10637      154.583     309.3201      1.518     3.61     818.3794     54.56611     112.9824         6     0.876     0.513  56.60   0
       630     16.3062    120.6019 307.9274230  +6.6200100     981.2792     1419.615     907.3455     77.10638     154.5214     309.2276      1.652     4.85     838.9594     54.56611     149.4525        11     1.169     0.767 -71.99   0
       631    344.8527    117.1919 307.7910595  +6.6324661     4118.924     6227.217     6327.304     77.10637     154.7062     309.2892      1.600     3.68     825.1558     54.56611     587.6003        28     1.485     0.975 -56.95   0
       632    526.5631    116.7203 307.7155893  +6.6387554     1992.094     2792.396     2946.234     77.47619     154.8909     309.5664      1.525     3.44      818.499     54.56611     312.5151        18     1.134     0.980 -53.60   0
       633    990.9373    116.3539 307.5226831  +6.6544299      866.099     1138.773     1360.529     77.47619     154.7062     309.6279      1.410     3.24     815.6144     54.56611     133.6094         8     0.899     0.675  88.98   0
       634    687.4782    114.1280 307.6488275  +6.6452132     504.0146     659.8736     556.9012     77.84425     155.0753     309.5664      1.307     4.25     818.5829     54.56611     87.17242         6     1.043     0.494 -85.22   0
       635    300.3195    106.7585 307.8099115  +6.6352780     4032.143     5837.634     6237.716     77.59908     154.8293     309.5356      1.532     3.17     828.2639     54.56611     539.5977        24     1.263     1.032 -81.86   0
       636    495.6347    104.1307 307.7288620  +6.6429164     610.5815     974.3033     944.0204     77.47619     154.8293     309.6587      1.524     3.29     818.5768     54.56611     101.6709         5     0.761     0.425 -68.92   0
       637      2.6797     89.8772 307.9341238  +6.6322348     35437.44     74034.81     94817.95     77.84425     141.0468     253.8257      2.456     5.78     839.5568     54.56611     10649.69       243     3.757     2.354  89.88  24
       638    700.1876    101.4788 307.6439730  +6.6508605     924.2446      1046.17     987.2651     77.22984     154.5214     309.3817      1.295     3.75     818.0337     54.56611     152.4869         9     1.069     0.571 -63.90   0
       639    671.6738    100.3345 307.6558572  +6.6503790     1613.879     2412.724     2625.566     77.72176     154.8293     309.5664      1.742     3.37     818.1855     54.56611     198.6232        13     0.966     0.894 -67.51   0
       640    685.5438     97.0002 307.6502073  +6.6522196     3514.704     4834.936     4831.417     76.85884     154.5214     309.2276      1.461     2.90      817.988     54.56611     560.5009        18     1.110     0.945 -82.63   0
       641     58.0851     95.3501 307.9109232  +6.6318416     545.3654     670.7803     373.8259     77.59907     154.8293     309.6587      1.344     4.24      834.941     54.56611      95.9776         5     0.831     0.618  79.51   0
       642    427.3615     87.9862 307.7577689  +6.6472921     4548.676     6390.335     6611.863     77.22984     154.6446     309.2892      1.460     3.16     819.7036     54.56611     630.3013        24     1.332     0.947 -65.26   0
       643    160.9819     90.8755 307.8683307  +6.6371516     501.7602     756.8323     335.2374     77.10638      154.583      309.474      1.595     3.87     829.7186     54.56611     79.78528         5     0.841     0.511  60.25   0
       644    899.9139     83.5074 307.5616009  +6.6649537     4521.074     5928.513     6415.219     77.47619     155.2595     309.6587      1.402     2.83     814.8839     54.56611     708.0371        23     1.162     0.934 -72.99   0
       645    881.7947     84.3767 307.5690995  +6.6639899     2465.472     3219.763     3319.915     77.10638      154.583     309.4124      1.406     2.83     815.1957     54.56611      419.595        15     1.062     0.827 -45.89   0
       646    579.5912     84.0845 307.6946589  +6.6540052     809.6832     1079.634      894.851     77.22984     154.5214     309.4124      1.423     4.58      817.612     54.56611     102.6661         8     0.832     0.715 -11.19   0
       647    592.1088     81.9965 307.6895289  +6.6552864     1886.603     2635.145     2543.151     77.22984     154.5214     309.3201      1.452     3.67     817.4299     54.56611     286.8268        16     1.093     1.060  63.24   0
       648    237.6373     81.4938 307.8368040  +6.6436020      1012.77     1257.294     1448.843     77.72176     154.7062     309.6587      1.387     4.28     830.1107     54.56611     143.0756        12     1.207     0.728 -68.32   0
       649    390.6330     79.8944 307.7732999  +6.6494004      2276.87     3083.088     3066.482     77.72176     154.7062     309.6587      1.492     3.37     821.5377     54.56611     277.9857        20     1.145     1.043 -60.63   0
       650    138.7212     76.8704 307.8780516  +6.6421845     3470.088     5038.835     4786.126     77.84425     155.0753     309.5356      1.508     3.38      829.937     54.56611     482.2847        24     1.187     1.052 -57.99   0
       651     20.5350     74.5664 307.9272251  +6.6391570     14014.73     19381.62     20746.55     77.47619     154.8293     309.5356      1.534     3.05     836.4069     54.56611     1946.057        39     1.325     1.118 -72.78   0
       652    286.8384     75.3964 307.8165708  +6.6477724     1375.121     2068.011     2439.045     76.73477      154.583     309.3509      1.572     3.51     828.8466     54.56611     209.1481        13     1.035     0.846 -51.81   0
       653    941.3188     73.4636 307.5447360  +6.6704821     665.6666     909.8441     997.1961     77.72176     154.8909     309.5664      1.551     3.64     813.8433     54.56611     114.6706         6     0.886     0.466  89.57   0
       654    755.3592     74.0640 307.6219740  +6.6640235     782.3169     1008.859     1120.408     77.59907     154.7678     309.6587      1.364     3.00     816.1834     54.56611     130.8429         7     0.823     0.594 -65.99   0
       655    560.4243     73.9907 307.7029616  +6.6575304     730.4424     862.7258     1053.704     77.22984     154.6446     309.4432      1.087     3.66     817.4581     54.56611     120.5802         6     0.781     0.494  89.50   0
       656    547.6810     74.2039 307.7082485  +6.6570154     856.2408     1000.209      1064.01     77.10638      154.398     309.2892      1.381     3.23     817.6059     54.56611     154.0496         9     0.900     0.717 -19.51   0
       657    822.2769     69.2428 307.5943347  +6.6682502     7052.193     9382.414     10264.41     77.47619     154.8293     309.5972      1.400     2.71     815.3101     54.56611     1068.939        27     1.194     1.031 -77.63   0
       658    889.2089     70.7379 307.5664771  +6.6698682     659.0433     852.1007     1112.495      76.9827     154.7062     309.3817      1.367     2.99     814.6983     54.56611     110.4308         6     0.736     0.573 -47.21   0
       659    767.3436     69.5868 307.6171455  +6.6662725     3744.498     4753.696     5387.769      76.9827     154.7062     309.2892      1.337     2.77     815.8595     54.56611     557.0718        18     1.091     0.868 -62.71   0
       660    412.5367     70.0971 307.7645309  +6.6541800     1382.127     1781.661     1734.364     77.47619     154.9524     309.5972      1.324     3.44     819.9862     54.56611     177.0557        12     1.025     0.769 -37.14   0
       661     92.1689     69.9528 307.8976240  +6.6434737     586.8812     872.7671     636.0577     77.22984     154.8293      309.474      1.530     6.00     830.8284     54.56611     90.21222         9     1.150     0.881 -59.72   0
       662    913.4593     69.1859 307.5564541  +6.6713184     559.3993     674.1407     914.2999      76.9827     154.7678     309.2892      1.264     3.38     814.3152     54.56611     108.0161         5     0.854     0.539 -38.17   0
       663    754.2684     68.6838 307.6226080  +6.6662082     748.2377     1056.156     1611.729     77.84425     155.0753     309.5972      1.692     4.55     815.9346     54.56611     107.2439         8     0.954     0.616  82.99   0
       664    529.6541     67.7180 307.7159561  +6.6590891     1289.662     1801.686      2108.26     77.59908     154.8293     309.6279      1.649     3.50     817.6182     54.56611      200.254        13     1.043     0.829 -72.24   0
       665     60.9665     66.3316 307.9107084  +6.6439182     3530.585      4994.97     4777.559     77.47619     154.8293     309.5972      1.503     3.00     832.7831     54.56611     536.7577        22     1.213     0.958 -60.02   0
       666     45.6183     67.4795 307.9170453  +6.6429274     1156.733     1598.511     1525.219     77.22984     154.5214     309.5048      1.491     4.06     833.8766     54.56611     178.2397        11     1.085     0.812 -61.46   0
       667    649.6129     67.0303 307.6661429  +6.6633902     547.3119     950.5847     1045.695     77.10637     154.6446     309.5048      1.575     3.73     816.6536     54.56611     115.8493         5     1.218     0.329 -40.98   0
       668    422.3468     66.0739 307.7605912  +6.6561700     1113.496     1496.484     1464.609     77.47619     154.8293     309.5356      1.439     3.41     819.5342     54.56611     159.0294        11     1.032     0.728 -60.12   0
       669    584.8578     63.0090 307.6931806  +6.6628824     1434.324     2118.461     2059.989      76.9827     154.7678     309.2892      1.502     3.12     816.6835     54.56611     231.3944        14     0.978     0.942  -3.84   0
       670    255.7953     62.6465 307.8298975  +6.6519930      549.839     812.3855     1075.305      76.9827      154.583     309.2585      1.526     3.68     829.2871     54.56611     94.22821         5     0.983     0.395 -84.85   0
       671      3.3205     61.7398 307.9348105  +6.6438722     2896.521     4211.184     5113.974     77.72176     147.5183     262.5713      1.592     3.24     836.2324     54.56611     429.8826        21     1.229     0.963 -55.47  24
       672    762.1157     56.9978 307.6197406  +6.6712950      2118.22      2766.93     3085.703      76.9827     154.4597     309.2585      1.375     2.90     815.2411     54.56611     344.5798        15     1.053     0.865  83.58   0
       673    402.7698     57.1263 307.7690260  +6.6592072     1182.947     1510.435     1244.773     77.47619     154.8293     309.5664      1.491     3.70     820.5148     54.56611     193.2052        11     0.958     0.864 -73.03   0
       674     75.3843     57.5027 307.9050178  +6.6480483     1080.172      1350.98     997.6762     77.59908      154.583     309.3817      1.375     3.65     831.4235     54.56611     156.3489        11     0.992     0.853  50.34   0
       675    653.3344     57.2871 307.6649247  +6.6675371     562.8788     604.4275     661.0991     77.59908     155.0139     309.5972      1.367     4.17     816.1907     54.56611     82.99957         6     0.927     0.534 -45.60   0
       676    164.3488     57.3746 307.8680647  +6.6510950     447.5717     528.5431     352.3584     77.22984     154.8293      309.474      1.350     4.10     829.3122     54.56611     80.03998         5     1.004     0.478   4.87   0
       677     99.6968     55.8670 307.8949734  +6.6495420     973.1803     1213.251     732.8396     77.59907     154.8909     309.5972      1.400     4.00     830.0018     54.56611     148.2935        11     1.056     0.763 -57.64   0
       678     88.5959     50.7566 307.8997578  +6.6512781     10283.95     14659.64     14982.77      76.9827     154.4597     309.2892      1.536     3.06     830.3115     54.56611     1402.226        33     1.307     1.083 -68.52   0
       679    417.6693     50.6272 307.7630554  +6.6623901     2867.359     3808.359     3771.091     77.22984     154.7062      309.474      1.458     3.39     819.4448     54.56611     418.7211        19     1.260     0.864 -66.10   0
       680    239.2385     50.5969 307.8371828  +6.6564110     663.5242     895.5226     392.7019     76.73477      154.583     309.3201      1.357     3.75      829.303     54.56611     134.1224         5     0.882     0.457 -47.97   0
       681    255.2343     44.6767 307.8307377  +6.6593926     1612.906     2304.375     3415.814     77.47619     154.8293     309.5356      1.678     4.02      828.913     54.56611     214.2893        17     1.296     0.877 -82.12   0
       682    631.3743     42.8328 307.6745345  +6.6727695     20844.13     28570.58      30171.2     77.10638     154.6446     309.4124      1.433     2.88     815.3546     54.56611     3120.948        40     1.299     1.052 -64.01   0
       683    661.0699     43.6615 307.6621694  +6.6734212      628.564      791.079     679.5734     77.72176     154.8293     309.6279      1.268     4.03     815.6331     54.56611     102.6713         5     1.019     0.455  63.44   0
       684    940.6632     42.8713 307.5460349  +6.6830901     518.7233     589.7441     102.1787     77.59907     154.8293     309.6279      1.388     3.67     812.9106     54.56611     104.9838         5     0.883     0.471 -87.27   0
       685    686.9987     42.5500 307.6514345  +6.6747477      468.205      739.202     1281.321      76.9827     154.4597     309.1352      1.940     4.14     815.4719     54.56611     70.67133         5     1.098     0.446  63.10   0
       686    531.1619     38.8840 307.7163011  +6.6710434     5783.911     7929.138     7817.355     77.59907     154.7678     309.5048      1.419     3.02     816.9681     54.56611     794.2054        25     1.217     0.985 -61.04   0
       687    249.4703     39.0322 307.8333229  +6.6615291     2196.826     3190.868     3897.807     77.47619     154.8293     309.5972      1.508     3.42     828.8597     54.56611     299.5182        17     1.195     0.850 -59.44   0
       688    767.3925     37.8305 307.6181926  +6.6793845     512.2545     509.1936     531.0956     77.10638     154.6446     309.3509      1.311     3.43     814.2258     54.56611     72.57117         5     0.770     0.442 -70.78   0
       689    257.3341     34.8919 307.8301959  +6.6635026     10230.75     14784.17     15675.18     77.59907     155.0139     309.5664      1.531     3.12     828.6707     54.56611     1340.404        40     1.345     1.140 -70.19   0
       690    618.8700     36.8935 307.6799294  +6.6748029     995.7522     1334.007     1904.427     77.59907     154.9524     309.5664      1.372     3.47     814.9471     54.56611     185.3898         9     0.971     0.619 -72.68   3
       691    617.5864     32.6205 307.6806066  +6.6765239     3672.304     5085.304     5616.135     77.35312     154.5214      309.474      1.516     2.93     814.7281     54.56611     513.6028        22     1.192     0.954 -82.16   2
       692    436.6918     34.4494 307.7556982  +6.6697070     25702.43     35387.65     36610.23     77.47619     154.7062     309.7202      1.513     3.06     818.6684     54.56611     3758.052        51     1.345     1.168 -64.14   0
       693    317.3453     35.2108 307.8052542  +6.6653870     1196.838     1646.381     1483.718      76.9827     154.7678     309.2585      1.420     4.03     826.3747     54.56611     158.6636        11     1.017     0.742 -55.35   0
       694    914.5743     34.4395 307.5571571  +6.6857006     2139.048     2845.761      2610.73     77.22984     154.6446     309.4124      1.404     2.97     813.5043     54.56611     350.1537        16     1.090     0.829 -72.42   0
       695    521.8096     34.4085 307.7203374  +6.6725776     698.9772     913.3152     1414.696     77.10638     154.6446      309.474      1.203     5.10     816.9524     54.56611      99.9812         9     1.362     0.541 -42.68   0
       696     22.7582     34.4820 307.9276589  +6.6557796     2565.181      3472.88     3525.735     77.59908     154.8293     309.5048      1.499     3.45      832.152     54.56611     343.0996        16     1.073     0.936 -43.68   0
       697    549.8323     34.0412 307.7087076  +6.6736682     660.1611      867.416     935.9586     77.22984     154.7678     309.4432      1.373     2.91     816.5527     54.56611     120.3495         6     0.780     0.655 -82.75   0
       698    245.1336     31.4467 307.8353808  +6.6645149     3357.308     4707.305     4881.966     77.59907     154.7678     309.5972      1.555     3.24     828.7155     54.56611     441.8214        19     1.174     0.976 -67.34   0
       699    298.2316     29.7322 307.8133798  +6.6670068     1176.431     1672.119     1836.198     77.47619     154.8293     309.5356      1.542     3.18     827.6176     54.56611     164.5928        13     0.958     0.901 -40.67   0
       700    935.1801     24.8134 307.5489189  +6.6903624     1186.732     1753.501     1828.154     77.35311      154.583      309.474      1.575     4.14     812.8095     54.56611     166.6768        12     1.142     0.842 -69.85   0
       701    686.5783     24.1803 307.6522271  +6.6823174     2064.879     2882.111     2934.031     77.35312     154.7678     309.5048      1.482     3.38     814.5894     54.56611     316.7404        16     1.169     0.817 -67.83   0
       702     91.4244     24.3046 307.8994779  +6.6622933     694.6955     643.7637     40.65104     77.72176      154.583     309.4432      1.182     3.45     829.2155     54.56611       117.94         7     0.948     0.486 -83.66   0
       703    197.8005     19.5637 307.8554463  +6.6678293     897.9457     1325.156     1214.006     76.73477     154.6446     309.3817      1.523     4.97      828.699     54.56611     125.2835        10     1.008     0.717 -89.36   0
       704    252.2823     18.5869 307.8328454  +6.6700641     885.4188      1166.29     1687.356     77.22984      154.583     309.4124      1.429     3.59     828.3677     54.56611     126.9501         9     0.846     0.781  60.33   0
       705    745.2100   1019.0667 307.5944448  +6.2735370     1264.657      1763.77     1904.309     77.10637     154.6446     292.9301      1.496     3.79     849.3041     54.56611     185.9608        12     1.053     0.776 -67.10  16
       706    952.6733   1013.3682 307.5085091  +6.2828144     6416.564     10794.54        11308     77.47619     154.8293     309.5972      1.808     3.83     844.7344     54.56611     692.6613        41     1.539     1.280 -72.61   0
       707    707.0346   1013.7917 307.6104699  +6.2744391     1148.489     1728.205     2031.689     77.10637     154.6446     309.3509      1.575     4.07     849.9764     54.56611     171.0015        10     1.093     0.649 -38.93   3
       708    712.4686   1011.3093 307.6082974  +6.2756455     2846.638       4155.3      4473.17     77.59908     154.9524     309.5356      1.582     3.36     849.8375     54.56611     392.0436        24     1.334     1.009 -65.19   2
       709    435.5950   1012.5061 307.7231959  +6.2658850     1119.249     1545.421     1641.386     77.35312     154.5214     309.3201      1.415     3.92     852.1652     54.56611     162.4522        12     1.249     0.681  87.59   0
       710    237.1088   1013.3043 307.8055639  +6.2588971     1579.027     2136.847     1970.817     77.59907     155.3209     309.5356      1.460     3.49     851.2052     54.56611     224.3816        14     1.093     0.831 -77.46   0
       711    728.0056   1010.5593 307.6018725  +6.2764744     1016.258      1371.11     1119.024     76.85884     154.5214     309.2892      1.483     3.41      849.561     54.56611     174.3282        11     1.059     0.766 -50.61   0
       712    359.1707   1008.6786 307.7550501  +6.2649029     2050.325     2819.804      2735.03     77.47619     154.8293     309.5664      1.449     3.02     851.6547     54.56611     288.2251        16     1.090     0.868 -61.48   0
       713    969.5603   1006.0225 307.5017445  +6.2864102     561.9823     735.0421      624.819     77.22984     154.6446     309.3817      1.417     4.24     843.1839     54.56611     76.94043         5     0.779     0.657  -4.15   0
       714    541.3684    999.0415 307.6797395  +6.2749868     4554.959     6627.306     6939.341     77.10637     154.7678     309.4124      1.554     3.10     852.7861     54.56611     600.0764        25     1.281     1.009 -60.62   0
       715    511.7540   1000.2969 307.6919912  +6.2734769       1166.2     1399.392     1066.806     77.59908     154.7678     309.7202      1.398     4.43     852.8168     54.56611     160.6095        10     0.983     0.735  86.42   0
       716    745.8999    998.4140 307.5948516  +6.2820866      8447.25     12146.27     12559.14     77.59907      154.583     309.2892      1.553     3.22     848.9655     54.56611     1114.912        32     1.286     1.119 -62.96   0
       717    291.7117    997.5092 307.7834302  +6.2672509     16525.67     23878.45     26177.43     77.59908     155.3209     309.6587      1.634     3.23     851.4703     54.56611     2192.968        58     1.766     1.202 -41.00   0
       718    415.7401    998.2410 307.7319185  +6.2711088     1131.167     1641.045     1281.592     77.59908     154.8293     309.6279      1.572     3.22     851.4703     54.56611     207.8328        12     1.038     0.814  83.09   0
