#   1 NUMBER                 Running object number                                     
#   2 X_IMAGE                Object position along x                                    [pixel]
#   3 Y_IMAGE                Object position along y                                    [pixel]
#   4 ALPHA_J2000            Right ascension of barycenter (J2000)                      [deg]
#   5 DELTA_J2000            Declination of barycenter (J2000)                          [deg]
#   6 FLUX_APER              Flux vector within fixed circular aperture(s)              [count]
#   9 FLUXERR_APER           RMS error vector for aperture flux(es)                     [count]
#  12 FLUX_RADIUS            Fraction-of-light radii                                    [pixel]
#  13 FWHM_IMAGE             FWHM assuming a gaussian core                              [pixel]
#  14 BACKGROUND             Background at centroid position                            [count]
#  15 THRESHOLD              Detection threshold above background                       [count]
#  16 FLUX_MAX               Peak flux above background                                 [count]
#  17 ISOAREA_IMAGE          Isophotal area above Analysis threshold                    [pixel**2]
#  18 A_IMAGE                Profile RMS along major axis                               [pixel]
#  19 B_IMAGE                Profile RMS along minor axis                               [pixel]
#  20 THETA_IMAGE            Position angle (CCW/x)                                     [deg]
#  21 FLAGS                  Extraction flags                                          
         1     12.5010     57.4688 307.9362970  +6.6320804     760161.4      1864554      2050555     85.89212     171.5122     342.6499      2.357     6.00     1048.787     60.39761     61404.12       429     2.277     1.857 -78.52  28
         2    103.2971     18.3928 307.8998832  +6.6512624     7684.319      14389.4     15236.33     85.61988     170.9669     342.3772      1.983     4.33     1042.741     60.39761     871.3969        44     1.701     1.306 -74.79   0
         3    432.2473     17.9915 307.7631653  +6.6624459     2032.823     3747.368     4143.835     85.34677     171.2398     342.2749      2.030     4.81     1029.241     60.39761     252.3586        25     1.376     1.226 -59.89   0
         4    270.0083     12.5909 307.8307853  +6.6592465     1119.062     2044.079     2489.281     85.20988     171.1716     342.5136      1.950     5.64     1041.537     60.39761     169.5647        16     1.434     0.933 -59.35   0
         5    646.0364     10.2474 307.6745589  +6.6727842     15292.26     27297.29     29510.51     85.48343      171.376     342.5818      1.893     4.07     1023.608     60.39761     1685.223        57     1.655     1.377 -79.71  16
         6    545.8828      6.3019 307.7163242  +6.6710701     4186.494     7501.899     8242.001     85.89212     171.7842     328.2431      1.929     4.26     1024.407     60.39761     456.5767        31     1.486     1.202 -77.23  16
         7    264.3701      6.8997 307.8333214  +6.6614076     1570.519     2988.627     3728.308     85.89212     171.1034     333.5699      2.109     5.06     1041.574     60.39761     208.4828        23     1.424     1.152 -56.85  17
         8    451.4005      2.6093 307.7557233  +6.6694377        17648     28308.03     29147.29     85.20988     154.9196     279.3271      1.758     4.36     1027.683     60.39761     2055.762        44     1.494     1.263 -31.64  24
         9    632.4752      2.2959 307.6804641  +6.6756149     1675.949     2703.506     2913.494     84.66014     150.9505     274.4791      1.775     5.27     1023.743     60.39761     296.0409        21     1.554     1.072  52.94  24
        10    271.9526      2.8045 307.8303081  +6.6633525     7112.029     12074.36     12898.27     85.20988     157.6088     282.5266      1.792     4.37     1041.702     60.39761     825.1381        34     1.535     1.202 -39.60  25
        11     13.5986      4.5931 307.9376339  +6.6539493     964.9423     1497.635     1259.651     85.20988     171.0351     308.2149      1.704     3.69     1045.776     60.39761     155.9521        10     1.101     0.713 -44.66  16
        12    331.5849      2.9127 307.8055173  +6.6653044     736.4622     1350.275     1284.323     85.48343     158.4951     284.3387      1.828     6.00     1039.268     60.39761     110.7545         6     1.244     0.815 -83.39  24
        13     37.6261      2.5542 307.9277161  +6.6555980     2008.848     2912.038     2975.926     85.34677     154.3156     278.5738      1.630     4.22     1044.864     60.39761     243.1923        21     1.348     0.974 -55.22  24
        14    929.1639      2.1503 307.5571367  +6.6855596     1939.532     2517.984      2526.85     83.68939      148.691     271.9583      1.419     3.34      1016.45     60.39761     252.4335        14     1.027     0.875 -65.02  24
        15    259.5336      1.3207 307.8355205  +6.6635491      861.177     1337.559     1576.666     74.69796     136.2365     257.5857      1.370     4.46     1041.609     60.39761     189.4583         9     1.398     0.405 -10.00  24
        16    974.7404   1001.3083 307.5046515  +6.2744931      684.355     952.1409     1210.994     85.75611     171.3079     342.7861      1.796     5.19      1055.77     60.39761     112.5521         7     1.227     0.619 -45.98   0
        17    714.6397   1021.6214 307.6120054  +6.2574511     4697.089     6721.966     6938.833     85.48344     163.7121     291.3545      1.501     3.30     1063.296     60.39761     644.9194        27     1.423     0.922 -59.71  24
        18    290.7872   1023.3817 307.7879898  +6.2425745     1199.961     1324.277     1127.475     78.65616     140.6214       262.79      1.158     2.62     1066.466     60.39761      253.934         8     0.821     0.647 -34.80  24
        19     15.6320   1020.8679 307.9023521  +6.2343956     13192.09     19196.73     19770.07     85.75611     169.8709     302.3261      1.522     3.27     1065.082     60.39761     1821.224        38     1.438     1.011 -78.53  24
        20    804.0469    998.5339 307.5756453  +6.2699618     7564.548     10695.39     11056.96     85.89212     171.3079     342.6499      1.511     3.27     1060.996     60.39761     1169.356        28     1.340     0.962 -65.52   0
        21    980.9581    995.1244 307.5022763  +6.2772532     554.1285     833.8729      1525.48     85.75611      171.376      342.684      1.821     4.61     1055.217     60.39761     112.0264         5     1.216     0.495 -72.59   0
        22    902.0440    995.3574 307.5350471  +6.2745338     1699.286     2373.085     2592.201     85.61988      171.376     342.4795      1.396     3.09     1059.052     60.39761     313.5084        11     1.074     0.643 -60.52   0
        23    224.6309    993.9333 307.8164613  +6.2525203     2249.478     3443.816       3698.1     85.61988      171.376     342.6158      1.611     3.98     1065.743     60.39761     297.9247        21     1.426     0.938 -80.91   0
        24    989.6611    993.2318 307.4987247  +6.2783239     730.5804     1070.093     1197.775     85.61988     171.4441     342.5818      1.565     4.78     1054.639     60.39761     101.8427         8     0.958     0.677 -66.59   0
        25    727.8557    991.0105 307.6075453  +6.2705314     7885.112     11396.45     12495.46     85.20988     171.3079     342.3091      1.493     3.35     1062.073     60.39761     1205.075        28     1.322     0.964 -74.85   0
        26    583.9883    990.2895 307.6673264  +6.2660334     4314.436     6657.645     8160.533     85.61988     171.0351     342.4795      1.714     3.50     1064.403     60.39761     618.8419        30     1.477     1.043 -82.61   0
        27    442.7454    991.2648 307.7259593  +6.2609158     4074.237     6175.759     7267.313     85.89212     171.3079     342.6158      1.689     3.40     1064.551     60.39761     581.6769        25     1.381     0.965 -65.45   0
        28    720.1381    989.9427 307.6107868  +6.2707152     1205.792     1671.828     2593.144     86.02792     171.3079      342.684      1.492     3.68     1062.144     60.39761     164.0038        12     1.126     0.828 -77.02   0
        29    760.0613    986.2724 307.5943275  +6.2735605     1360.538     1701.449     2768.613     86.02792      171.376      342.718      1.664     3.20     1061.379     60.39761     236.5138        12     1.082     0.752 -78.64   0
        30    967.3517    980.4882 307.5084190  +6.2828449     7975.241     10759.09     11173.14     85.89212     171.2398     342.7521      1.439     3.22     1055.467     60.39761     1179.927        28     1.362     0.884 -69.19   0
        31    722.0203    981.0782 307.6103031  +6.2744383     1176.092     1834.801     2237.708     85.48344     171.0351     342.6158      1.552     5.35     1061.817     60.39761     154.6727        12     1.295     0.625 -67.17   0
        32    251.9057    980.7278 307.8055792  +6.2588859     1347.077     1870.116     1588.059     85.75611     171.4441      342.684      1.488     3.90     1065.976     60.39761      187.016        12     1.127     0.717 -79.38   0
        33    727.2181    978.5351 307.6082296  +6.2756616     3152.176     4547.154     5154.952     85.48344      171.376     342.4795      1.548     3.61     1061.688     60.39761      442.405        21     1.342     0.861 -77.11   0
        34    450.2719    979.3581 307.7232346  +6.2660837     1047.453     1440.464     1512.417     85.75611      171.376      342.684      1.546     3.87     1064.419     60.39761     164.9465         8     0.991     0.549 -72.50   0
        35    742.7419    978.0115 307.6017991  +6.2763949     1167.549     1497.368     1072.543     85.20988     171.3079     342.3431      1.404     3.53     1061.428     60.39761     182.8712        11     1.137     0.623 -76.28   0
        36    373.9351    976.0941 307.7550513  +6.2648807     1923.485     2761.542      3070.58     85.75611     171.5122      342.684      1.529     3.50     1065.333     60.39761     291.5231        15     1.192     0.804 -86.47   0
        37    526.5067    967.9586 307.6919541  +6.2733363     1060.525     1836.254     1937.899     86.02792     171.3079     342.7521      1.564     5.98     1064.194     60.39761     157.1075        12     1.453     0.692 -83.43   0
        38    760.7192    965.6224 307.5947483  +6.2821094     8513.036     12234.42     12342.16     85.48344     171.0351     342.5818      1.552     3.17     1060.735     60.39761     1175.687        34     1.401     1.000 -72.88   0
        39    556.2281    966.2335 307.6796670  +6.2750405     4331.061     6404.789     7179.219     85.34677     171.1034     342.4113      1.597     3.44     1064.047     60.39761     611.7483        23     1.319     0.943 -74.98   0
        40    306.5095    964.9454 307.7834328  +6.2672296      15217.5     23500.39     25954.74     85.75611     171.1716     342.7861      1.698     3.44     1066.132     60.39761     2231.782        52     1.757     1.187 -51.44   0
        41      2.8334    966.4249 307.9095111  +6.2564460     881.5023     1377.481      1908.23     85.20988     157.8309     283.0632      1.911     5.35     1064.485     60.39761     134.8724        10     1.143     0.706  86.78  16
        42    430.9353    965.5159 307.7317329  +6.2711535     1137.588     1488.674     1621.057     86.02792     171.5803      342.718      1.448     3.52     1064.369     60.39761     174.4287        10     1.055     0.677 -67.67   0
        43    821.8944    964.6187 307.5693713  +6.2845604     1203.635     1741.058     2095.836     85.75611     171.1034     342.4795      1.506     4.84      1059.46     60.39761     177.4462        10     1.125     0.591 -64.95   0
        44    278.1491    962.9340 307.7952802  +6.2671114     1000.927     1510.904     1892.355     85.75611     171.3079     342.6499      1.627     6.05     1066.172     60.39761     121.6204        11     1.126     0.915  67.20   0
        45    553.3185    958.4855 307.6811366  +6.2781427     8728.974     13122.02     14518.99     85.61988     171.6483      342.718      1.651     3.40      1063.96     60.39761     1181.851        41     1.536     1.094 -74.48   0
        46    921.9850    959.0652 307.5279822  +6.2901831     9982.511      13733.7     13908.63     85.34677     171.2398     342.5477      1.439     3.31     1056.531     60.39761     1530.646        29     1.321     0.903 -74.73   0
        47    895.6583    955.1386 307.5390496  +6.2909291     13615.95     19888.09     20912.27     86.02792     171.3079      342.684      1.543     3.24     1056.939     60.39761     1939.043        44     1.429     1.186 -63.08   0
        48    608.6189    955.7666 307.6582581  +6.2811102     1346.275     2071.329     2261.363     85.34677     171.1716     342.4454      1.844     5.77     1063.061     60.39761     209.2786        12     1.428     0.768 -65.52   0
        49   1017.2941    954.6863 307.4885390  +6.2951586     5878.557     8049.977     7907.767     85.89212     171.8522     339.5012      1.460     3.23     1052.404     60.39761     890.4856        26     1.301     0.915 -83.60  16
        50      5.5733    957.1317 307.9086878  +6.2603751     674.8661      1133.68     1296.722     85.48344     171.2398     320.3238      1.954     3.45     1064.443     60.39761     109.2502         5     0.753     0.456 -71.34  16
        51    539.6791    954.1974 307.6869463  +6.2794582     4166.235     6219.976     7085.414     85.20988     170.8303     342.4113      1.597     3.54      1064.03     60.39761     525.6156        24     1.325     0.954 -70.91   2
        52    649.4011    953.5913 307.6413916  +6.2833683     1496.564     2172.411      2296.44     85.20988     171.0351     342.4113      1.601     3.92     1062.013     60.39761     210.8507        14     1.214     0.753 -61.06   0
        53     74.2857    952.8733 307.8802934  +6.2644378     846.0911     972.3122     970.6096     86.02792     171.7163     342.6499      1.339     4.23     1065.307     60.39761     125.5195         9     1.110     0.585  82.11   0
        54    492.9556    950.8429 307.7064667  +6.2792837     2162.362     3199.578     2779.825     85.75611      171.376     342.5136      1.586     3.65     1063.995     60.39761     314.5195        19     1.337     0.903 -37.18   0
        55    401.3602    949.5246 307.7445565  +6.2767684     695.4548     881.1655     611.2489     85.75611      171.376      342.684      1.506     5.28     1064.664     60.39761     83.59595         9     0.957     0.822 -30.74   0
        56    927.3720    942.7532 307.5262919  +6.2970979     49729.36     69206.56     71776.17     85.48344     171.4441     342.5477      1.486     3.21     1055.573     60.39761      7637.44        66     1.458     1.092 -71.96   0
        57      1.1874    942.3567 307.9110098  +6.2663286      1550.26     2077.503     2336.065      72.3159     133.4664     254.9895      1.208     3.80     1064.241     60.39761     409.7284        10     1.367     0.371 -84.73  24
        58    234.8425    941.1108 307.8140048  +6.2746732     1792.154     2501.573     2579.098     85.89212     171.3079      342.684      1.489     3.57     1065.697     60.39761     260.8776        14     1.102     0.862 -63.73   0
        59    633.7168    939.3486 307.6483857  +6.2887266     862.6989     1204.137     1336.021     85.89212     171.3079     342.7521      1.429     4.27     1061.809     60.39761     136.3082         7     0.946     0.550 -54.13   0
        60    122.7449    940.3319 307.8605907  +6.2712404     705.0043     681.8934     1127.243     85.89212     171.2398     342.5818      1.240     4.11     1065.675     60.39761     115.0917         6     0.735     0.656 -83.10   0
        61    825.3608    936.4872 307.5688765  +6.2962921     2728.129     3793.911     3882.689     85.89212     171.3079     342.6499      1.550     3.47     1058.166     60.39761      399.321        20     1.268     0.874 -81.58   0
        62    773.4678    934.5632 307.5904968  +6.2953591     7395.769     10641.88     10855.86     85.75611      171.376     342.7521      1.601     3.40     1059.578     60.39761     989.6062        34     1.598     0.965 -76.38   0
        63    243.0720    933.5298 307.8108428  +6.2780789     1530.168      2380.08     2283.737     86.02792     171.5122     342.6158      1.637     3.53     1065.751     60.39761      252.174        13     1.166     0.745 -85.41   0
        64    560.1581    933.7839 307.6791276  +6.2885708     859.6166      1075.94     1150.374     85.34677     171.1716     342.4113      1.221     4.43     1063.425     60.39761     119.9755         8     0.859     0.650  42.02   0
        65    207.3192    933.0288 307.8257098  +6.2770889     823.5004     1396.747     1024.713      85.7561     171.1716     342.6158      1.597     4.91     1065.621     60.39761     129.0648         9     1.072     0.740 -53.25   0
        66     68.0363    931.7714 307.8836032  +6.2729414     2797.288     4104.943     3863.109     85.48343     171.1034     342.4454      1.521     3.68     1065.146     60.39761     411.2181        24     1.417     0.938 -76.83   0
        67    961.7103    929.5679 307.5124705  +6.3036840     8053.827     11091.01     11506.74     86.02792     171.1716     342.6499      1.479     3.27     1053.765     60.39761     1048.617        29     1.356     0.987 -71.33   0
        68    644.1365    924.3489 307.6445624  +6.2952677      768.735     1141.136     833.8945     85.89212     171.3079     342.6499      1.531     3.97     1061.001     60.39761     120.3826         7     0.859     0.614 -27.92   0
        69    935.5947    921.2468 307.5235980  +6.3062520     2439.629     3296.541      2903.83     85.20988     171.1716     342.3091      1.402     3.07     1054.304     60.39761     356.6709        16     1.093     0.820 -84.33   0
        70    268.4677    917.4921 307.8008363  +6.2855511     4337.583     6712.625     6937.712     85.75611     171.5122      342.684      1.708     3.66     1065.802     60.39761     537.2382        29     1.511     0.993 -76.09   0
        71   1005.7686    917.2599 307.4945816  +6.3102304     722.5975     1054.984     999.1271     85.61988     171.4441     342.6158      1.360     4.58     1051.752     60.39761      137.449         8     1.416     0.421 -89.27   0
        72    794.9645    917.8341 307.5821295  +6.3029828     1508.417     2021.393     2606.478     85.61988     171.1034     342.3772      1.477     3.59     1058.366     60.39761     245.0647        13     1.167     0.741 -69.13   0
        73    656.2036    917.1001 307.6397939  +6.2986632     5012.553     7462.394     7664.378     85.61988     171.1034     342.2749      1.568     3.36     1060.495     60.39761     676.3871        27     1.369     0.973 -66.31   0
        74    478.4049    915.8367 307.7136906  +6.2932526     1110.028     1696.895     1661.183     84.93546     171.1034     342.4454      1.609     4.30     1063.559     60.39761     195.3418        12     1.195     0.735 -49.87   0
        75     37.2657    914.8044 307.8969580  +6.2789153     2231.079     3352.068     3492.573     85.20988     171.1034     342.4113      1.649     3.48      1064.56     60.39761     292.9998        20     1.227     0.992 -76.76   0
        76    887.9902    913.2856 307.5436399  +6.3079564     1160.827     1496.417     1640.975     85.48343     171.0351     342.4795      1.359     3.65     1055.198     60.39761     158.1523        10     0.928     0.732 -83.47   0
        77    980.1225    911.8112 307.5054177  +6.3116282     719.6691     768.1537     389.7647     85.48343     170.9669     342.4795      1.212     3.13     1052.447     60.39761     173.1641         5     1.059     0.294  81.83   0
        78    959.4148    910.6179 307.5140598  +6.3114328     754.8674     1147.556     1261.286     85.61988     171.0351     342.5818      1.679     4.25     1053.151     60.39761     121.1853         7     1.015     0.596 -67.95   0
        79    580.9260    909.5992 307.6713156  +6.2992501     1694.637     2488.568     1666.438     85.07278     170.7619     342.4795      1.595     3.39     1061.958     60.39761     243.7958        15     1.137     0.855 -68.40   0
        80    304.3700    910.7004 307.7861531  +6.2895566     926.7786     1457.131     1520.469     85.89212     171.1034      342.718      1.613     3.89     1065.701     60.39761     138.5314         9     1.016     0.631 -87.10   0
        81   1012.3572    908.7182 307.4921311  +6.3139764     923.8105     1732.927     2149.887     85.89212      171.376     342.6158      2.549     6.36     1051.179     60.39761     142.2941        13     1.781     0.639 -64.64  16
        82    620.1437    905.8941 307.6551499  +6.3020881     1148.473     1708.501     1806.331     85.75611      171.376     342.8542      1.571     4.20     1060.689     60.39761     182.0198        13     1.247     0.849 -53.26   0
        83     69.4659    906.3824 307.8838687  +6.2834726     849.6362     1290.373     1200.017     85.34677     171.3079     342.5136      1.722     5.06     1064.851     60.39761     128.2437         9     1.042     0.694 -54.80   0
        84    300.1266    904.0049 307.7881417  +6.2921793     1448.781     2363.684      2315.93     85.48344     170.8986     342.5477      1.723     4.06     1065.611     60.39761     206.4897        17     1.219     0.959  88.59   0
        85    766.7830    899.9449 307.5944372  +6.3094314     929.4394     1276.156     1130.143     85.34677     171.3079     342.3772      1.566     4.03     1057.678     60.39761     139.5564         9     1.072     0.571 -89.04   0
        86    904.4235    896.4083 307.5373801  +6.3154721     7822.848     10764.22      11426.5     85.48344     171.1034     342.4795      1.478     3.29      1054.36     60.39761     1108.799        27     1.314     0.936 -68.54   0
        87    440.3666    893.7210 307.7302366  +6.3011141     2061.205     3073.327     2909.361     85.75611      171.376     342.6499      1.582     3.93     1063.659     60.39761      300.442        18     1.300     0.875 -84.04   0
        88    342.0507    892.0775 307.7711303  +6.2985066     9222.104      14469.8     14977.39     85.89212     171.4441     342.6499      1.654     3.44     1064.747     60.39761     1273.958        37     1.462     1.126 -77.41   0
        89    609.2532    893.2416 307.6600996  +6.3069495     504.4871     706.9955     761.0069     85.89212     171.4441      342.684      1.226     3.78     1060.211     60.39761     94.31079         5     0.975     0.421  44.78   0
        90    262.1253    890.9966 307.8043657  +6.2962792     6974.334     11019.83     11243.26     85.34677     170.8302     342.5477      1.636     3.50     1065.421     60.39761      975.374        34     1.460     1.071 -70.59   0
        91    589.8687    885.5568 307.6684105  +6.3094761     1209.348     1737.918      1906.28     85.89212     171.3079     342.7521      1.602     4.14     1060.586     60.39761     185.6829        13     1.355     0.704 -67.42   0
        92    774.8525    884.5898 307.5916013  +6.3160407     661.4005     1200.523     892.8467     85.20988     171.2398     342.3772      1.876     5.61     1056.613     60.39761     106.9794         8     1.539     0.576 -88.02   0
        93    919.8950    881.6539 307.5314485  +6.3220792     1163.688     1617.632     1890.869     85.75611     171.3079     342.9223      1.562     3.79      1053.52     60.39761     201.4849        10     1.165     0.591 -72.29   0
        94    876.4554    880.5563 307.5495305  +6.3210877     791.6578     934.0851     1082.117     85.89212      171.376     342.6499      1.304     4.67     1054.723     60.39761     113.8019         8     1.054     0.586 -48.80   0
        95    987.4783    876.6821 307.5035404  +6.3263786     844.8331     1218.288     1191.994     86.02792     171.6483     342.7861      1.479     4.71     1050.737     60.39761     130.6036         7     1.031     0.611 -68.94   0
        96    849.0664    875.0325 307.5610936  +6.3224575     748.4853     860.6957     822.8252     85.75611     171.4441     342.5818      1.319     3.71     1055.069     60.39761      114.156         5     0.653     0.605 -87.96   0
        97    756.5803    874.3640 307.5995354  +6.3196547     1648.915      2347.08     2530.195     85.34677     171.1716     342.4113      1.523     3.07     1056.222     60.39761     247.5795        14     1.062     0.796 -72.73   0
        98    987.9710    870.3578 307.5035479  +6.3290065     1547.843     2173.974     2101.139     85.48343     171.2398     342.5136      1.462     3.83     1050.402     60.39761     219.0139        16     1.335     0.758 -82.17   0
        99      7.4224    871.6513 307.9108147  +6.2957324     964.7426     1373.465     1527.775     85.34677      171.376     337.6048      1.435     5.12     1064.071     60.39761     147.3909         9     1.118     0.664 -58.29  16
       100    675.0379    868.0571 307.6336205  +6.3195422     2555.286     3702.188     3591.575     85.89212     171.4441     342.6499      1.556     4.40     1058.661     60.39761     367.4728        19     1.402     0.891 -80.58   0
       101    631.5704    870.6041 307.6515912  +6.3170413     724.7933     1111.685     990.9565     85.34677     171.1716     342.4795      1.655     4.16     1059.006     60.39761     109.3934         7     0.918     0.792 -56.48   0
       102    621.1833    870.8470 307.6558978  +6.3165947     792.6452     1191.855     889.4148     85.34677     171.3079     342.3772      1.592     5.25     1059.054     60.39761     113.0692         9     1.065     0.731  44.18   0
       103    541.7232    870.4944 307.6889172  +6.3140893     1154.625     1817.719      2072.01     85.61988     171.5122      342.718      1.641     3.20     1061.821     60.39761     176.4315        11     0.959     0.771  83.27   0
       104    965.6290    865.8625 307.5129799  +6.3301203     794.9865     956.7195     1013.901     85.61988      171.376     342.5818      1.306     4.16     1051.171     60.39761     129.9271         8     0.950     0.728  14.88   0
       105    572.7121    865.1871 307.6762233  +6.3173149     497.7038     769.5023     952.7216     85.48344     171.1034     342.5136      1.881     5.92      1060.38     60.39761     97.62793         7     1.443     0.684  83.32   0
       106     71.7782    864.3467 307.8843310  +6.3009069     2845.017     4475.125     4179.446     85.34677      171.376     342.4454      1.686     3.85     1064.316     60.39761     386.5055        23     1.424     0.964 -88.56   0
       107    835.6255    864.2212 307.5670402  +6.3264745     847.2587     1385.124     1540.749     85.48344     171.1716     342.5818      1.746     4.50     1054.744     60.39761     141.4814         8     1.164     0.717  71.09   0
       108     89.2061    863.5898 307.8771177  +6.3018038     2020.304     3224.709     3457.312     85.34677     171.1716     342.5136      1.713     4.12     1064.389     60.39761     242.3877        18     1.287     0.922 -68.40   0
       109    953.4576    863.2186 307.5181248  +6.3308075     802.2101      1006.76     580.6118     85.48344     171.3079     342.4113      1.372     4.09     1051.598     60.39761     115.4249         7     0.983     0.486 -82.56   0
       110    215.3027    863.0223 307.8247599  +6.3062628     2202.365      3168.24     2786.362     85.89212     171.1034     342.4454      1.557     3.74     1065.049     60.39761     290.2234        19     1.243     0.927 -61.62   0
       111    669.6351    857.0206 307.6362362  +6.3239194     6849.264     10462.56     10490.61     85.34677     171.1716     342.4113      1.626     3.43     1058.187     60.39761     901.8107        34     1.470     1.091 -75.94   0
       112    354.1534    859.1968 307.7672130  +6.3124883     832.6119     1373.499     1698.873     85.20988     171.1034     342.2749      1.696     5.69     1063.668     60.39761     129.4025        10     1.210     0.754 -28.61   0
       113    249.0832    859.2145 307.8108569  +6.3089659     773.5968      1113.47     1028.145     85.48343     171.1034     342.4795      1.463     4.72      1065.04     60.39761      132.869         7     0.818     0.773 -68.85   0
       114    807.3983    858.0603 307.5789731  +6.3280790     659.6117     898.0847     1001.781     85.20988     171.1034     342.3431      1.337     2.04     1054.581     60.39761     148.1561         6     0.757     0.489 -86.86   0
       115     30.0555    855.0709 307.9019753  +6.3033378     1206.726      1538.93     1171.467     85.75611     171.3079     342.6158      1.419     5.58     1064.005     60.39761     165.0792        15     1.296     0.990 -46.01   0
       116    907.3527    853.3392 307.5376091  +6.3333541     2964.111     4062.503     4016.293     85.75611     171.3079      342.718      1.489     3.66     1052.782     60.39761     412.0206        19     1.333     0.839 -75.89   0
       117     42.9499    853.7255 307.8966649  +6.3043258       1075.2     1956.456     1418.084     85.89212     171.4441      342.684      1.925     6.48     1064.037     60.39761      129.673        14     1.408     0.948 -60.99   0
       118    352.7333    850.3192 307.7681025  +6.3161066     15731.12     25029.76     26924.48     86.02792     171.6483      342.684      1.718     3.52     1063.582     60.39761     1972.239        49     1.572     1.211 -74.39   0
       119     87.3550    851.2488 307.8783042  +6.3068374     1328.523     1972.235     1888.105     85.89212     171.2398     342.6499      1.599     4.11     1064.139     60.39761     204.3198        13     1.225     0.846 -87.67   0
       120    223.7259    850.0825 307.8216984  +6.3118878     1211.566     1807.646     2139.544     86.16351     171.7163      342.718      1.746     4.61     1064.917     60.39761      183.811        13     1.143     0.813 -72.68   0
       121    430.1117    841.2347 307.7362666  +6.3224441     874.5198     1430.469     1494.172     85.89212     171.3079     342.6499      1.664     4.90     1062.057     60.39761     133.9301        10     1.121     0.759  55.00   0
       122    116.2442    840.7203 307.8666607  +6.3121531     1550.608     2345.343     1933.884     85.89212      171.376     342.6499      1.616     4.12      1064.24     60.39761     244.4359        17     1.256     0.926  88.79   0
       123    683.8149    838.1033 307.6309823  +6.3322034     769.3204     1477.148     2309.787     85.61988     171.1034     342.4113      2.748     6.15     1056.757     60.39761     123.4662        11     1.772     0.600 -78.51   0
       124    868.5096    834.6555 307.5543727  +6.3397772     2194.319     3285.155     3589.679     85.75611     171.2398     342.7861      1.665     3.92     1052.613     60.39761     290.2001        18     1.256     0.906 -81.66   0
       125    897.8338    834.9342 307.5421814  +6.3406376     2257.249     3151.056      2620.67     85.75611      171.376     342.6499      1.462     3.50     1052.042     60.39761     323.4042        16     1.191     0.794 -84.39   0
       126     99.6108    834.6980 307.8737736  +6.3140822     2440.708     3962.212     4784.041     85.61988     170.9669     342.4795      1.800     3.57     1063.908     60.39761     329.3456        22     1.301     1.022 -41.78   0
       127    831.7778    833.9411 307.5696559  +6.3388500     3270.204     4678.291     5135.824     85.48343     171.3079     342.4795      1.519     3.56     1053.098     60.39761     458.8595        19     1.237     0.878 -77.25   0
       128    567.7824    825.4730 307.6796088  +6.3335493     322394.4     506428.1     532252.1     85.34677     171.3079     342.5818      1.710     3.51     1058.805     60.39761     38769.56       166     1.700     1.379 -76.95   0
       129    412.0702    828.0317 307.7442064  +6.3272930     7137.323     11400.02     11873.18     85.75611      171.376     342.6499      1.708     3.55     1061.526     60.39761     926.7556        37     1.537     1.120 -64.76   0
       130    355.3220    826.5024 307.7678312  +6.3260275     11687.57     19171.38      20083.3     85.48344     171.6483     342.6499      1.773     3.70     1063.286     60.39761     1385.026        43     1.520     1.217 -73.19   0
       131    655.6782    828.1491 307.6430057  +6.3353759     1286.055     1909.862     2084.196     85.89212     171.4441     342.6499      1.590     3.92     1056.648     60.39761        186.5        12     1.154     0.803 -63.37   0
       132    673.6425    822.6746 307.6357272  +6.3382353     3526.133     5260.448     5338.496     85.75611     171.4441      342.684      1.636     3.73     1056.114     60.39761     453.1609        23     1.422     0.927 -72.38   0
       133    906.0858    821.5742 307.5392019  +6.3464288     5799.242     8195.836     8960.287     86.02792     171.1034     342.5136      1.514     3.14     1051.217     60.39761     886.2828        28     1.382     0.922 -65.33   0
       134    745.3014    819.3612 307.6060701  +6.3419913     754.5285     1072.559     893.2484     85.89212     171.2398     342.8883      1.536     3.48     1054.773     60.39761     146.0363         8     0.977     0.774 -84.57   0
       135    648.4575    816.8135 307.6463867  +6.3398159     3296.043     5047.379      5523.15     85.20988     171.2398     342.3091      1.603     3.64     1056.168     60.39761     411.5963        22     1.367     0.906 -78.45   0
       136    836.9981    815.7295 307.5680991  +6.3465439     1733.093     2469.851     2036.555     85.34677     170.8986     342.4454      1.510     3.46     1051.998     60.39761     272.6056        13     1.164     0.710 -64.67   0
       137    963.5905    814.7598 307.5155414  +6.3511545      873.387     1217.414      1880.61     85.20988     171.1716     342.3772      1.453     5.09     1048.911     60.39761     136.3474        10     1.225     0.598 -66.17   0
       138    640.7437    812.3806 307.6497405  +6.3413892     1860.666     3887.331     5336.901     85.34677     171.3079     342.4454      2.424     8.12     1056.024     60.39761     302.6416        30     2.487     0.907 -62.39   0
       139    924.9882    809.4081 307.5317576  +6.3520811     3431.572     4742.801     4771.339     85.48343     171.1716     342.5818      1.487     3.43     1050.361     60.39761     531.0515        22     1.284     0.909 -78.21   0
       140    335.4105    810.4226 307.7766453  +6.3320012     993.7472     1510.667     1225.712     85.48344     171.1034     342.5136      1.730     5.02      1063.71     60.39761     138.3002         9     0.909     0.812  19.96   0
       141    383.0698    805.3882 307.7570173  +6.3356736     2603.127     4299.101     4789.691     85.34677     171.1716     342.4795      1.788     3.81     1061.615     60.39761     313.1128        23     1.346     1.066 -45.48   0
       142    519.5031    795.2416 307.7006834  +6.3444212     2846.078     4472.555     3890.012     85.89212     171.2398     342.8883      1.696     4.00     1058.694     60.39761      367.326        26     1.488     1.121 -75.21   0
       143    864.2304    793.9774 307.5575166  +6.3564321     995.3903     1610.863     1662.328     85.20988     171.1034     342.4795      1.605     4.70     1050.159     60.39761      163.416        11     1.307     0.679  82.91   0
       144    566.2084    791.3434 307.6814124  +6.3475897     5665.058     9098.061     9793.807     85.20988     171.3079     342.3772      1.732     3.73     1057.423     60.39761     748.9291        34     1.460     1.141 -78.89   0
       145    584.2982    792.8658 307.6738462  +6.3475647     793.8203     1095.148     761.9331     85.89212     171.4441      342.684      1.604     5.31     1056.846     60.39761     96.82507         9     1.173     0.678  26.72   0
       146    484.1727    790.2366 307.7155290  +6.3453081     1430.237     2255.991     2182.915     85.34677     171.0351     342.4454      1.707     4.87     1059.009     60.39761     167.3049        16     1.271     0.961  86.89   0
       147    278.0259    791.3168 307.8011283  +6.3379705     710.7424     1002.296     739.5983     85.89212     171.1034     342.5818      1.641     4.73     1064.753     60.39761     111.5333         6     0.928     0.685 -65.52   0
       148    902.1592    789.3336 307.5419155  +6.3596114     1341.197     1891.298     2254.706     85.89212     171.3079     342.7521      1.593     4.00     1049.616     60.39761     185.9998        15     1.299     0.775 -78.98   0
       149    573.1597    790.6063 307.6785495  +6.3481260     1251.786     1814.428      2095.74     85.07278     171.0351     342.3091      1.498     3.24     1057.174     60.39761     187.4662        11     1.003     0.712 -72.34   0
       150    126.0491    789.8458 307.8643092  +6.3334883     1277.022     2078.465     1683.565     85.89212     171.2398      342.684      1.696     4.16     1063.482     60.39761     206.9207        13     1.128     0.873 -60.85   0
       151    536.9047    785.1728 307.6937937  +6.3491597     18403.79     29503.91      30515.4     86.02792     171.1034     342.5477      1.709     3.57     1058.017     60.39761     2353.127        50     1.555     1.216 -69.55   0
       152    701.4651    787.8590 307.6253404  +6.3535389      672.542     1297.593     1698.952     86.02792     171.3079      342.684      1.915     3.04     1054.352     60.39761     130.2916         5     0.839     0.524  38.97   0
       153    378.5085    786.8655 307.7595372  +6.3431695     630.6615     939.2104     698.3729     85.75611     171.5803     342.6499      1.567     4.40     1061.087     60.39761     132.5138         7     1.161     0.474 -81.38   0
       154    429.7852    785.4158 307.7382850  +6.3454819     429.1982     525.5881     660.9276     85.61988     171.0351     342.5818      1.357     3.69     1059.294     60.39761     85.95825         5     0.985     0.398  83.65   0
       155    950.5687    783.3235 307.5220060  +6.3637027      4042.08     5762.944     6082.903     85.75611     171.4441     342.6158      1.554     3.60     1048.127     60.39761     513.5238        23     1.316     0.922 -72.29   0
       156     71.5956    781.9568 307.8871958  +6.3349202     590.4962     930.3899     1356.875     85.20988     171.0351     342.3431      1.783     4.85     1062.547     60.39761     91.67419         5     1.467     0.454 -82.29   0
       157    423.3163    780.7067 307.7411312  +6.3472102     489.0449     714.9011     1117.655     85.61988     171.8522     342.7861      1.825     4.30     1059.282     60.39761     103.2643         5     1.289     0.408 -51.61   0
       158    329.5770    773.9818 307.7802990  +6.3468531     2956.347     4951.134     4401.487     85.61988     171.3079     342.5818      1.763     4.06     1062.526     60.39761     358.6711        26     1.390     1.151 -83.62   0
       159     47.2354    775.6334 307.8975289  +6.3367143     1366.039     2062.921     2051.483     85.48344     171.1034     342.3772      1.672     4.54     1062.143     60.39761      177.558        14     1.114     0.883 -38.49   0
       160     29.4074    772.0073 307.9050574  +6.3376135     2041.986     3207.195     3738.449     85.20988     171.1716     342.5136      1.618     4.29     1061.809     60.39761     277.0087        20     1.339     1.012 -75.28   0
       161    795.0256    769.6667 307.5870838  +6.3641675     55364.24     82733.66      85961.3     85.48343     171.2398     342.5477      1.587     3.38     1051.416     60.39761     7444.872        67     1.528     1.174 -71.45   0
       162    252.3810    767.6987 307.8125794  +6.3468645     4692.675      8063.03     11025.85     85.89212     171.2398     342.3772      2.257     3.98     1064.071     60.39761     554.0247        41     1.936     1.137 -80.92   1
       163    438.2996    768.1356 307.7353309  +6.3529018     803.6089     1228.047     1460.403     85.89212     171.5122     342.6158      1.697     4.58     1058.865     60.39761     122.4326         8     1.303     0.457  88.39   0
       164    920.3048    764.8794 307.5351981  +6.3703127     8887.448     12800.97     13544.37     85.61988     171.6483      342.718      1.509     3.23     1048.316     60.39761     1347.951        28     1.343     0.967 -77.61   0
       165    723.2915    764.2694 307.6170666  +6.3640070     21025.86     32807.17     34536.69     85.89212     171.5122     342.6499      1.679     3.47     1053.092     60.39761     2801.183        53     1.554     1.216 -72.88   3
       166    716.9985    760.7767 307.6197984  +6.3652395     85193.26     132748.1     139848.6     85.48344     171.0351     342.4113      1.644     3.47     1053.116     60.39761     11180.71        79     1.598     1.248 -73.34   3
       167    361.8943    761.7693 307.7672861  +6.3529767     18374.27      31029.6     32971.28     86.02792     171.1716     342.6158      1.812     3.76     1060.445     60.39761     2188.183        56     1.656     1.306 -77.53   0
       168    423.7955    759.5471 307.7416460  +6.3559635     19906.22     33263.12     34940.98     85.20988     171.1034     342.2408      1.792     3.76     1058.907     60.39761     2332.465        50     1.606     1.243 -74.10   0
       169    410.9512    762.0219 307.7468983  +6.3545123     1394.694     2209.241     1661.946     85.48344     171.4441     342.5477      1.643     4.34     1059.198     60.39761     169.5952        15     1.109     0.988  65.48   0
       170    650.9081    760.6619 307.6472588  +6.3630841     838.6013     1118.519     1535.749     85.89212     171.4441     342.7521      1.476     4.66     1054.579     60.39761     115.2533         7     0.998     0.732  75.42   0
       171    251.8309    746.1776 307.8135352  +6.3557324     767254.9      1997792      2225658     85.34677     171.1716     342.4795      2.401     5.94     1063.649     60.39761      63523.7       533     2.437     1.994 -87.16   4
       172    890.2949    757.4088 307.5479165  +6.3723995     692.0529     999.0107     1056.764     85.61988     170.9669     342.4113      1.436     3.84     1048.291     60.39761     116.1073         6     0.926     0.456  89.26   0
       173    657.8145    755.5359 307.6445621  +6.3654310     5888.961     9506.462     9671.008     85.34677     171.2398     342.5136      1.720     3.68     1054.393     60.39761     681.6931        31     1.460     1.085 -71.73   0
       174    446.8016    753.2176 307.7323021  +6.3593458     1621.672     2569.002     2902.228     85.48343     170.8986     342.3431      1.632     4.35     1058.386     60.39761     204.6151        19     1.363     0.966 -66.46   0
       175    171.6267    753.7759 307.8465963  +6.3499091      548.986     1135.107     864.0104     85.34677     171.1716     342.5136      1.651     3.71     1063.335     60.39761     88.42456         5     0.973     0.406  -6.18   0
       176    885.7635    747.5437 307.5501303  +6.3763224     743.6202     1142.659     1119.837     85.75611      171.376      342.684      1.534     4.12     1047.942     60.39761       123.35         8     1.021     0.670 -43.18   0
       177    692.9846    745.4812 307.6302894  +6.3707552     2051.339     3482.432     3517.597     85.48343     171.1034     342.4795      1.866     4.23     1053.319     60.39761     287.5774        22     1.542     0.870 -59.92   0
       178    610.7378    747.4707 307.6643912  +6.3671914     871.3273     1182.959     1027.451     86.02792      171.376      342.684      1.522     5.62     1054.873     60.39761      118.993         9     1.129     0.788 -57.42   0
       179    162.1255    746.5590 307.8507872  +6.3525707     774.1578     1303.142      1208.25     85.75611      171.376      342.684      1.493     5.50     1063.114     60.39761     114.6986         8     1.428     0.596 -82.53   0
       180    136.7914    746.7001 307.8613065  +6.3516636     1011.382     1680.936     1559.376     85.61988     170.9669     342.4795      1.761     4.47     1062.599     60.39761     148.3364        11     1.155     0.847 -63.42   0
       181    426.7106    742.2624 307.7410181  +6.3631981     47453.16     79948.91     84814.76     85.89212     171.5122      342.718      1.828     3.81     1058.532     60.39761     5565.172        78     1.680     1.368 -73.05   0
       182    969.3727    743.8144 307.5155197  +6.3806424     769.2528     911.4815     1018.842     85.48344     171.2398     342.5477      1.326     4.71     1045.844     60.39761     118.4149         8     1.029     0.612 -74.45   0
       183    544.4525    741.2209 307.6921392  +6.3675604      6413.26     10721.82     11116.41     85.34677      171.376     342.4454      1.781     3.98     1055.886     60.39761     776.1381        37     1.535     1.190 -81.15   0
       184    461.2581    739.6973 307.7267525  +6.3654115     3868.465      6732.61     8278.477     85.61988     171.3079     342.8202      1.973     3.84     1057.777     60.39761     466.4126        33     1.425     1.283  84.70   2
       185    457.8680    733.1978 307.7283800  +6.3679820     2098.797     3491.486     3877.725     85.20988     170.9669     342.4454      1.858     4.48     1057.601     60.39761     282.5421        21     1.344     1.086 -78.31   2
       186    789.6343    737.8434 307.5903933  +6.3771288     11461.08     17531.25     18113.81     85.61988      171.376     342.4795      1.636     3.41     1050.574     60.39761     1507.763        40     1.481     1.116 -75.57   0
       187     19.3301    733.9507 307.9105324  +6.3529892     1050.638     1673.089     1965.618     85.89212     171.3079      342.684      1.662     4.39     1059.888     60.39761     141.6143        10     1.029     0.821  88.73   0
       188    147.4781    729.9642 307.8574333  +6.3589321     10360.56      17150.5      19105.5     85.75611     171.4441     342.6499      1.803     3.80     1062.192     60.39761     1339.672        41     1.582     1.188 -74.21   0
       189    811.1525    731.9259 307.5816525  +6.3802887     1353.288     2053.659     2559.198     85.75611     171.4441     342.6499      1.592     3.61     1049.727     60.39761     190.7869        15     1.144     0.891 -83.79   0
       190    155.7444    730.0019 307.8539981  +6.3591936     2657.494     4416.198     4778.888     85.20988     171.0351     342.3091      1.725     3.78      1062.37     60.39761     329.4679        22     1.281     1.044 -72.31   0
       191    139.6961    727.3198 307.8607556  +6.3597633     2624.336     4745.658     5344.699     85.61988     171.6483     342.7521      2.037     4.56     1061.901     60.39761     363.1852        30     1.588     1.220  78.99   3
       192    139.9170    720.8321 307.8608833  +6.3624495     1701.614     2753.908     3364.907     85.89212     171.1716     342.5136      1.737     5.03     1061.597     60.39761     262.0853        20     1.460     0.972  65.36   3
       193    935.1072    726.3461 307.5303419  +6.3867165     7032.411     9726.101     9694.766     85.75611     171.3079     342.8202      1.479     3.25     1046.292     60.39761     981.5795        27     1.309     0.954 -69.84   0
       194    984.2466    726.2283 307.5099303  +6.3883986     1671.989     2436.819     3295.094     85.48344     171.4441     342.5477      1.482     3.20     1044.627     60.39761     269.7585        14     1.118     0.757 -72.67   0
       195    960.8840    758.2581 307.5185617  +6.3743960     2132.588     3329.304      3269.49     85.89212      171.376      342.718      1.702     5.01     1046.677     60.39761     299.4017        20     1.570     0.920 -84.81   0
       196    690.6556    723.6245 307.6319924  +6.3797029     1504.253     2298.206     2406.629     85.48344      171.376     342.4454      1.658     3.90     1052.422     60.39761      224.626        17     1.277     0.935 -85.15   0
       197    577.5821    723.2209 307.6789822  +6.3760986     2175.452     3447.391     3527.236     85.61988     171.2398     342.5477      1.718     4.68      1054.49     60.39761     247.6887        19     1.375     0.936 -63.55   0
       198    425.2243    723.0568 307.7422835  +6.3710788     978.0364     1724.192     1950.416     85.48343      171.376     342.4454      1.919     2.99     1057.882     60.39761     136.2939         8     0.809     0.664 -47.63   0
       199    989.5353    717.7140 307.5080187  +6.3920902     2150.885     2911.495     3608.881     86.02792     171.5803      342.684      1.530     4.20     1044.069     60.39761     327.7659        17     1.363     0.758 -73.70   0
       200    929.2874    718.3184 307.5330293  +6.3898380     3189.024     4895.836     4837.329     85.61988     171.5803     342.7521      1.584     3.72     1046.242     60.39761      427.301        20     1.350     0.851 -73.61   0
       201    917.1629    756.3092 307.5367911  +6.3737472     7198.317     10213.01     11014.68     86.02792     171.3079      342.684      1.524     3.29      1047.92     60.39761     1005.919        27     1.355     0.927 -76.67   0
       202    958.8127    717.7186 307.5207827  +6.3910672     3199.878     4547.546     4748.592     85.48344     171.1034     342.4795      1.526     3.43     1045.173     60.39761     444.9921        19     1.307     0.799 -66.63   0
       203    681.6503    717.3335 307.6359454  +6.3820004     1291.089     1910.597     1785.547     85.75611     171.2398     342.6158      1.721     3.81     1052.259     60.39761     212.8145        12     1.170     0.788 -51.50   0
       204    829.0594    715.6825 307.5747588  +6.3875921     1055.478     1507.673     1143.418     86.02792     171.4441      342.684      1.646     4.69     1048.274     60.39761     199.0657        13     1.357     0.768 -56.58   0
       205    904.1832    713.6829 307.5436148  +6.3909173     894.9104     1232.129     1760.825     85.48344     171.0351     342.5818      1.588     4.09     1046.385     60.39761     155.9817         8     1.148     0.499 -69.34   0
       206    254.2631    712.7215 307.8136555  +6.3696283     1625.817     2986.509     4309.818     86.16351     171.4441     342.6499      2.422     4.85     1061.804     60.39761     202.9994        22     1.335     1.154 -76.13   0
       207    946.9592    707.9774 307.5260344  +6.3946956     1149.052     1430.742     1518.537     85.48344     171.1716     342.4113      1.388     3.52     1045.247     60.39761     174.3363        10     1.032     0.678 -70.58   0
       208    170.1488    707.8959 307.8487620  +6.3688040     671.9303     1021.226     1422.218     85.75611     171.3079     342.8542      2.120     3.54     1061.267     60.39761     110.2665         5     0.982     0.367 -33.33   0
       209    973.6681    705.5616 307.5150187  +6.3965810     2761.959     3864.376      4121.44     85.75611      171.376     342.7521      1.528     3.53     1044.147     60.39761     382.4921        18     1.262     0.819 -67.23   0
       210    920.9355    706.9408 307.5368812  +6.3942584     1206.665     1667.594     1716.469     86.02792     171.3079      342.684      1.465     3.45     1045.971     60.39761      185.874         9     0.946     0.675 -69.37   0
       211    693.0385    704.4708 307.6316470  +6.3876913     1098.051     2007.606     2811.652     85.75611      171.376      342.718      2.268     6.77     1051.198     60.39761     138.9561        15     1.468     0.876 -84.38   0
       212    484.4383    699.6720 307.7184722  +6.3827131     678.4608     1047.376     1095.152     85.75611      171.376      342.718      1.770     6.14     1055.808     60.39761     96.20874         8     1.173     0.902 -83.28   0
       213   1015.5067    698.9887 307.4978565  +6.4006854     1821.175     2649.004     2772.707     85.61988     171.0351     342.4454      1.509     3.44     1042.198     60.39761     297.3474        13     1.203     0.692 -85.79   0
       214    816.8078    697.4028 307.5804632  +6.3947326     1010.862     1615.115     1850.571     85.20988     171.0351     342.4795      1.824     4.53     1047.845     60.39761     182.3009        10     1.287     0.618 -75.07   0
       215    641.6562    698.5496 307.6531934  +6.3884234     631.2214     1123.838      1593.64     85.89212      171.376     342.6499      2.405     3.91     1051.845     60.39761     97.35986         6     0.923     0.474  87.74   0
       216    903.2617    695.0218 307.5446243  +6.3985924     1325.972     2282.076     3329.845     85.48344      171.376     342.5477      2.345     4.18     1045.719     60.39761     207.7804        13     1.111     0.976 -53.85   2
       217    877.4664    690.1254 307.5555060  +6.3997562     1164.188     1971.476     2099.396     86.02792     171.4441     342.6158      1.757     4.05     1045.727     60.39761     162.2113        14     1.173     0.825 -87.12   0
       218    859.8540    686.2488 307.5629536  +6.4007710      1544.55     2477.026     2769.123     85.89212      171.376      342.718      1.716     3.57     1045.823     60.39761     216.7098        15     1.119     0.879  81.54   0
       219     59.2339    685.4210 307.8955993  +6.3743660      2460.59     3935.413     4408.882     85.34677     171.1716     342.4454      1.757     3.77     1059.413     60.39761     308.7313        23     1.290     1.091 -58.58   0
       220    123.7580    683.3768 307.8688635  +6.3773735     736.5307     1802.563     1867.799     85.48344     171.2398     342.4113      2.322     8.10     1059.554     60.39761     113.8032        14     1.580     1.159  68.90   0
       221    671.7289    673.8116 307.6415321  +6.3996410     5577.017     9094.649     9757.552     85.34677     171.0351     342.4454      1.754     3.68     1049.529     60.39761     698.5073        32     1.469     1.099 -66.95   0
       222    618.7075    673.0613 307.6635859  +6.3981828     1219.563     1894.792     2255.472     85.75611      171.376      342.718      1.825     4.87     1050.733     60.39761     158.5592        16     1.362     0.816 -69.50   0
       223    529.5884    673.0818 307.7006109  +6.3952004     851.5475     1132.974     1041.353     85.48343     171.1034     342.4795      1.661     5.73     1053.662     60.39761     148.7631        10     1.213     0.794 -49.68   0
       224    645.5979    669.6539 307.6525286  +6.4004866     1836.872     2736.334     2032.759     85.20988     171.1716     342.2408      1.594     3.92     1049.961     60.39761     215.9583        19     1.312     0.895 -71.11   0
       225    134.9454    669.6512 307.8646803  +6.3834159      3193.25     5273.637     5501.535     85.89212      171.376      342.684      1.793     3.73     1059.058     60.39761     395.6281        25     1.379     1.045 -76.48   0
       226   1008.6858    668.8984 307.5016998  +6.4128841     2780.486     3859.866     3763.718     85.89212     171.8522      342.718      1.481     3.50     1041.143     60.39761     395.2129        18     1.215     0.871 -63.17   0
       227    321.4855    669.6393 307.7871842  +6.3896672     571.0493     996.8898     649.0389     85.89212     171.3079     342.6499      1.429     4.11     1058.109     60.39761     84.56897         6     1.086     0.445 -35.83   0
       228    257.3105    669.3411 307.8138555  +6.3876427     723.6063     1261.344     1864.987     85.75611      171.376     342.7861      2.173     5.65     1058.729     60.39761     98.48767         9     1.264     0.711 -34.75   0
       229    788.6323    665.8004 307.5932316  +6.4068441     19130.22     29862.03     31109.67     85.20988     171.1716     342.3772      1.662     3.48     1047.282     60.39761     2467.104        47     1.493     1.173 -68.80   0
       230    918.6038    665.5290 307.5392404  +6.4112811     3813.661     5340.644     5554.533     85.34677     170.9669     342.4795      1.491     3.19     1044.567     60.39761     507.1611        22     1.255     0.912 -74.25   0
       231    487.7709    666.3188 307.7182123  +6.3965966     1072.776     1800.963     1372.652     85.75611     171.2398     342.6499      1.686     6.77      1054.52     60.39761     116.8549        16     1.389     0.955 -33.04   0
       232    516.2657    665.8116 307.7063910  +6.3977576     766.7183     1133.031     365.8843     85.34677     171.1716     342.5136      1.565     4.57     1053.789     60.39761     93.45801         8     0.939     0.633  81.65   0
       233    262.3221    659.4826 307.8121066  +6.3918812     5317.778      9246.98     9814.402     86.02792     171.6483     342.7861      1.862     4.03     1058.081     60.39761     620.6193        37     1.591     1.247 -66.02   0
       234    669.1595    658.6378 307.6431104  +6.4058210     6376.237     10223.14     10443.84     85.61988      171.376     342.5136      1.690     3.75     1048.845     60.39761     798.8469        32     1.500     1.081 -65.29   0
       235    651.3472    659.7060 307.6504749  +6.4047861     685.2039     891.5156     292.9397     85.75611     171.3079     342.9223      1.436     5.20     1049.408     60.39761     93.14673         7     0.934     0.816  40.44   0
       236    928.8793    651.3479 307.5354472  +6.4174787     1083.855     1503.119     965.2576     85.89212      171.376     342.6499      1.388     4.57     1043.827     60.39761     132.7906        11     1.023     0.766 -72.35   0
       237    740.9041    647.0128 307.6136934  +6.4130123     3351.685     5878.169     6463.994     85.61988     171.1034     342.4454      1.820     4.04     1047.574     60.39761     445.2206        31     1.601     1.114 -76.54   0
       238    696.2753    647.5452 307.6322178  +6.4113053     865.8559     1326.769     1318.051     85.75611      171.376     342.6158      1.746     4.40     1048.019     60.39761      123.129         7     0.952     0.579 -56.99   0
       239   1007.1752    643.5120 307.5031791  +6.4233168     9675.543     13540.79     14489.91     86.02792     171.1716     342.5136      1.517     3.30     1040.736     60.39761     1395.248        30     1.379     0.933 -72.16   8
       240     26.6010    643.5248 307.9105750  +6.3905705     1876.113     3178.002     3779.443     85.07278     170.7619     342.4454      1.867     4.39     1058.998     60.39761     235.5419        20     1.216     1.127 -61.35   0
       241    995.3585    643.6439 307.5080845  +6.4228697      744.228     993.3585      1287.42     85.61988      171.376     342.5136      1.285     3.47     1041.163     60.39761     141.2454         7     0.920     0.569 -58.17   0
       242    545.8016    639.6114 307.6950029  +6.4095624     1562.744     2679.745     2542.708     85.48344     171.0351     342.4454      1.784     5.93     1052.043     60.39761     218.2776        16     1.429     0.867 -72.18   0
       243     84.6171    638.6896 307.8866366  +6.3945130     22551.56     38540.85     41204.12     85.61988     171.1034     342.5477      1.842     3.96      1058.24     60.39761     2930.557        56     1.656     1.285 -75.92   0
       244    514.5867    636.4281 307.7080791  +6.4098347     940.1469     1672.201     990.6019     85.48344     171.1716     342.5477      1.774     5.56     1052.865     60.39761     123.1064        10     1.407     0.681 -74.97   0
       245    935.4448    635.6660 307.5332458  +6.4241726     1056.997     1135.661     981.4962     85.89212     171.3079      342.684      1.343     5.00     1042.955     60.39761     156.3044         9     0.955     0.740 -62.67   0
       246    554.6285    633.1893 307.6915520  +6.4125088     956.6772     1620.757     1433.259     85.34677     171.1716     342.4795      1.892     6.08      1051.51     60.39761     126.6151        12     1.104     0.942  41.19   0
       247    730.5020    630.6750 307.6185649  +6.4194121     3274.772     5074.723     5339.648     85.48344     171.5122     342.6499      1.682     4.07     1046.731     60.39761     379.7854        27     1.451     1.100 -80.94   0
       248    752.5812    628.9320 307.6094499  +6.4208674     3698.485     5957.916     5882.013     85.48343     171.3079     342.5477      1.715     3.74     1046.183     60.39761     445.9014        28     1.498     1.063 -60.63   0
       249    584.0225    627.0136 307.6795476  +6.4160399     2675.599     4458.932     4061.737     85.61988     171.1716     342.5477      1.694     4.43      1050.43     60.39761     334.1013        24     1.451     1.013 -70.63   0
       250    420.3820    627.7565 307.7475108  +6.4102683     1122.788     1921.396     1691.964     85.34677     171.2398     342.3772      1.732     4.32     1054.399     60.39761     168.0769        13     1.227     0.846 -53.01   0
       251    244.8960    626.6801 307.8204551  +6.4048424     1490.849     2356.388      3151.15     85.61988     171.6483     342.7521      1.994     4.33     1056.438     60.39761     195.1277        15     1.194     0.906 -74.20   0
       252    945.7272    643.8351 307.5286994  +6.4211411     2431.875     3504.479     3440.447     85.75611      171.376     342.6158      1.542     3.97     1042.907     60.39761     368.4229        18     1.322     0.834 -55.53   0
       253    990.8650    623.9398 307.5106126  +6.4308569     8544.405     12627.47     13083.46     85.89212     171.3079      342.684      1.545     3.32     1040.806     60.39761     1189.881        35     1.448     1.022 -68.98   0
       254    328.5976    625.9240 307.7857059  +6.4079559     1239.006     2333.052     2506.237     85.34677     170.8302     342.5477      1.993     6.42     1055.552     60.39761     161.4711        19     1.398     1.061 -66.48   0
       255    710.6375    622.7393 307.6270853  +6.4220270     845.3828     1482.025     1858.035     85.89212     171.4441     342.6499      2.013     5.98     1046.469     60.39761     120.0437        10     1.225     0.821 -52.44   0
       256    102.3341    621.1818 307.8798688  +6.4023362     841.3999     1430.437     1408.213     85.48344      171.376     342.5477      1.844     5.38     1057.637     60.39761     103.2861         8     0.940     0.869  88.87   0
       257    149.3686    617.5366 307.8604517  +6.4054180     20528.01     36236.77     37338.91     85.61988     171.4441     342.6158      1.893     4.02     1057.592     60.39761     2400.601        56     1.695     1.320 -78.35   0
       258    436.2452    618.3073 307.7412390  +6.4147002     2380.006     4406.963     4653.941     85.89212     171.3079     342.7861      1.956     4.63     1053.924     60.39761     273.9303        31     1.535     1.272 -75.23   0
       259    817.4264    617.8248 307.5828809  +6.4276133     1099.777     1676.511     1851.143     85.34677     171.1716     342.5477      1.545     4.59     1044.337     60.39761     167.3901        11     1.196     0.704 -53.00   0
       260    985.6619    606.9147 307.5133458  +6.4377142     7020.375     11070.56      11576.2     86.02792     171.5122     342.6499      1.700     3.32     1040.469     60.39761     960.0237        34     1.379     1.186  89.52   0
       261     30.6343    606.0516 307.9101687  +6.4061787     1077.746     1750.368     1721.216      85.7561      171.376     342.5477      1.791     5.88     1058.505     60.39761     154.1973        12     1.149     0.848 -52.00   0
       262    579.3138    602.2744 307.6823375  +6.4260982     41047.47     70908.47     75238.77     86.02792     171.7163      342.718      1.863     3.95     1049.489     60.39761     4629.335        71     1.681     1.373 -72.83   0
       263    943.5635    603.5551 307.5309506  +6.4377021     585.0317      799.123     1160.974     85.61988      171.376     342.5477      1.498     4.15     1041.376     60.39761     119.1133         5     0.993     0.495 -88.56   0
       264    187.0074    598.9718 307.8454424  +6.4143448     2309.303     4350.664     5156.885     85.48344     171.1716     342.4454      2.063     4.66     1056.306     60.39761     265.4686        27     1.542     1.111 -79.92   0
       265    990.0693    598.7367 307.5117889  +6.4412376     667.6939     1018.702     879.0298     85.89212      171.376      342.718      1.436     3.63     1040.033     60.39761     101.7389         7     0.729     0.685  20.36   0
       266     79.4186    593.2311 307.8903354  +6.4131088     1125.155     1977.143     2154.713     85.48344     171.1716     342.5136      1.818     5.76     1057.222     60.39761     174.6428        13     1.214     0.996 -87.01   0
       267    476.5910    586.1118 307.7255622  +6.4293424     51586.56     92533.93     98675.48     85.48344     171.0351     342.4113      1.915     4.15     1051.899     60.39761     5666.404        77     1.738     1.402 -72.85   0
       268     20.3415    588.1395 307.9150517  +6.4132293     1453.674      2566.41     2788.296     85.89212     171.3079      342.684      1.959     5.42     1057.939     60.39761     177.6196        18     1.255     1.115 -37.84   0
       269    662.6789    583.1190 307.6483452  +6.4367886     774.7151      1283.45     1585.225     86.16351     171.6483     342.8542      1.795     4.30      1045.34     60.39761     108.0007         7     0.861     0.612  65.82   0
       270    151.0972    581.2590 307.8609610  +6.4204553     1401.157      2549.29     2505.951     85.61988      171.376     342.7861      1.880     5.60     1056.197     60.39761     162.5129        18     1.398     1.022 -68.40   0
       271    946.0026    578.4969 307.5307783  +6.4481305     675.2859     734.2866     864.5718     85.48343     171.0351     342.3091      1.504     3.71     1040.294     60.39761     89.64856         6     1.168     0.338 -50.27   0
       272    622.4944    577.9823 307.6652147  +6.4375696     768.6008     1373.858     1025.611     85.75611     171.1716     342.5136      1.838     6.11     1046.409     60.39761      99.1333         7     1.135     0.923  72.03   0
       273    430.6928    579.0579 307.7448702  +6.4307215     717.3395     1271.828     1185.532     85.75611     171.3079     342.7861      2.214     5.57     1051.846     60.39761     101.3225         7     1.247     0.701 -17.48   0
       274     23.2384    577.4402 307.9142106  +6.4177443     541.0593     1004.742     1502.301     85.61988     171.4441     342.5136      1.863     4.28      1057.43     60.39761     86.12183         5     1.150     0.454  57.10   0
       275    322.1658    575.3403 307.7900868  +6.4286275     1778.242     3216.672     3732.722     85.75611      171.376     342.5818      1.953     4.96     1053.295     60.39761     208.3812        22     1.440     1.125 -85.59   0
       276     31.0537    575.0969 307.9110431  +6.4189741     473.9958     772.9815     636.3795     85.75611      171.376     342.8883      1.626     4.97     1057.254     60.39761      93.0498         5     1.183     0.590 -76.70   0
       277    474.4601    574.0427 307.7268547  +6.4342548     731.8135     1059.057     1636.947     85.89212      171.376     342.7521      1.811     5.54     1051.207     60.39761     88.80945         7     1.034     0.838 -49.80   0
       278    748.6779    569.5275 307.6130699  +6.4452671     4963.939      7962.99     8409.207     86.16351     171.6483     342.6499      1.760     3.79       1043.7     60.39761     583.1565        31     1.470     1.130 -73.43   0
       279    802.1384    564.8151 307.5910151  +6.4489935     12812.84        20498     21972.38     85.34677     171.3079     342.4454      1.707     3.63     1042.893     60.39761     1651.376        43     1.573     1.138 -74.17   0
       280   1019.2965    565.1792 307.5007706  +6.4560658     1133.866     1543.846     1186.801     85.75611     171.1716     321.7056      1.516     3.40     1037.811     60.39761     173.3129        12     0.945     0.907 -66.83  16
       281    625.8995    563.0390 307.6643032  +6.4438536     2395.574     4432.811     4614.745     85.89212     171.2398     342.8883      1.938     4.43      1045.26     60.39761     274.4375        28     1.522     1.142 -61.99   0
       282    544.5938    563.9810 307.6980539  +6.4407515     893.4564     1928.095     2358.724     85.48343     171.0351     342.4454      2.498     7.08     1047.775     60.39761     108.4976        13     1.822     0.771 -81.35   0
       283     47.2398    564.3969 307.9046809  +6.4239353     617.8342     806.7123     1206.899     85.07278     171.0351     342.3772      1.256     3.41      1056.67     60.39761     89.65259         5     0.768     0.438  20.21   0
       284    942.9374    558.7336 307.5327155  +6.4561895     1176.041     1696.065         1961     85.89212      171.376     342.6499      1.496     5.50     1039.621     60.39761     153.2336        11     1.138     0.750 -29.98   0
       285    384.5483    556.8901 307.7647909  +6.4383324     811.5381      1430.12     1188.419     85.89212     171.1716     342.7861      1.844     5.43     1051.511     60.39761     106.9924         8     1.062     0.784 -48.85   0
       286    238.9554    556.4296 307.8252981  +6.4336509     1021.627      1816.06     1455.616     85.48343      171.376     342.5136      1.780     6.41     1053.768     60.39761     154.8722        14     1.513     0.764 -63.57   0
       287    202.5068    557.7231 307.8403979  +6.4318960     564.3843     1074.445     1406.454     85.61988     171.6483     342.6499      2.125     4.42     1054.463     60.39761     82.19824         5     1.204     0.461 -31.89   0
       288    878.2597    548.0038 307.5599506  +6.4584690     2843.361     4305.277     4621.077     85.20988     171.2398     342.3772      1.546     3.34     1040.899     60.39761     436.5974        21     1.323     0.916 -63.21   0
       289    836.8802    545.4322 307.5772310  +6.4581539     2481.028     3694.447     3709.206     85.75611     171.3079     342.6158      1.568     3.41     1041.666     60.39761     334.9473        21     1.322     0.976 -73.70   0
       290    807.6983    541.2993 307.5894955  +6.4588890     2431.961     4108.959     5209.501     85.89212     171.7842     342.4795      1.891     4.03     1042.136     60.39761     327.7397        23     1.483     0.951 -73.53   2
       291    817.5281    536.6932 307.5855659  +6.4611183       146696     234633.3     247621.7     85.75611     171.4441      342.718      1.751     3.67     1041.845     60.39761     18064.85       117     1.683     1.358 -71.44   2
       292    265.0478    540.5805 307.8149929  +6.4410688     6017.382     11285.24     12067.12     85.34677      171.376     342.4454      1.981     4.50     1052.566     60.39761     684.1884        38     1.658     1.257 -76.66   0
       293    199.2277    535.1345 307.8425244  +6.4411133     46698.27     86724.95     92919.98     85.48343      171.376     342.5477      1.965     4.17     1053.354     60.39761     5559.624        78     1.758     1.448 -74.39   0
       294    123.2789    531.4047 307.8742059  +6.4401081      5008.07     9140.016     9435.755     85.48344     170.8303     342.3772      1.919     4.23     1054.661     60.39761     577.8069        39     1.579     1.301 -69.53   0
       295    988.3807    528.4033 307.5148509  +6.4702244     1224.681     2113.091     1449.334     85.48344     170.8986     342.4454      1.792     5.42     1037.022     60.39761     164.1492        15     1.372     0.740 -64.78   0
       296   1009.4258    527.0652 307.5061509  +6.4714763     811.8206     1145.286     1181.538     85.48343     171.3079     342.5477      1.473     2.89     1036.396     60.39761     147.3574         8     0.792     0.708 -12.48   0
       297    853.9957    523.9799 307.5708401  +6.4675818     4227.978      6781.84     7333.369     85.48344     171.0351     342.4454      1.695     3.62     1040.738     60.39761     567.3834        30     1.482     1.061 -60.38   0
       298    372.6132    522.2487 307.7709195  +6.4522374     13213.77     24586.89      26066.1     85.20988     171.3079     342.3431      1.976     4.37     1049.728     60.39761     1438.723        57     1.727     1.402 -76.98   0
       299    463.2626    522.0440 307.7332613  +6.4553520     591.1604     1022.418     1359.123     85.89212     171.3079      342.718      2.163     6.97      1048.04     60.39761     89.27966         8     1.195     1.141  74.74   0
       300    174.4465    521.3866 307.8532856  +6.4459597     1405.692     2485.133     2868.991     85.20988     171.1716     342.4113      1.930     4.65     1053.002     60.39761     178.6927        18     1.285     1.064 -46.32   0
       301    808.0167    517.3268 307.5901692  +6.4687985     5387.693     8481.591     9046.561     85.34677     171.2398     342.5477      1.704     3.93     1041.614     60.39761     630.2566        30     1.462     1.077 -75.16   0
       302    538.8668    517.1216 307.7020131  +6.4599096     5274.159      9639.28     10685.52     86.02792     171.4441     342.6158      1.989     4.29     1045.428     60.39761     523.9683        38     1.552     1.343 -70.49   0
       303    112.3147    518.2618 307.8792063  +6.4451673     644.7016     1047.407     909.2483     86.02792     171.5122     342.6499      1.711     5.64     1054.356     60.39761      101.422         6     1.395     0.644 -69.03   0
       304    250.4340    517.9219 307.8218308  +6.4499355     643.5807     1104.763     1127.065     85.75611      171.376     342.6158      2.120     5.06     1051.103     60.39761      102.641         7     0.918     0.789  39.40   0
       305    397.2455    514.0550 307.7609614  +6.4564443      1084.44     2117.358     2164.493     85.89212      171.376     342.6499      1.931     7.01     1048.442     60.39761     127.7534        17     1.613     0.853 -57.38   0
       306    185.9992    510.2965 307.8488608  +6.4509260     5350.271     9808.315     10241.37     85.34677     170.9669     342.2408      1.935     4.50      1052.01     60.39761     632.8167        35     1.609     1.195 -77.08   0
       307    583.6219    510.0448 307.6836552  +6.4643256     1939.913     3964.399     4636.852     85.34677     171.2398     342.4795      2.201     5.27     1044.085     60.39761     232.9135        30     1.613     1.312 -43.46   0
       308     57.6662    509.0621 307.9022233  +6.4471331      4121.17     7587.946     8309.636     85.89212      171.376     342.6499      1.971     4.24     1054.994     60.39761     554.9341        35     1.647     1.188 -77.89   0
       309    281.2226    506.7711 307.8094151  +6.4555706     66688.68     127500.5     136952.4     85.34677     171.1716     342.4795      2.005     4.39     1049.841     60.39761     7984.888        94     1.799     1.502 -75.54   0
       310    867.0336    510.0501 307.5658906  +6.4737677     734.9393     1177.956     1363.746     85.75611      171.376     342.5818      1.772     5.08     1039.997     60.39761     106.4678         8     1.054     0.691   9.76   0
       311    824.7019    509.5561 307.5834973  +6.4725628     1176.251     2006.927     2176.028     85.89212     171.3079     342.8883      1.927     3.40     1041.046     60.39761     187.5195        13     1.117     0.838 -58.47   0
       312    804.2526    499.1374 307.5923449  +6.4761841     14508.71     23920.96     25465.08     85.89212     171.3079     342.6158      1.760     3.75     1041.327     60.39761     1843.688        49     1.571     1.259 -73.97   0
       313    507.9300    497.5287 307.7155284  +6.4669669     32314.73     64355.03     70536.25     85.89212     171.5122     342.5818      2.125     4.42     1045.511     60.39761     3342.152        90     1.851     1.637 -64.24   0
       314    264.8406    501.6515 307.8163949  +6.4571362     1076.862     2113.057     2521.563     85.89212      171.376     342.6158      2.120     6.71     1049.688     60.39761     135.5371        14     1.354     0.932 -36.57   0
       315    980.4138    500.2002 307.5191080  +6.4816056     1676.046     2423.819     2264.488     85.48344     171.0351     342.4454      1.521     3.72     1035.954     60.39761      213.936        15     1.175     0.848 -69.47   0
       316    658.4245    495.5128 307.6530626  +6.4728216     779.9031     1269.389     1668.059     85.89212     171.1716     342.5136      1.877     6.34     1042.725     60.39761     103.9497         8     1.129     1.000 -60.82   0
       317     55.9092    494.4246 307.9034491  +6.4531181      984.095     1710.976     1373.947     86.02792     171.1716     342.4795      1.893     7.19     1054.645     60.39761     111.0046        14     1.548     0.937 -75.03   0
       318    220.4167    493.6036 307.8351251  +6.4589716     1356.168     2686.397     3771.601     85.48344     170.9669     342.4795      2.324     5.65     1049.723     60.39761     143.2106        23     1.431     1.176  87.81   0
       319    677.9202    492.6472 307.6450581  +6.4746549     1204.318     2098.533      2119.28     85.89212      171.376     342.6499      1.833     4.96     1042.439     60.39761     174.7019        15     1.256     1.020 -53.04   0
       320    667.9594    492.4248 307.6492046  +6.4744146     2504.479     4494.466      5278.16     85.48343     171.2398     342.4113      1.985     4.41     1042.559     60.39761     269.2725        26     1.506     1.067 -63.39   0
       321    729.9614    491.8505 307.6234603  +6.4767185     1237.965     2193.942     2706.383     85.61988      171.376     342.6158      2.056     6.27     1041.566     60.39761     148.7484        15     1.276     0.877  79.16   0
       322    405.7917    488.4478 307.7582748  +6.4673037      1385.09     2417.997      2731.94     85.34677     171.2398     342.2749      1.816     4.70      1046.46     60.39761     162.8226        15     1.219     0.902 -23.07   0
       323    337.1180    486.4878 307.7868757  +6.4658163     2872.421     5540.046     5901.419     85.61988     171.5803     342.7521      1.981     4.92     1047.979     60.39761     319.2765        30     1.556     1.219 -74.82   0
       324    152.3029    485.1660 307.8637117  +6.4601734     20372.13     37960.72     40299.95     85.89212     171.2398     342.7861      1.972     4.26     1051.753     60.39761     2396.559        61     1.725     1.411 -75.74   0
       325    517.1248    485.7759 307.7121041  +6.4721269     1608.081     3055.164     3537.294     85.48343     171.1716     342.5818      2.035     4.67      1044.59     60.39761     193.9148        21     1.296     1.126 -68.77   0
       326    880.0580    485.0982 307.5613169  +6.4845044      1346.01     2412.734     2717.894     85.61988     171.3079     342.8202      1.862     5.52     1038.679     60.39761     188.2872        18     1.411     0.970 -78.59   0
       327    117.4245    483.6484 307.8782550  +6.4596308     2182.713     4123.703      4327.68     85.48344      171.376     342.5477      1.993     4.72      1052.78     60.39761     320.6902        28     1.530     1.239 -72.86   0
       328    354.7893    481.2728 307.7797092  +6.4685608     735.7652     1476.283     2204.052     85.34677     170.9669     342.5136      2.608     6.03     1047.475     60.39761     94.30237         9     1.436     0.713 -75.55   0
       329    977.7726    479.5545 307.5208985  +6.4900431      5160.25     7581.781     8267.787     85.34677     171.4441     342.5477      1.587     3.28     1035.094     60.39761     665.4766        28     1.359     1.002 -74.33   0
       330    551.0942    472.2849 307.6984438  +6.4788319      1149.24     1880.426     1326.199     85.75611     171.7842     342.7861      1.803     6.20     1043.033     60.39761      128.578        14     1.213     0.891 -38.37   0
       331     16.6455    469.5414 307.9206058  +6.4620749     20765.52     36921.55      39294.7     85.75611      171.376     342.7521      1.916     4.04     1054.812     60.39761      2563.02        59     1.698     1.364 -75.43   0
       332    449.2690    466.2499 307.7409583  +6.4779228     32829.39     61912.04     66949.95     85.75611     171.3079     342.6499      1.999     4.33     1044.306     60.39761     3414.314        72     1.755     1.459 -72.29   0
       333      1.6083    463.5721 307.9270559  +6.4640350     36227.04     48666.85     54217.48     78.20967     140.6214     262.5233      1.427     6.70     1054.935     60.39761     9650.741        48     1.829     1.171  72.45  24
       334    657.2892    465.8509 307.6545332  +6.4850319     9896.347     17436.87     17954.56     85.89212     171.1716     342.7861      1.874     4.09     1041.722     60.39761      1098.09        44     1.637     1.255 -64.68   0
       335    214.4655    463.8795 307.8386031  +6.4710457     15041.99     29047.19     31666.24     86.16351     171.5122     342.6158      2.056     4.34     1048.322     60.39761     1596.102        63     1.784     1.506  89.67   0
       336    298.0841    466.2455 307.8037787  +6.4728685     661.3435     1272.735     1224.042     85.89212      171.376      342.684      1.784     4.34     1046.621     60.39761     105.9073         5     1.188     0.452  55.57   0
       337    180.2363    465.1204 307.8527837  +6.4693866     1194.964     2255.279     2355.515     85.75611     171.4441     342.6499      1.850     6.16     1049.727     60.39761     164.7019        17     1.344     1.063 -62.49   0
       338    991.2313    464.0732 307.5158254  +6.4968832     1172.207     1561.212     1621.925     85.75611      171.376     342.6499      1.442     5.00     1034.181     60.39761     170.2174        10     1.110     0.753 -56.93   0
       339    579.1834    462.6149 307.6870978  +6.4837624     2113.345     3986.139     4312.914     85.61988     171.0351     342.5818      1.965     5.47     1042.232     60.39761     224.1317        24     1.556     1.084 -83.25   0
       340    831.2150    463.5421 307.5823377  +6.4917801     816.7682     1526.258     1471.833     85.20988     171.3079     342.3431      1.934     5.28     1039.349     60.39761     102.4244         9     1.246     0.631 -54.97   0
       341    952.8655    459.7090 307.5319148  +6.4974099     4529.316     6916.396     6867.855     85.75611     171.5803     342.6499      1.611     3.56     1034.899     60.39761     562.4614        28     1.429     1.022 -71.66   0
       342    114.1012    459.3438 307.8804586  +6.4695549     808.4319     1411.137     1527.547     85.61988      171.376     342.8883      1.738     5.29     1051.691     60.39761     122.9261         9     1.242     0.645 -81.49   0
       343    626.1061    458.2874 307.6677456  +6.4871149     5205.378     9164.376     9590.413     85.89212     171.8522      342.718      1.878     4.21     1041.527     60.39761     591.2043        36     1.499     1.264 -61.56   0
       344    975.4281    451.9544 307.5227993  +6.5013621      3360.58     4847.217     4896.702     85.34677     171.4441     342.5477      1.553     3.33     1034.091     60.39761     476.8567        20     1.277     0.894 -73.88   0
       345    538.2393    449.6019 307.7045501  +6.4877690     5628.452     10736.94     11582.14     84.93546     171.1034     342.3431      1.984     4.25     1041.921     60.39761     577.6219        38     1.555     1.322 -63.15   0
       346    384.4233    449.6693 307.7684630  +6.4826015      2057.51     4073.181     4294.364     85.48344     171.2398     342.6158      2.090     4.98     1044.117     60.39761     249.9156        26     1.542     1.170 -72.40   0
       347    894.7533    445.2695 307.5565485  +6.5014398     2842.588     4665.822     5522.736     85.89212     171.3079     342.6499      1.726     3.93     1035.854     60.39761     366.9438        22     1.468     0.911 -69.47   0
       348    243.5749    444.9771 307.8271471  +6.4798256     527.7139     1018.737     789.5504     85.34677     171.2398     342.6158      1.821     4.81     1046.547     60.39761     85.91541         5     0.990     0.662  -1.03   0
       349    902.0968    439.7075 307.5536838  +6.5039808     2036.612     2996.143     3099.881     85.89212     171.9201     342.6158      1.569     3.80     1035.352     60.39761     294.9252        19     1.314     0.940 -70.09   0
       350    941.5034    438.5160 307.5373481  +6.5057834     1182.811     1887.209     2052.451     85.89212     171.7842      342.718      1.731     4.38     1034.215     60.39761     154.2516        11     0.944     0.816 -44.31   0
       351    726.1286    435.5772 307.6269467  +6.4998275     2534.297     4161.075      3903.77     85.48344     171.1716     342.6499      1.704     4.12     1039.778     60.39761      331.222        26     1.480     1.035 -65.99   0
       352    121.2549    438.3983 307.8781953  +6.4784434     608.8015     1145.717     1488.725     85.20988     171.0351     342.2749      2.025     5.80      1050.46     60.39761     102.2056         6     1.322     0.716   5.72   0
       353    397.1497    434.0339 307.7637028  +6.4894832     2849.743     5639.402     5797.656     85.75611      171.376     342.5477      2.066     4.74     1042.634     60.39761     337.1055        33     1.532     1.380 -75.00   0
       354     88.1142    434.7762 307.8920882  +6.4788276     1421.019     2668.416     2788.677     85.89212     171.1716     342.5136      1.877     5.28     1051.333     60.39761      160.478        21     1.437     1.069 -65.76   0
       355    438.1533    434.3170 307.7466549  +6.4907370     737.1505      1512.54     1640.394     85.89212      171.376     342.6499      2.188     6.07     1042.021     60.39761      102.895         9     1.177     0.881  61.67   0
       356    624.8188    430.4561 307.6692181  +6.4985642     7965.333     14395.84     14809.02     85.34677     171.3079     342.4454      1.905     4.28     1040.005     60.39761     853.0315        43     1.610     1.297 -69.42   0
       357    138.9972    430.1186 307.8711034  +6.4824569     423.8484      716.967     1084.295     85.20988     170.9669     342.3431      2.002     5.19     1049.494     60.39761     78.57788         6     1.389     0.549 -84.34   0
       358    787.7082    426.7261 307.6016549  +6.5055338      14132.9      24202.6      26947.6     85.89212     171.5122      342.684      1.895     4.48     1039.283     60.39761     1785.593        63     2.102     1.301 -55.22   0
       359    307.3390    427.5574 307.8012405  +6.4891531     2115.889     3981.873     4326.469     85.89212      171.376     342.7861      1.959     4.99     1043.312     60.39761     231.9146        29     1.557     1.261 -53.35   0
       360    816.2669    423.7132 307.5898885  +6.5077289      1116.88     1973.659     2097.068     85.89212     171.5803      342.684      1.876     6.06     1038.283     60.39761     164.6279        15     1.349     0.948 -53.74   0
       361    390.3242    423.8603 307.7668825  +6.4934558     1280.628     2612.213      3355.85     86.16351      171.376     342.6158      2.313     6.94     1041.938     60.39761     152.1439        18     1.403     1.065  78.06   0
       362    972.5980    421.9677 307.5249820  +6.5136505     1882.063       2768.7     2991.004     85.07278     171.1716     342.4113      1.582     3.70     1032.964     60.39761     248.3604        18     1.225     0.911 -83.83   0
       363    124.9436    418.9786 307.8773200  +6.4865856     3233.901     6492.054     7592.858     85.48344      171.376     342.4454      2.128     4.88     1049.417     60.39761     404.3453        30     1.611     1.179 -76.01   0
       364    763.0732    418.0299 307.6121846  +6.5083042      1949.98     3384.372     3553.651     85.75611      171.376     342.6158      1.789     4.33     1039.064     60.39761     239.1605        19     1.304     1.015  82.70   0
       365    282.9889    416.5394 307.8117310  +6.4928876     1004.026     2100.723     2181.247     85.20988     171.2398     342.3431      2.204     6.17     1042.978     60.39761     140.6255        15     1.332     0.983 -26.74   0
       366    360.9602    413.5977 307.7794308  +6.4967113     2451.015     4661.255     5257.971     84.93546     171.1034     342.3431      2.098     4.53     1041.475     60.39761     276.9835        29     1.517     1.195 -74.42   0
       367    716.5241    411.4224 307.6317508  +6.5094815     1381.719     2253.879     1777.151     85.48344     171.1716     342.5818      1.745     4.72     1038.729     60.39761     194.2402        18     1.331     1.094 -61.02   0
       368    558.3017    404.3385 307.6977393  +6.5071290     745.0373     1368.051     1526.098     85.61988     171.4441     342.7521      1.875     5.98     1038.857     60.39761     86.37756        10     1.341     0.751  44.99   0
       369    479.7800    402.8564 307.7304189  +6.5051187     920.0735     1860.789     2094.233     85.34677      171.376     342.4454      2.217     7.25     1038.953     60.39761      122.611        14     1.706     0.863 -74.67   0
       370    843.1824    401.2065 307.5794601  +6.5179185     1227.856      1993.76     1813.607     85.48343     171.1034     342.4795      1.707     5.16     1035.653     60.39761     162.6472        15     1.325     0.890 -82.72   0
       371    725.9048    398.7047 307.6282806  +6.5150456     12536.87      21982.2     23173.23     85.89212     172.0558     342.5477      1.883     3.99     1037.952     60.39761     1349.131        51     1.681     1.300 -72.09   0
       372    828.6602    400.5150 307.5855183  +6.5177207     1735.334      2510.42     2675.902     86.02792     171.4441     342.7521      1.605     3.92      1036.41     60.39761      203.932        15     1.151     0.860 -42.27   0
       373    647.0209    394.6997 307.6611964  +6.5140694     2135.712     3942.417     4064.317     85.89212     171.1034     342.4113      1.857     4.80     1037.734     60.39761     238.4282        27     1.603     1.091 -79.54   0
       374    619.4352    389.9003 307.6728216  +6.5151310     10271.95     25000.64     30556.07     85.89212     171.2398     342.8202      2.578     6.21     1037.345     60.39761     1261.453        75     2.355     1.624  39.45   0
       375    951.2698    388.6412 307.5349644  +6.5267029     3621.189     5345.054     6063.628     85.75611      171.376      342.718      1.672     3.62     1031.623     60.39761     451.1837        21     1.299     0.933 -78.92   0
       376    390.4036    384.6739 307.7681727  +6.5096391      21781.2     42483.21     45799.41     85.34677     170.8986     342.5136      2.053     4.51      1039.45     60.39761     2352.564        65     1.773     1.467 -75.29   0
       377    136.1657    384.0133 307.8738407  +6.5013992     1791.702     3653.587     4133.378     85.34677     171.1034     342.5477      2.244     5.25     1047.879     60.39761     226.1992        24     1.465     1.183 -53.39   0
       378    906.5983    384.1839 307.5536784  +6.5270579     1455.141     2577.465      3231.91     85.48344     170.9669     342.4113      2.197     4.69     1032.747     60.39761     193.6067        17     1.315     0.969  87.05   0
       379    920.0496    379.0655 307.5482604  +6.5296188     4732.133     7640.575     7756.865     85.75611     171.2398     342.6158      1.681     3.63     1032.203     60.39761     676.9872        33     1.516     1.113 -79.01   0
       380     69.8998    379.5533 307.9015270  +6.5010184     1138.283     2104.538     1625.974     85.89212     171.2398     342.8883      1.878     7.31     1049.978     60.39761     135.7324        19     1.347     1.110 -36.82   0
       381    247.8625    375.2143 307.8277244  +6.5087751      10197.4     20371.69      21947.2     85.34677     171.2398     342.4454      2.066     4.62     1042.915     60.39761     1194.486        51     1.733     1.422 -73.93   0
       382     84.1417    369.7513 307.8959411  +6.5055434     629.0278     1091.779     898.1595     85.89212      171.376     342.7521      1.605     3.92      1049.31     60.39761     98.52502         6     1.226     0.359 -62.31   0
       383   1020.1906    368.0973 307.5070119  +6.5374769     534.7708     707.1994     181.9211     85.61988     170.9669     311.3425      1.597     4.98     1027.342     60.39761     96.05518         6     1.083     0.649 -70.64  16
       384    970.8348    367.3781 307.5275475  +6.5361335     906.7164     1442.392     1670.372     85.34677     171.1716     342.3772      1.798     2.74      1029.53     60.39761     140.3638         9     0.869     0.670  71.88   0
       385    361.2585    365.3189 307.7809376  +6.5166563     1105.707      1968.58      1643.34     85.89212     171.4441     342.6499      1.919     6.72     1038.935     60.39761     129.9493        15     1.237     1.024  76.13   0
       386    193.6831    365.0157 307.8505831  +6.5111713     781.0331     1485.747     1689.974     85.48343     171.0351     342.5477      2.028     6.78      1044.66     60.39761     93.20081        12     1.558     0.826 -80.56   0
       387    148.2716    363.8941 307.8694913  +6.5101124     4002.012     7487.861      7845.29     85.75611     171.4441      342.684      1.985     4.32     1046.744     60.39761      478.604        36     1.598     1.283 -81.82   0
       388    253.1759    362.4363 307.8259486  +6.5142292     1118.726     1971.327     2290.909     85.48344     171.1716     342.4113      1.944     6.65     1042.136     60.39761     122.6809        15     1.311     1.042  15.41   0
       389    170.3684    359.6353 307.8604534  +6.5126116     1944.678     3854.606     3935.588     85.48344     171.1034     342.3772      2.089     6.01     1045.628     60.39761     199.2697        27     1.768     1.084 -81.89   0
       390    834.2975    360.4261 307.5845234  +6.5344621     701.9767     1065.428     707.2727     86.02792     171.1034     342.5818      1.662     5.11     1034.194     60.39761     87.67639         6     1.187     0.621 -45.60   0
       391    566.1398    358.6830 307.6960212  +6.5262427     750.0183      1333.57     1455.352     86.02792     171.4441      342.684      1.868     5.01     1035.458     60.39761     105.0916         7     0.923     0.769  60.10   0
       392    393.9457    354.7511 307.7677112  +6.5221132      1704.79     3098.054     3427.973     85.89212      171.376      342.718      2.043     5.02     1037.531     60.39761     188.7682        22     1.448     1.096 -40.63   0
       393    982.2604    353.7974 307.5232552  +6.5421212     864.1608     1882.463     2270.297     85.20988     171.1034     342.3431      2.395     6.77     1028.077     60.39761     113.9198        10     1.372     0.936 -57.89   0
       394    447.4955    348.1172 307.7456820  +6.5266426     5600.723     11039.72     11555.04     85.75611     171.7842     342.7521      2.053     4.78     1035.829     60.39761     579.7363        41     1.693     1.357 -74.40   0
       395     43.8867    348.7613 307.9133795  +6.5128597     2674.745     5184.791     5479.812     85.89212     171.3079     342.6499      2.123     4.89     1049.979     60.39761     309.4374        35     1.659     1.331 -71.58   0
       396    788.0977    345.3096 307.6042316  +6.5391658     11091.77     18888.54     19675.19     85.89212     171.8522     342.6499      1.795     3.86     1034.617     60.39761     1324.349        48     1.586     1.280 -73.90   0
       397    780.0710    346.7872 307.6075176  +6.5382883     1643.516      2915.06      3185.73     85.34677     171.1034     342.4795      1.987     3.85     1034.707     60.39761     232.8888        21     1.311     1.018 -58.68   0
       398    351.6455    344.0559 307.7856506  +6.5251146     920.1271     1816.772     1842.041     85.89212      171.376     342.6499      2.029     6.04     1038.017     60.39761     99.54285        11     1.223     0.838  45.11   0
       399    963.0419    336.6355 307.5318184  +6.5485690     552.7616     667.9628     1141.619     85.61988      171.376     342.4795      1.388     4.13     1028.597     60.39761     86.24292         5     0.816     0.597 -85.02   0
       400      1.5280    334.0844 307.9314784  +6.5174980     667.1509     1461.368     2163.724     77.45979     139.7053       261.32      2.105     5.34     1051.292     60.39761     120.7268        10     1.617     0.497  88.38  24
       401    495.6383    331.7915 307.7262263  +6.5349924     2289.832      4531.62     4611.234     85.07278     171.1034     342.3431      1.974     4.63     1033.943     60.39761     232.8031        30     1.486     1.273 -75.75   0
       402    467.8460    331.9819 307.7377695  +6.5339853     1613.725     3043.988     3522.939     85.34677     171.2398     342.3772      2.065     4.56     1034.334     60.39761     210.6562        20     1.295     1.084 -81.46   0
       403    924.5004    331.4800 307.5480092  +6.5494162     791.4135     1107.509     1315.398     85.75611     171.7842      342.684      1.465     3.74     1030.134     60.39761      105.533         6     0.983     0.408 -71.14   0
       404    853.4374    328.1847 307.5776531  +6.5484126     29636.77     49687.95     53056.75     85.61988     171.1716     342.3772      1.818     3.97     1032.149     60.39761     3680.564        63     1.694     1.284 -77.17   0
       405    625.3472    321.0453 307.6726847  +6.5437600     2126.719     3999.683     4193.383     85.89212      171.376      342.684      1.951     4.85     1032.967     60.39761     238.6045        24     1.377     1.184 -66.55   0
       406     33.4437    321.5545 307.9186409  +6.5237430     924.9233     1725.491     1914.273     85.89212      171.376     342.5818      1.941     5.95     1050.301     60.39761     156.6309        11     1.393     0.876 -30.86   0
       407    709.9180    314.2085 307.6377685  +6.5494033     65630.11     116365.6     124144.5     85.48343     170.9669     342.4795      1.882     4.03     1033.519     60.39761     7291.256        90     1.747     1.422 -71.09   0
       408    868.0414    315.4774 307.5720109  +6.5541458     1009.754     1591.167     1135.494     85.75611      171.376      342.718      1.699     5.28       1031.1     60.39761     130.5039        10     1.191     0.660 -51.87   0
       409     89.3131    313.9017 307.8956839  +6.5287774      1130.75     2086.618     1951.868     85.89212     171.8522      342.684      1.887     5.76     1048.307     60.39761     159.2732        16     1.316     0.916  86.84   0
       410    572.2913    311.0525 307.6950705  +6.5461157      2110.96     3955.165     3937.583     85.75611     171.1716     342.8542      1.946     4.67     1032.311     60.39761     234.5181        28     1.465     1.233 -82.92   0
       411    109.7700    309.8467 307.8873203  +6.5311379     4791.738     9300.768     9824.417     85.34677     171.4441     342.5477      2.056     4.47     1047.119     60.39761     551.6012        39     1.640     1.339 -76.85   0
       412    950.7646    310.7592 307.5377898  +6.5588458      712.505     1163.199     1185.271     85.61988      171.376     342.4454      1.935     5.08     1028.317     60.39761     141.9075         7     1.212     0.657 -86.41   0
       413    555.6526    307.1488 307.7021169  +6.5471721     5629.934     10808.23     11633.59     86.02792     171.2398      342.684      2.014     4.53     1032.109     60.39761     555.2758        39     1.610     1.332 -77.93   0
       414    284.7632    304.6727 307.8147753  +6.5391380     2277.059     4209.469     4146.719     85.75611      171.376      342.718      1.920     4.87     1038.991     60.39761     236.2747        27     1.523     1.206 -65.60   0
       415    418.5906    302.3572 307.7592387  +6.5445714     19725.29     38541.48     41726.57     85.34677     171.1716     342.3772      2.055     4.56     1034.162     60.39761     2009.131        64     1.780     1.471 -74.26   0
       416    596.9754    301.1688 307.6851453  +6.5510207     600.9112     1159.232     1157.599     85.34677     171.2398     342.4454      1.597     4.52     1031.631     60.39761     88.95752         6     1.119     0.518  80.20   0
       417    526.2743    301.1922 307.7145269  +6.5486507     920.7037     1746.709      1843.68     85.48344     170.8986     342.4795      2.138     6.71     1031.793     60.39761       106.62        12     1.283     1.087 -13.85   0
       418    398.2417    300.9503 307.7677427  +6.5444720     974.1142      1882.93     2941.531     86.02792      171.376     342.6158      2.498     6.13     1034.525     60.39761     102.9209        13     1.148     0.920 -41.83   0
       419    497.0000    297.9756 307.7268013  +6.5490011     794.6813     1626.016     2210.292     85.34677     170.9669     342.4113      2.360     5.64     1031.677     60.39761     94.16516         8     1.195     0.751 -85.78   2
       420    813.2822    294.8867 307.5954611  +6.5608254     706.6193     1306.131     806.6302     85.61988     171.5803     342.7521      1.967     5.06     1032.037     60.39761     89.46326         7     1.118     0.649 -34.17   0
       421    507.6362    292.7316 307.7225580  +6.5515217     6707.562     12625.18     13669.41     85.75611     171.4441     342.7521      1.986     4.52     1031.311     60.39761     685.7158        43     1.658     1.384 -79.31   0
       422    394.9527    294.3209 307.7693334  +6.5470993      663.791     1235.125     1920.113     85.89212     171.4441     342.6158      2.252     4.65     1034.201     60.39761     84.16858         5     1.209     0.507 -70.57   0
       423    776.7332    291.3476 307.6107699  +6.5610695     2610.823     4669.238     4867.728     85.89212     171.3079     342.5818      1.916     4.37     1032.501     60.39761     307.8341        27     1.426     1.250 -60.99   0
       424    932.1452    291.0154 307.5461913  +6.5663795     830.5237     1337.572     1597.627     85.20988      171.376     342.3431      1.656     5.28     1028.243     60.39761     110.2189         9     1.149     0.684 -73.55   0
       425    334.4189    289.5259 307.7946518  +6.5470543     801.2139     1602.794     1000.731     85.48344     171.3079     342.5818      1.780     5.18     1035.719     60.39761     97.68054         9     1.282     0.591  15.34   0
       426    169.9218    284.0829 307.8631960  +6.5437927     869.9441     1274.117     1405.921     86.02792     171.6483     342.7521      1.570     5.28     1042.453     60.39761     116.9246        10     1.051     0.750 -60.58   0
       427    270.5238    283.4592 307.8214100  +6.5474206     636.8319     956.2388     514.8381     86.02792     171.4441     342.6158      1.592     5.63     1038.831     60.39761     81.83948         6     1.088     0.821 -51.10   0
       428    397.5923    276.8198 307.7688275  +6.5544141     5720.954     10964.12     11517.85     85.48344     171.1034     342.4454      1.985     4.69      1033.53     60.39761     663.4895        41     1.659     1.367 -72.26   0
       429    253.4509    277.3729 307.8287109  +6.5493619     1498.325     2798.513     2980.397     85.48344     171.5122     342.5818      2.005     5.35     1039.478     60.39761     179.1613        22     1.376     1.270  89.90   0
       430    765.3915    272.7629 307.6161088  +6.5683657     45692.27     79040.84     84020.02     85.07278     171.1034     342.3772      1.851     4.06     1031.792     60.39761      5363.87        77     1.696     1.365 -72.76   0
       431    750.8557    276.2677 307.6220321  +6.5664342     910.9094     1697.936     1601.231     86.02792     171.2398     342.5818      2.031     6.31     1032.049     60.39761     107.3884        13     1.285     0.871 -64.62   0
       432    437.1936    272.1548 307.7525273  +6.5576644     1663.306     3406.308     3469.972     85.34677     171.1716     342.2749      2.201     5.04     1032.173     60.39761     195.6693        26     1.477     1.201 -50.43   0
       433   1000.1159    269.9696 307.5186487  +6.5773296      1900.52     2645.097     2913.098     85.89212     171.1716     342.5136      1.496     3.71     1024.969     60.39761      225.402        16     1.106     0.965 -69.20   0
       434    941.2701    269.0352 307.5431373  +6.5757592       2184.4     3659.344     3914.819     85.75611     171.3079     342.7521      1.835     4.16     1026.692     60.39761     285.7354        22     1.348     1.049 -67.09   0
       435    583.2031    269.7492 307.6919280  +6.5635348     1009.168     1952.564     1597.549     85.20988     171.1034     342.2067      1.943     5.75     1030.436     60.39761     133.7528        11     1.299     0.879 -13.28   0
       436    423.2924    268.1414 307.7584400  +6.5588568      1451.51     3140.829     3054.931     85.75611     171.3079     342.7861      2.188     6.84     1032.551     60.39761      165.277        22     1.509     1.175 -50.59   0
       437    473.7772    267.7336 307.7374728  +6.5607126      767.449     1858.503     2079.753     85.48344      171.376     342.5818      2.842     8.26     1030.624     60.39761     116.2144        15     1.943     0.982  81.75   0
       438    844.7921    262.3151 307.5834607  +6.5753241     969.5464     1263.171     1219.233     85.48344     171.0351     342.4795      1.397     5.61     1029.844     60.39761     112.9526        11     1.242     0.714 -87.02   0
       439    763.8179    257.3161 307.6172826  +6.5746916      5053.54      8811.43     9237.947     85.48344     171.0351     342.5818      1.871     3.78     1031.044     60.39761     622.8319        38     1.532     1.307 -76.19   0
       440    453.7746    259.1254 307.7460762  +6.5635986     911.7499      1676.01     1745.956     85.48343     171.1716     342.6158      1.910     6.09     1031.043     60.39761     111.9301        11     1.098     0.952 -62.11   0
       441    200.4320    259.0775 307.8513631  +6.5551401     1648.886     2916.045     2949.071     85.75611      171.376     342.6158      1.902     4.82     1041.287     60.39761     214.9717        21     1.296     1.146  82.00   0
       442    780.1434    255.2258 307.6105679  +6.5760986     2227.356     3928.122     4003.167     85.48343      171.376     342.4454      1.915     4.07     1030.871     60.39761     311.6469        25     1.462     1.075 -86.24   0
       443     96.4721    256.6381 307.8946485  +6.5526619     855.1459     1710.613     1484.261     85.75611     171.3079      342.718      1.999     5.93     1047.772     60.39761     123.9236        12     1.174     1.063  -2.79   0
       444    369.6622    249.9464 307.7813426  +6.5645763     1206.959     3034.766      2885.81     85.89212     171.3079     342.6158      2.359     7.05     1033.681     60.39761     147.5614        27     1.690     1.467 -19.77   0
       445     83.7520    250.7954 307.9001325  +6.5546477     917.6617     1798.337     2143.975     85.20988     171.1716     342.3091      2.158     4.60     1048.254     60.39761     139.0527         9     1.008     0.869 -60.32   0
       446   1018.4152    246.1283 307.5118435  +6.5877825     5919.117     8679.691     8921.217     85.34677     171.2398     330.6878      1.569     3.31     1023.027     60.39761     814.4116        26     1.414     0.927 -77.14  16
       447    496.7495    246.2037 307.7286521  +6.5703702      1663.67     3200.111     3294.476     85.20988     171.1034     342.2067      1.950     5.40     1029.552     60.39761     197.7483        24     1.516     1.081 -59.62   0
       448    259.0463    241.7603 307.8275900  +6.5642541     4317.408     8656.911     9048.293     85.75611      171.376     342.4795      2.072     4.82     1038.703     60.39761     516.2213        37     1.700     1.318 -79.25   0
       449    393.2353    232.4478 307.7721368  +6.5725902     1265.408     2662.558     3073.394     85.48344      171.376     342.5818      2.245     6.11     1032.411     60.39761      177.985        20     1.547     1.121 -81.92   0
       450    980.0482    231.0242 307.5282969  +6.5927443     1067.956     1448.404     1185.921     85.48344      171.376     342.5477      1.594     4.76     1023.273     60.39761     150.5529        13     1.160     0.849 -50.60   0
       451    316.5410    227.9796 307.8041616  +6.5718691     711.8837     1311.733     1134.335     85.48343     171.2398     342.4454      1.593     5.75     1035.824     60.39761     147.4648         8     1.645     0.565 -60.88   2
       452    313.6889    228.6651 307.8053238  +6.5714906     534.5667     1004.599     1077.779     85.89212     171.5803     342.6499      1.822     3.96     1035.984     60.39761     97.23767         5     1.147     0.391 -61.21   3
       453    163.2475    228.4028 307.8678544  +6.5665596     1404.557     2705.385      2579.02     85.20988     171.0351     342.2067      1.892     5.35     1042.555     60.39761      178.895        25     1.580     1.130  82.75   0
       454    916.5042    223.2976 307.5549671  +6.5938217       1689.1     2839.421     3843.424     85.89212      171.988     342.4795      2.155     5.29     1025.067     60.39761      224.764        21     1.452     1.085  70.79   0
       455    572.7780    223.8549 307.6978080  +6.5821374     1653.875     3147.358     3005.981     85.34677      171.376     342.4454      1.935     5.77     1029.142     60.39761     178.9738        26     1.663     1.114 -61.28   0
       456    736.2310    221.5980 307.6299503  +6.5885212     4293.121     7477.395     8107.946     85.20988     171.1716     342.4113      1.907     3.98     1029.466     60.39761     480.4269        36     1.639     1.192 -82.16   0
       457    676.9636    221.5944 307.6545831  +6.5865469     1792.647     3351.877     3461.893     84.93546     171.1034     342.4454      1.927     4.69     1030.072     60.39761     196.8174        24     1.453     1.081 -67.35   0
       458    974.0795    221.1570 307.5311090  +6.5966202     686.3624     1139.166     852.8751     85.89212      171.376     342.6158      1.477     3.76      1023.04     60.39761      123.557         5     1.269     0.319 -62.49   0
       459    932.2619    213.7367 307.5487390  +6.5982938     1021.495     1654.878     1983.623     85.89212      171.376      342.684      1.620     6.64     1024.018     60.39761     149.3934        14     1.535     0.807 -63.38   0
       460    392.2349    216.5633 307.7730891  +6.5791156      607.547     988.3448     1071.972     85.61988     171.1716     342.3772      1.406     3.45     1032.143     60.39761     108.1622         5     0.807     0.426 -21.79   0
       461    235.8199    206.7845 307.8384256  +6.5779179     1767.651     3464.021     3418.734     85.61988     171.1034     342.5477      2.016     4.83     1039.734     60.39761     225.0302        24     1.441     1.158 -81.67   0
       462    878.5225    205.6819 307.5713456  +6.5998320     1733.239     2829.432      3353.96     86.02792     171.6483     342.7861      1.873     3.91     1026.403     60.39761     250.2347        18     1.313     0.962 -69.10   0
       463    768.8489    205.1374 307.6169475  +6.5964050     1454.595     2576.611     2644.131     85.75611     171.3079      342.718      1.846     5.18     1028.828     60.39761     169.4252        17     1.340     0.989 -78.39   0
       464    469.9322    196.4929 307.7414751  +6.5900005     17157.52     33835.62     37501.19      85.7561     171.5122      342.684      2.129     4.73     1028.959     60.39761     1776.746        74     2.208     1.510 -50.20   0
       465    795.6850    195.7271 307.6061103  +6.6011847     11653.11     19784.88     21520.82     86.02792     171.7163      342.684      1.838     3.88     1028.311     60.39761     1389.374        47     1.597     1.272 -66.99   0
       466    733.1744    191.7701 307.6322248  +6.6007359     539.1402     941.3539     967.7477     85.34677     171.1716     342.4795      2.204     4.32     1028.685     60.39761     77.64246         5     0.837     0.636 -45.70   0
       467    158.1134    190.1899 307.8712817  +6.5821657     1856.198     3679.423     3809.114     85.48343     171.0351     342.4795      2.031     4.46     1042.481     60.39761     208.4949        26     1.341     1.265 -82.34   0
       468    132.9499    189.1491 307.8817748  +6.5817518     803.8251     1631.183     1658.222     85.89212     171.2398     342.5818      2.023     5.23     1044.081     60.39761      88.8877         8     1.011     0.765  10.93   0
       469    931.9641    186.3124 307.5497842  +6.6096081     1502.147     2157.328     2158.703     85.89212     171.2398     342.6499      1.664     4.71     1023.224     60.39761     192.8101        14     1.258     0.811 -76.46   0
       470    593.7737    182.4271 307.6904785  +6.5999445     3623.044     6926.365     7427.745     85.34677     171.1716     342.4795      1.986     4.64     1028.317     60.39761     426.1738        33     1.601     1.231 -71.88   0
       471    398.1353    181.9155 307.7718071  +6.5936194     1191.771     2214.609     1669.661     86.02792     171.5803      342.718      1.883     7.22     1031.233     60.39761     164.9219        17     1.584     1.128 -59.02   0
       472    314.7680    183.5030 307.8064019  +6.5901746     823.3984     1534.528      1311.49     86.02792     171.2398     342.7521      1.987     5.23     1036.281     60.39761     127.6047         8     0.967     0.899  54.79   0
       473    556.4680    182.3863 307.7059851  +6.5987160     1609.112         2891     2794.732     85.34677     171.1716     342.5477      1.878     5.36     1028.178     60.39761     178.1163        18     1.405     0.909 -43.16   0
       474    954.6055    179.3768 307.5406064  +6.6132249     2626.865     3789.334     3954.102     85.34677     171.1034     342.4795      1.557     4.05     1022.711     60.39761     352.4615        23     1.385     0.974 -77.38   0
       475    900.7711    178.8790 307.5629991  +6.6116399     10451.85     16752.15     17855.49     85.75611      171.376     342.6499      1.719     3.59      1024.13     60.39761     1292.091        40     1.530     1.154 -79.33   0
       476    698.8438    177.1104 307.6469873  +6.6056448     2374.121     4223.517     5118.279     85.89212     171.2398      342.684      2.071     5.37     1028.647     60.39761     267.3467        28     1.679     1.129 -85.38   0
       477    987.3882    176.7642 307.5270682  +6.6153936     9634.773     14402.35     14824.02     85.34677     171.1716     342.3772      1.620     3.28     1022.253     60.39761      1377.67        35     1.398     1.069 -78.12   0
       478    328.5633    178.5087 307.8008373  +6.5926985      713.656     1549.535     1700.282     86.02792     171.3079      342.684      2.403     6.33     1035.486     60.39761     103.5696         9     1.338     0.842  62.93   0
       479     26.9862    175.6940 307.9262683  +6.5837520     20344.45     38265.55     41420.66     85.61988     171.1034     342.4795      1.991     4.29     1049.779     60.39761     2405.986        60     1.752     1.404 -75.40   0
       480    273.6484    176.6144 307.8237245  +6.5916423     779.8229     1370.118     1068.319     85.20988     171.3079     342.3091      1.902     6.53     1038.577     60.39761     91.57849        11     1.493     0.801 -74.35   0
       481    507.4940    171.7708 307.7266979  +6.6014636     1547.038     2729.208     2511.342     86.02792     171.1034     342.5477      1.874     5.09     1028.318     60.39761     166.3149        21     1.396     1.038 -79.15   0
       482    891.5434    167.2285 307.5672261  +6.6161436     1819.345     3112.881     3475.874     85.48344     171.4441     342.5477      1.920     3.86     1023.907     60.39761      219.976        20     1.289     1.011 -68.68   0
       483    839.3661    168.2683 307.5888784  +6.6139776     1837.055     3103.567     3583.065     85.75611     171.4441     342.7521      1.823     4.07     1025.742     60.39761     234.7722        19     1.202     1.053 -69.22   0
       484    750.9904    164.9156 307.6257238  +6.6124184     33401.12     58479.97     62464.52     85.48344     171.0351     342.4795      1.870     3.98     1027.697     60.39761     3863.125        66     1.677     1.350 -74.53   0
       485    519.2562    167.7687 307.7219443  +6.6035091     2094.536     3685.113     3627.427     85.75611      171.376     342.5477      1.862     5.10     1028.159     60.39761     211.3508        22     1.434     1.066 -34.67   0
       486    354.0382    164.3863 307.7907268  +6.5993823     4797.775     10682.12     12424.72     85.48343     171.1716     342.3431      2.404     6.38      1033.97     60.39761     479.2915        53     2.272     1.328 -75.73   0
       487    984.7060    163.5723 307.5286260  +6.6207518     2878.562     4087.093     4333.667     86.02792     171.1034     342.5477      1.586     3.86     1022.146     60.39761     374.2604        21     1.329     0.936 -66.86   0
       488    918.8242    161.9578 307.5560640  +6.6192276     7048.852     11002.31     11250.66     85.48344     171.2398     342.4113      1.642     3.37     1022.865     60.39761     947.5996        35     1.457     1.101 -74.68   0
       489   1023.0055    162.1262 307.5127553  +6.6226218     1601.562     2259.812     1855.592     82.28275     146.3966     269.3707      1.421     3.71     1021.826     60.39761     223.3569        13     1.171     0.709 -74.23  24
       490    462.3993    161.1670 307.7457983  +6.6043352     3753.616     7228.785     7240.598     85.07278     171.1716     342.3772      1.996     4.63      1028.81     60.39761     412.4653        39     1.578     1.410 -71.25   0
       491    119.8504    152.5485 307.8884585  +6.5964249     3997.483     7564.056      7523.74     86.02792     171.2398     342.5818      1.961     4.38     1043.935     60.39761     465.4176        36     1.572     1.311 -79.76   0
       492    939.2643    151.9525 307.5479043  +6.6240389     931.0704     1324.063     1970.422     85.75611     171.2398      342.718      1.787     5.07     1021.946     60.39761     142.6927        10     1.087     0.867 -77.50   0
       493    290.1370    149.1929 307.8177989  +6.6035170     25644.32     50905.88     54986.55     85.20988     171.1034     342.4454      2.068     4.52     1038.453     60.39761     2937.797        71     1.806     1.489 -76.37   0
       494    265.4948    150.2471 307.8280050  +6.6022565     5246.433        10125     10313.24     85.75611     171.3079     342.7861      2.022     4.59     1039.431     60.39761     545.2395        41     1.681     1.351 -74.87   0
       495    719.5231    148.4168 307.6393584  +6.6181824     836.9412     1082.716     823.7791     85.34677     171.1034     342.5136      1.418     3.75     1027.403     60.39761     147.2903         8     1.167     0.879  48.43   0
       496    414.1526    144.6663 307.7664081  +6.6095357     38214.43      74114.3     79372.59     85.89212     171.3079      342.684      2.044     4.53     1029.755     60.39761     4170.774        78     1.793     1.497 -76.06   0
       497    170.3539    145.9360 307.8676927  +6.6008487     3064.589     5880.755     6530.486      85.7561     171.3079      342.684      2.038     4.74     1041.748     60.39761     350.8921        32     1.537     1.395 -77.01   0
       498    431.3145    145.1570 307.7592586  +6.6099069     1105.988     2063.612     1667.019     85.89212     171.2398     342.6499      1.958     6.41     1029.246     60.39761     134.4506        15     1.215     1.100  75.00   0
       499    318.1776    142.3832 307.8063749  +6.6072674     13859.47     27513.78     30319.24     85.48344     171.1716     342.5477      2.092     4.57     1036.849     60.39761     1560.376        57     1.777     1.442 -78.33   0
       500    753.4037    140.8166 307.6255319  +6.6224498     28342.32     48688.53     51781.91     85.48344     170.9669     342.4795      1.843     4.10     1026.695     60.39761     3343.531        63     1.663     1.339 -74.16   0
       501    325.5568    142.3154 307.8033102  +6.6075424     1681.408     3757.656     5235.861     85.89212     171.2398     342.6158      2.614     6.22     1036.337     60.39761     213.1644        24     1.572     1.186 -67.71   1
       502    701.3408    142.9200 307.6471009  +6.6198460     848.5468     1330.528     1283.306     86.02792      171.376     342.6158      1.640     5.20     1027.358     60.39761     130.8868         9     1.332     0.573 -24.14   0
       503    801.6275    141.1294 307.6054772  +6.6239272     1068.728     1914.999     2260.498     85.61988     171.3079     342.5818      2.124     4.57     1025.952     60.39761     165.9935         9     1.231     0.575 -55.46   0
       504     70.2934    138.2383 307.9095395  +6.6006710     7498.528     13571.98     14151.24     86.02792     171.3079      342.718      1.949     4.27     1046.458     60.39761     964.0391        42     1.668     1.262 -78.30   0
       505    104.1832    136.3860 307.8955174  +6.6025729     1224.278     2335.183     2870.481     85.61988     171.0351     342.5818      2.140     7.19     1044.117     60.39761      157.864        20     1.436     1.355 -71.56   0
       506   1011.5980    134.8416 307.5184129  +6.6335092     1025.666     1329.338     1970.313     85.20988     171.0351     342.3431      1.399     3.71     1019.718     60.39761      152.103         8     0.916     0.620  80.13   0
       507   1012.9454    121.5639 307.5182987  +6.6390367     2166.163     3442.462     4142.367     85.75611      171.376      342.684      1.938     5.25     1018.599     60.39761      274.828        24     1.663     0.953 -89.68   0
       508    587.2218    125.0805 307.6951351  +6.6234051     805.4557     1305.356     1593.209     85.48343     171.0351     342.5818      1.701     5.23     1026.894     60.39761     102.2528         7     1.082     0.714 -15.63   0
       509      3.9161    122.5960 307.9376565  +6.6049014     605.6926     815.7745     472.0437     85.34677     168.0053     299.1432      1.489     4.23     1051.533     60.39761     93.96741         5     1.160     0.439 -11.73  16
       510    604.2524    117.1148 307.6883249  +6.6272627     1684.282      3150.12     3852.779     85.89212     171.3079     342.7861      2.117     5.83     1026.696     60.39761     171.7208        27     1.509     1.308 -86.46   0
       511    595.9534    119.4633 307.6916952  +6.6260160     712.6039     1281.783     1632.727     85.75611     171.2398      342.684      1.826     4.46     1026.745     60.39761     115.7621         5     1.011     0.561 -79.65   0
       512    289.0600    115.4929 307.8193861  +6.6173958     23214.85     45567.06     50504.88     85.75611     171.3079     342.7521      2.088     4.58     1039.437     60.39761     2510.242        73     1.815     1.509 -72.78   0
       513    349.1891    117.6227 307.7943225  +6.6185291     671.1572     1407.884     1774.931     85.48344     171.1716     342.5136      2.132     2.76     1035.575     60.39761     139.2985         5     0.778     0.592  86.18   2
       514     34.3316    114.1825 307.9253008  +6.6093965     3524.223     6551.443     7016.485     85.34677     171.3079     342.5477      1.984     4.54     1049.058     60.39761     454.2048        32     1.707     1.120 -83.24   0
       515    720.5840    112.0099 307.6401434  +6.6332508     6865.389     11839.66     13046.34     85.61988     171.1034     342.5136      1.846     3.98     1025.773     60.39761     825.5598        38     1.552     1.230 -66.56   0
       516    131.4887    109.2725 307.8850872  +6.6146839     3769.215     7092.255     7795.188     85.89212     171.6483      342.684      1.974     4.60     1042.397     60.39761     436.3414        34     1.573     1.290 -81.83   0
       517    402.1289    105.1226 307.7727412  +6.6254616     3101.028     6200.242     6446.055     86.16351     171.6483     342.6499      2.082     5.08     1030.971     60.39761     349.3381        37     1.752     1.295 -83.47   0
       518    659.6666    106.6526 307.6656445  +6.6334317     767.1058       1031.1     868.2557     85.89212     171.3079     342.5818      1.501     5.51     1025.975     60.39761     105.2593         9     1.082     0.791 -32.01   0
       519    470.4168    106.2916 307.7443184  +6.6272619     1225.273     2355.631     2260.835     85.61988     171.1716     342.5477      2.124     6.53     1027.981     60.39761     130.7205        18     1.363     1.068  81.27   0
       520    366.5290    104.0923 307.7875727  +6.6246961     2578.336     5069.204     5316.513     85.75611     171.5122      342.684      2.057     4.65      1034.38     60.39761     292.3843        32     1.493     1.338 -77.89   0
       521    120.9440    104.1961 307.8896417  +6.6164263     1410.813     2599.495     2981.251     85.20988     171.1716     342.3091      1.925     5.93     1042.544     60.39761     174.5955        20     1.543     1.079 -86.15   0
       522    579.5933    104.1875 307.6990103  +6.6317775     514.4591     978.2237     1286.887     85.48344     171.1716     342.5477      1.856     3.48     1026.368     60.39761     78.95496         5     0.811     0.431 -69.97   0
       523   1013.0968     98.1464 307.5190220  +6.6487114     1455.375     2353.156     2522.141     85.75611      171.376     342.9223      1.775     3.93     1016.566     60.39761     189.0493        15     1.195     0.871 -71.67   0
       524    218.4674     93.1385 307.8494828  +6.6242615     4384.698     8375.506      9089.31     85.89212     171.3079     342.6499      2.017     4.39     1041.266     60.39761     523.8727        39     1.577     1.391 -69.76   0
       525    100.9837     92.8794 307.8983210  +6.6204294     1642.369     3165.734     3767.699     85.48344     171.1034     342.5136      2.248     5.42     1042.808     60.39761     178.7379        25     1.559     1.155 -84.46   0
       526    680.2313     91.7494 307.6575987  +6.6402713     5202.971     9127.402     9873.759     85.75611     171.5122     342.5818      1.876     3.94     1025.179     60.39761     592.6261        41     1.565     1.301 -87.92   0
       527    828.0719     91.1748 307.5961659  +6.6454352     970.9388     1554.706     1834.374     85.48343     171.2398     342.5818      2.121     5.55     1022.871     60.39761     136.9537        11     1.188     0.732 -80.46   0
       528    632.3032     89.1141 307.6776093  +6.6397607     7825.732     14100.08     15128.02     85.89212     171.7842      342.718      1.942     4.24     1025.714     60.39761     912.9619        41     1.632     1.273 -78.15   3
       529    635.8979     80.5447 307.6764040  +6.6434191     44303.68     78859.07     84406.07     85.75611      171.376     342.8883      1.906     3.99     1025.474     60.39761     4750.982        80     1.754     1.414 -75.34   3
       530     31.3417     88.2318 307.9274232  +6.6200111      1073.85     1721.746     1403.409     85.75611     171.4441     342.5818      1.809     6.16      1048.92     60.39761     138.5415        13     1.218     0.877 -64.98   0
       531    359.4975     84.8341 307.7911461  +6.6324127     2997.876     5960.216     7144.875     85.89212     171.2398     342.7861      2.245     4.81     1035.596     60.39761     339.8705        35     1.628     1.359 -70.02   0
       532    541.2805     83.9235 307.7156187  +6.6388655     1523.484     2869.902     2744.588     86.16351     171.6483     342.8202      1.978     5.70     1026.017     60.39761     185.0983        18     1.435     0.913 -62.48   0
       533   1005.7114     83.5499 307.5225821  +6.6544931     729.4254     1027.633     812.5251     85.89212     171.1716     342.7861      1.569     4.04     1015.622     60.39761     118.6975         6     0.883     0.527 -40.91   0
       534    314.9873     74.4390 307.8099979  +6.6352153     2855.516     5576.359     6261.472     85.34677     171.1716     342.4113      2.031     5.28     1038.795     60.39761     319.0139        33     1.692     1.280 -69.73   0
       535    909.3973   1021.3148 307.5311216  +6.2640598     714.3225     891.9024     496.7274     85.20988     166.3995     295.6894      1.288     3.94     1060.275     60.39761     126.7814         6     1.040     0.428 -57.10  16
       536    700.3134     64.4359 307.6501713  +6.6522192     2558.853     4478.998     4434.206     85.89212     171.2398     342.6499      1.891     4.29     1024.061     60.39761      310.803        26     1.409     1.203 -72.86   0
       537    442.0193     55.5664 307.7578344  +6.6472577     3084.758     6146.096     6304.208     85.34677     171.1716     342.4454      2.019     4.89     1028.609     60.39761     334.7677        33     1.593     1.281 -60.85   0
       538    896.4442     51.4195 307.5690820  +6.6641268     1860.912     2916.864     3046.267     85.34677     171.2398     342.4795      1.642     3.76     1018.464     60.39761     263.5782        15     1.189     0.877 -77.66   0
       539    914.4535     50.7806 307.5616172  +6.6649898     3652.501     5504.404     5048.526     85.34677      171.376     342.4454      1.595     3.41     1018.112     60.39761     514.2769        22     1.288     0.955 -78.35   0
       540    594.8639     51.1565 307.6944511  +6.6541845     599.9009     1049.871     941.5781     85.89212     171.3079     342.6499      1.814     4.38     1025.273     60.39761     82.65698         5     0.853     0.639 -40.63   0
       541    606.5286     49.1950 307.6896686  +6.6553838     1387.592     2480.936     2943.517     85.48344     170.9669     342.5136      1.975     5.22     1025.229     60.39761     164.6553        17     1.230     1.088 -59.26   0
       542    405.6608     47.3853 307.7732236  +6.6494199     1435.291     2797.602     2348.417     85.34677     171.3079     342.3772      1.976     5.79      1031.26     60.39761     150.6935        20     1.440     1.081 -63.94   0
       543    253.0015     48.2684 307.8366472  +6.6439455      790.166     1723.157     2679.608     85.34677     170.8986     342.4454      2.826     5.32     1041.111     60.39761      104.731         9     1.161     0.687 -60.75   0
       544    153.2870     44.3955 307.8782243  +6.6422027     2599.824      4780.54     4724.099     85.34677     171.0351     342.3091      1.882     4.81     1041.482     60.39761     321.8368        28     1.549     1.154 -62.03   0
       545    301.5511     43.0831 307.8166429  +6.6477125     1169.361     2182.986     2248.236     85.89212      171.376      342.684      2.008     6.65     1040.245     60.39761      136.705        17     1.347     1.080 -65.38   0
       546     35.2709     42.2333 307.9273497  +6.6391356     10423.75     19003.57      20926.4     85.75611      171.376      342.684      1.966     4.23     1046.612     60.39761     1274.824        49     1.667     1.347 -80.09   0
       547    562.0891     41.5678 307.7083980  +6.6570496     781.1603     1045.401     640.9938     86.02792     171.1716     342.6499      1.520     5.00     1025.107     60.39761     121.3737         7     0.968     0.730 -60.54   0
       548    956.0299     41.1676 307.5446574  +6.6703421     569.0431      918.515     1740.381     85.34677     171.1034     342.3431      2.112     3.94     1015.618     60.39761      89.7207         5     0.857     0.518  58.55   0
       549    686.1442     67.5950 307.6559546  +6.6504423     1203.139     2005.683     2038.012     85.20988     171.1716     342.3431      1.748     6.48     1024.395     60.39761     142.3989        16     1.318     0.898 -65.46   0
       550    836.8984     36.6068 307.5943325  +6.6682613     5684.247     9006.235     9241.624     85.61988     170.9669     342.4113      1.685     3.56     1019.414     60.39761     712.7141        30     1.410     1.071 -74.94   0
       551    782.0547     36.9487 307.6171187  +6.6662935     3026.412     5016.022     5252.161     85.89212      171.376      342.684      1.747     3.82     1021.307     60.39761     366.8026        28     1.405     1.207 -87.24   0
       552    427.1680     37.9383 307.7646029  +6.6540399     797.9715     1380.122     1389.807     85.61988     171.4441     342.5818      1.908     4.84     1029.515     60.39761     103.3699         8     1.141     0.583 -21.47   0
       553    904.0903     37.4219 307.5663741  +6.6701611     631.4305      983.691     930.9471     85.89212     171.1716     342.5136      1.784     4.24     1017.752     60.39761     96.80658         5     0.812     0.631  78.27   0
       554    768.3814     36.6061 307.6228140  +6.6659794     557.3217     1289.035     1942.095     85.48344     171.0351     342.4795      2.848     3.87     1021.607     60.39761     74.79126         5     1.033     0.416 -74.61   0
       555    544.6602     34.6375 307.7158765  +6.6593292     883.2029     1608.353     2235.786     85.89212     171.4441     342.6499      2.281     6.41     1024.977     60.39761     116.0831        13     1.807     0.638 -47.35   0
       556     75.5411     34.0287 307.9108900  +6.6438750     2652.675     4732.984     4715.573     85.48343     171.4441     342.5136      1.815     4.58     1044.043     60.39761      308.099        31     1.593     1.201 -81.27   0
       557    436.5943     33.6044 307.7608311  +6.6561446     832.7423     1619.144     2667.938     85.20988     171.0351     342.5136      2.715     6.22      1028.87     60.39761     99.88599        11     1.127     0.965 -72.73   0
       558     18.0802     29.7327 307.9349186  +6.6437198     2105.137     3752.027     4771.174     86.02792     171.6483     342.6499      2.106     4.79     1046.983     60.39761     269.1667        25     1.641     1.016 -82.54   0
       559    599.3599     30.7400 307.6932706  +6.6627648     1055.058     1691.667     1757.051     85.89212      171.376     342.7521      1.675     5.17     1024.871     60.39761     127.4688        11     1.233     0.733 -46.26   0
       560    776.6531     24.4231 307.6197857  +6.6712855     1888.124     3126.934     3106.281     85.34677      171.376     342.4454      1.833     3.64     1020.733     60.39761     255.7711        20     1.251     1.008 -60.82   0
       561    417.4251     24.8488 307.7690948  +6.6591189      912.219     1514.296      1395.53     85.48344      171.376     342.5477      1.816     6.30     1030.297     60.39761     100.0399        13     1.275     0.873 -55.93   0
       562    113.9521     23.5786 307.8952788  +6.6494786     737.2567     1508.879      1257.19     85.48343      171.376     342.5136      2.010     5.50     1042.454     60.39761     136.2338         9     1.308     0.919  74.58   0
       563     91.1537     25.2402 307.9046985  +6.6480277     736.5225     1069.801     116.1489     85.75611      171.376     342.4795      1.474     4.79      1043.19     60.39761     109.0751         6     0.985     0.659 -32.93   0
       564    624.3577   1020.2394 307.6495507  +6.2550127     1814.442     2503.865     2123.401     85.61988      171.376     310.5918      1.360     3.37     1065.137     60.39761     263.9503        12     1.174     0.619 -59.72  16
       565    244.4867   1018.6960 307.8073779  +6.2429600     1504.428     2122.127     2000.589     85.89212     171.7842     328.2076      1.541     4.62     1066.007     60.39761     201.8232        15     1.257     0.875 -69.12  16
       566   1020.4941   1017.3822 307.4851079  +6.2693757     829.0715     1207.142     760.0779     85.75611     171.1716     303.2514      1.584     5.77     1053.334     60.39761     94.92078         9     1.118     0.839  56.29  16
       567    527.0566   1016.8221 307.6900795  +6.2531778     596.4791     889.0566     704.9138     85.48344     171.3079     341.5922      1.564     4.33     1064.768     60.39761      96.0022         6     1.238     0.432 -55.93  16
       568    724.6765   1013.4424 307.6081116  +6.2611628     704.0037     872.6585     1006.323     85.75611      171.376      342.684      1.366     3.43     1062.844     60.39761     118.7922         7     0.929     0.518 -58.36   0
       569    809.6642   1010.6818 307.5729040  +6.2651326     15567.93     21734.87     22298.73     86.02792     171.4441     342.6499      1.490     3.23     1061.349     60.39761     2183.771        37     1.407     0.951 -71.31   0
       570     80.3698   1011.2283 307.8757919  +6.2405465     8204.533     12095.84     12837.29     85.34677     171.1034     342.4113      1.589     3.21     1065.559     60.39761     1142.261        31     1.382     1.028 -73.01   0
       571   1001.9269   1010.2294 307.4930599  +6.2717126     709.2559     978.2795     1351.978     85.75611      171.376     342.6158      1.686     4.74      1054.36     60.39761     119.9796         8     1.005     0.634 -69.63   0
       572    593.1006   1001.6598 307.6631587  +6.2616423       167946     244554.7     256677.7     85.61988     171.3079     342.7861      1.562     3.34     1064.774     60.39761     24836.79        99     1.563     1.204 -72.87   3
       573    594.8691    994.4554 307.6626668  +6.2646761     78301.69     114060.1     120271.9     85.89212     171.2398     342.6158      1.583     3.36      1064.52     60.39761     11186.81        75     1.484     1.223 -67.53   3
       574    227.1116   1004.4131 307.8150768  +6.2482761     4042.676     6015.497     6217.693     85.61988     171.1034     342.5136      1.593     3.45      1065.79     60.39761     577.9155        24     1.278     0.965 -76.30   0
       575    768.6946   1004.0798 307.5901430  +6.2664948     852.7299       1071.1      1309.63     85.61988     171.6483      342.718      1.279     4.37     1061.774     60.39761      155.998         9     1.166     0.705 -83.81   0
       576    410.5050   1004.5114 307.7389035  +6.2543689      819.376      1106.09     1320.585     85.89212     171.7842      342.718      1.679     4.25      1064.81     60.39761     111.2961         8     1.010     0.583  47.26   0
