#   1 NUMBER                 Running object number                                     
#   2 X_IMAGE                Object position along x                                    [pixel]
#   3 Y_IMAGE                Object position along y                                    [pixel]
#   4 ALPHA_J2000            Right ascension of barycenter (J2000)                      [deg]
#   5 DELTA_J2000            Declination of barycenter (J2000)                          [deg]
#   6 FLUX_APER              Flux vector within fixed circular aperture(s)              [count]
#   9 FLUXERR_APER           RMS error vector for aperture flux(es)                     [count]
#  12 FLUX_RADIUS            Fraction-of-light radii                                    [pixel]
#  13 FWHM_IMAGE             FWHM assuming a gaussian core                              [pixel]
#  14 BACKGROUND             Background at centroid position                            [count]
#  15 THRESHOLD              Detection threshold above background                       [count]
#  16 FLUX_MAX               Peak flux above background                                 [count]
#  17 ISOAREA_IMAGE          Isophotal area above Analysis threshold                    [pixel**2]
#  18 A_IMAGE                Profile RMS along major axis                               [pixel]
#  19 B_IMAGE                Profile RMS along minor axis                               [pixel]
#  20 THETA_IMAGE            Position angle (CCW/x)                                     [deg]
#  21 FLAGS                  Extraction flags                                          
         1    716.8022     18.6647 307.6452707  +6.6898912     8134.343      11219.5     10725.61     78.10004     156.8266     313.8408      1.410     2.76     834.3668     55.35809     1359.445        28     1.251     0.962 -77.99   0
         2    637.0833     17.8249 307.6784229  +6.6875669     4064.959     5745.396     5880.234     78.60069     156.8266     314.0594      1.477     2.80     834.3502     55.35809     664.7701        23     1.206     0.912 -86.92   0
         3    339.0227     17.5737 307.8022750  +6.6776646     1175.228     1632.295     2166.865      78.2255     156.8892      313.997      1.406     4.56     845.1868     55.35809     175.0125        13     1.242     0.789 -84.87   0
         4    437.2654     14.0989 307.7615733  +6.6824007     6833.995     9649.258     9885.779     78.72535      157.139     314.0594      1.469     2.89     839.7657     55.35809     1069.794        31     1.320     1.004 -77.84   0
         5     38.1917     13.6316 307.9273973  +6.6691618     9406.601     13067.46     13869.48      78.2255     156.8892      313.872      1.473     2.89     847.7984     55.35809     1481.872        32     1.331     0.995 -69.03   0
         6    684.4041     13.2147 307.6589160  +6.6910561     989.3485     1466.143     1095.191     78.35076     156.7015     313.9033      1.568     2.89     834.1482     55.35809     149.8311         8     0.865     0.629  81.90   0
         7    512.8742     11.2547 307.7302538  +6.6861136     942.9003     1247.531     1351.124     78.60069     157.0141     314.0282      1.464     3.26     835.7197     55.35809     175.6748         8     1.022     0.547 -83.43   0
         8    333.7752      9.0108 307.8047446  +6.6810235     14133.98     20093.19     21356.65     78.35076     156.8892     313.9345      1.464     2.86     845.1442     55.35809     2209.293        41     1.408     1.054 -72.78  16
         9    107.3522      9.4466 307.8988048  +6.6732213     2711.174     3822.607     4222.881     78.72535     156.9516     314.0594      1.512     2.87      848.339     55.35809     384.9951        18     1.159     0.852 -55.59   0
        10     98.7374      8.0189 307.9024324  +6.6735204     1677.826     2471.567     2901.386     78.35076     157.0141     312.6512      1.581     4.53     848.4441     55.35809     263.4418        16     1.391     0.772  83.01  16
        11    802.3070      7.6817 307.6101118  +6.6972881     855.3082     1047.609     803.6678     78.47582     157.3884     311.0789      1.326     2.63     833.2349     55.35809      160.119         8     0.867     0.621 -72.91   0
        12    400.0184      7.0535 307.7772871  +6.6840582     2588.333     3519.415     3391.969      78.2255     157.0766     306.7937      1.410     2.73     842.2314     55.35809     458.9287        17     1.170     0.840 -74.88  16
        13    660.7099      2.6972 307.6691154  +6.6946046     12177.39     15733.07     15965.26     78.72535     143.5046      257.662      1.336     2.91      833.719     55.35809      1840.76        30     1.184     0.999 -68.70  24
        14    994.6830      4.1847 307.5302925  +6.7051626     683.4205     957.8015     701.4876     78.35076      155.697     277.6659      1.233     1.60     826.4477     55.35809     169.5927         5     0.664     0.434 -70.54  16
        15     78.8355      3.5671 307.9108519  +6.6746875     746.8027     1063.672     1289.654     78.35076     151.6124      269.566      1.441     3.50     848.0046     55.35809     135.8457         6     1.005     0.419 -60.65  16
        16    825.3790      2.1574 307.6007106  +6.7003409     1742.555     2253.146     2760.311     76.57847     136.3563      249.345      1.384     3.15     832.2298     55.35809     269.8006        12     0.995     0.778 -57.83  24
        17    538.2937      2.4252 307.7199897  +6.6906120     1517.475     1795.036     2059.012     78.84982      139.906     253.6343      1.237     2.74     834.7193     55.35809     225.4266        12     0.948     0.763 -74.35  24
        18    260.5155      1.2296 307.8354464  +6.6817718     1856.837     2256.874     2647.618     67.30961     123.2087     234.7183      0.947     2.46     845.9208     55.35809     508.4617         9     1.030     0.420  -1.20  24
        19    537.3485    998.2307 307.6868270  +6.2794329     4531.761     6629.968     7447.766     78.60069     157.2014      313.997      1.604     3.00     868.5905     55.35809     760.2991        32     1.375     1.324 -52.08   0
        20    965.0208   1023.2220 307.5084255  +6.2834223     4184.549     5383.011     5799.915     73.30715     131.1508     243.4548      1.308     3.84     862.3864     55.35809     755.8468        21     1.250     0.926 -12.40  24
        21    740.3550   1022.2025 307.6017371  +6.2763345     1089.609     1548.855      1993.34     78.10004     144.0502     258.7634      1.551     4.11     865.9988     55.35809     165.6291        11     1.115     0.743  75.45  24
        22    724.6226   1022.3120 307.6082652  +6.2757628     2924.124     4115.142     4388.269     78.72535      143.094     257.3192      1.553     3.48     866.2062     55.35809     388.4154        19     1.231     0.896 -64.70  24
        23    447.4335   1023.2807 307.7233132  +6.2660744     868.1027     914.1559     1128.513     73.03912     130.4761     242.5266      1.048     2.81     869.4629     55.35809     157.2579         8     0.855     0.624 -32.73  24
        24    249.6013   1023.6241 307.8054328  +6.2592881     875.3367     1213.712     1200.844     68.46523      125.026     236.7152      1.385     2.70     868.2061     55.35809     193.2172         7     0.917     0.472  -8.05  24
        25      2.2618   1001.4732 307.9088631  +6.2601082     465.9071     619.7396     845.8265     77.84851     137.9294     251.1476      1.165     3.49     866.1109     55.35809     95.52136         5     0.771     0.457  18.88  24
        26    646.7502    997.2411 307.6414391  +6.2835073     1469.742     2030.028      2189.36     78.84982     157.0766      313.997      1.449     3.76     867.1884     55.35809      225.657        15     1.254     0.818 -77.50   0
        27     71.8777    996.5966 307.8801277  +6.2644669     956.8416     1404.864     1795.938      78.2255     156.5763      313.872      1.576     4.12     866.0789     55.35809     127.0836        12     1.155     0.722 -84.84   0
        28    802.3525    995.5749 307.5768912  +6.2894024     554.3046     786.5292     522.9356     78.35076      157.139     313.9345      1.609     4.11     864.7402     55.35809     98.38507         5     1.017     0.474 -86.36   0
        29    490.2850    994.5734 307.7064898  +6.2793647     2377.091     3248.824      3451.58     78.84982     156.8266     313.9345      1.430     3.12     869.0012     55.35809     373.0963        18     1.313     0.791 -71.15   0
        30     33.5887    991.8556 307.8961835  +6.2651345     471.3235     771.3058     1025.918     78.10004     157.0141      313.747      1.552     3.45     866.0913     55.35809     75.17694         5     0.762     0.450  71.13   0
        31    924.7853    986.7951 307.5263525  +6.2971191     44703.12     68483.09     72553.49     78.35076     156.7641     313.9033      1.627     3.10     863.2556     55.35809     5774.991        72     1.587     1.250 -78.55   0
        32    232.1074    984.9173 307.8140025  +6.2746809      1866.42     2645.624     2869.977     78.47582     157.3884     314.1843      1.490     3.49     867.7029     55.35809     299.2955        17     1.282     0.839 -84.64   0
        33    822.6219    980.6860 307.5689754  +6.2962276     2477.237     3756.383     4439.324     78.72535     156.8266     313.9345      1.737     3.24     864.0872     55.35809     358.9116        25     1.473     1.041 -70.50   0
        34    630.8641    983.1204 307.6485097  +6.2888054     982.8622     1166.879     847.2103     78.97409      157.139     314.0282      1.302     3.05     867.3502     55.35809     154.4894        10     1.001     0.636  84.22   0
        35    119.9694    983.9614 307.8605897  +6.2713028     783.0316      1135.01     1297.927     78.35076     156.8266     313.9033      1.496     3.94     866.6343     55.35809     115.3813         7     0.899     0.520 -46.74   0
        36    770.9405    978.5644 307.5905046  +6.2953753     7120.922     10688.86     11449.11     78.72535     157.0766     314.0282      1.620     3.13     864.8903     55.35809     1085.145        42     1.747     1.040 -72.87   0
        37    240.3980    977.5415 307.8108096  +6.2780049     1585.822     2476.056     2113.386     78.10004     156.8266     313.7783      1.616     3.51     867.8864     55.35809     240.4247        15     1.209     0.874 -75.33   0
        38    557.7005    977.6456 307.6790703  +6.2886143     1011.134     1363.013     1154.426     78.72535     157.0766      314.278      1.393     3.47     868.1256     55.35809     160.1486        10     0.978     0.783 -35.25   0
        39    204.8158    976.7875 307.8256075  +6.2771197     887.6364     1348.545     1448.523     78.60069     156.7641      313.997      1.758     4.52     867.5275     55.35809     135.8491         9     1.101     0.721 -64.16   0
        40     65.3587    975.4225 307.8835502  +6.2729894     3044.288     4182.143     4682.401     78.35076     156.8892     313.8408      1.500     2.99     866.1368     55.35809     451.0586        23     1.293     0.933 -70.38   0
        41    959.1275    973.6346 307.5125350  +6.3036998     7033.283     10884.87     11514.55     78.60069     157.0141     314.0594      1.669     3.30     861.4246     55.35809     967.6025        32     1.356     1.142 -80.04   0
        42    215.3474    969.3039 307.8214879  +6.2805636     595.0828       810.29     834.0981     78.60069     157.0766     314.3091      1.048     2.41     867.5295     55.35809     140.1272         6     0.795     0.497 -43.27   0
        43    933.0372    965.2244 307.5236498  +6.3063011     2117.314     2845.535     2769.323     78.35076     156.8892     313.8095      1.445     3.81     862.3268     55.35809     276.3209        17     1.313     0.813 -83.23   0
        44    792.2563    961.7353 307.5822196  +6.3030368     1431.984     1927.492     1782.761     78.84982     157.0141     314.0594      1.337     2.74     864.2437     55.35809     226.6634        12     0.984     0.760 -68.78   0
        45    653.6679    961.1247 307.6397816  +6.2986509     5078.049     7168.151     7397.524     78.84982     157.2014     314.0594      1.467     2.88     866.3963     55.35809     789.2587        25     1.288     0.926 -71.61   0
        46    265.8672    961.1418 307.8007894  +6.2856322     4894.393     6967.584     7542.007     78.84982     157.0141     314.0594      1.482     2.92     868.4426     55.35809     786.8317        25     1.351     0.891 -67.67   0
        47   1003.2795    960.8167 307.4946325  +6.3104660     755.0679     1260.842     1314.935     78.35076     156.8266     313.9658      1.781     5.04     859.1862     55.35809      122.517         9     0.988     0.727 -10.96   0
        48    475.7662    959.6056 307.7136957  +6.2933152     1276.675     1850.619     1899.041     77.97438     156.8892     313.8408      1.593     4.85     868.5592     55.35809     210.7192        13     1.310     0.726 -49.19   0
        49     34.5575    958.5571 307.8969081  +6.2789150     2500.883     3576.705     3850.155     78.47583     157.0766      313.872      1.589     3.36     866.0966     55.35809     382.1989        20     1.249     0.908 -79.33   0
        50    885.4672    957.8558 307.5436484  +6.3077544       1091.7     1499.518     1709.481     78.84982     156.9516     314.0282      1.484     3.61     862.7959     55.35809     167.1458        11     1.137     0.738 -87.49   0
        51    977.1352    955.9434 307.5056512  +6.3116055     619.6485      787.152     642.1074     78.84982     157.0141     314.0594      1.332     3.42     860.1918     55.35809     120.1317         7     0.984     0.586  88.29   0
        52    301.7961    955.1885 307.7860736  +6.2892978     844.7927     1344.308     1575.714     78.35076     156.7641     313.9345      1.960     3.27     868.9679     55.35809      139.965         7     0.949     0.543 -76.43   0
        53    641.0773    968.3640 307.6447657  +6.2952402     778.0138     1201.669     1649.907     78.60069      157.139     314.0907      1.636     5.54     866.8397     55.35809     147.8335        10     1.260     0.688 -74.05   0
        54    578.3836    953.6204 307.6712917  +6.2992272     1889.911     2594.861     2600.682     78.47582     156.8892     313.9658      1.404     2.90     867.6053     55.35809     318.9288        14     1.069     0.794 -68.06   0
        55   1009.8328    952.7254 307.4921827  +6.3140256     846.5518     1584.947     1959.766     78.60069     157.0766     314.0282      2.231     6.21     858.7668     55.35809     124.4644        14     1.440     0.937 -72.15   0
        56    617.5334    950.0071 307.6551585  +6.3020308     1298.574     1597.507     1701.068      78.2255     156.8266     313.9033      1.373     3.31     867.0958     55.35809     223.8712        11     1.067     0.654  84.66   0
        57     67.1920    950.6400 307.8836275  +6.2832830     844.0828     1087.491     1278.718     78.10004     156.8266     313.7783      1.579     3.45     866.2043     55.35809     130.7572         8     0.903     0.634 -25.30   0
        58    297.2805    947.7594 307.7881991  +6.2922133     1741.963     2314.224     2628.696     78.72535     157.0766      313.997      1.321     2.82       868.92     55.35809     281.2975        13     1.047     0.713 -76.78   0
        59    564.9786    946.0983 307.6771105  +6.3018836     689.3408     710.0754     456.4043     78.60069     156.8892     313.8408      1.184     3.96     867.5672     55.35809      112.974         6     0.756     0.592 -49.75   0
        60    764.5715    943.7720 307.5943178  +6.3095276     889.0306     1349.236     1107.517      78.2255     156.8892     313.8408      1.606     3.13     864.4003     55.35809     153.7663         6     0.828     0.510 -50.24   0
        61    901.9168    940.5107 307.5374003  +6.3154657     7623.254      11158.8     11330.87     78.47582     157.3261     314.1219      1.551     2.98     862.1579     55.35809     1063.244        33     1.355     1.079 -77.53   0
        62    139.2906    941.5234 307.8540030  +6.2894745     754.4531     1010.259     768.8309     78.60069     157.3261     314.0907      1.446     4.11     867.0742     55.35809     123.3305         9     1.048     0.683 -67.68   0
        63    437.6840    937.4858 307.7302524  +6.3011702     2358.629     3084.128     3179.603     78.47582     157.2637     314.1219      1.381     2.84     868.6199     55.35809     355.4033        16     1.055     0.822  83.76   0
        64    339.3790    935.9321 307.7711197  +6.2985110     10731.67     14680.12     15168.06     78.35076     157.0141     313.9345      1.420     2.75     869.0532     55.35809     1792.909        33     1.339     0.942 -76.46   0
        65    259.4551    934.7907 307.8043413  +6.2962963     7858.021     10878.05     11658.69     78.10004     157.0141     313.7783      1.425     2.78     868.2219     55.35809     1275.627        30     1.364     0.917 -74.28   0
        66    587.4667    929.3626 307.6683369  +6.3095472     1316.577     1926.491      2082.58     78.60069     157.0141     314.1531      1.496     2.60      867.119     55.35809     221.9303         9     0.897     0.635  58.48   0
        67    772.0687    929.2953 307.5916913  +6.3157557      756.455     1165.361      842.587     78.60069      157.139     314.0907      1.593     4.08     864.0131     55.35809     118.9769         6     0.779     0.609 -70.98   0
        68    917.5147    925.6854 307.5314212  +6.3221080     1096.272     1541.581     1933.818     78.47582     157.2014     314.1219      1.527     3.71     861.4858     55.35809     144.7885        12     1.040     0.795  61.27   0
        69    874.0627    925.0914 307.5494832  +6.3209015     852.7786     1108.769     786.2742     78.72535     157.2014     314.1531      1.413     4.12     862.3647     55.35809     149.1074        10     1.215     0.658 -89.87   0
        70    221.1047    924.7132 307.8206039  +6.2991675     708.2948     855.3797     974.2341     78.72535     157.4507     314.1219      1.274     3.88     867.5259     55.35809     118.9379         5     0.866     0.498 -54.22   0
        71    150.1363    925.1201 307.8500546  +6.2966119     721.4797     900.1127     735.6711     78.97409      157.139     314.0282      1.337     3.06     867.2006     55.35809     118.0046         6     0.801     0.629  83.84   0
        72    415.8675    923.5522 307.7397801  +6.3061909     640.6876      895.808     1090.129     78.72535     157.0141     314.0907      1.408     4.23     868.6932     55.35809     118.4953         6     0.798     0.639 -35.43   0
        73    985.2966    921.3123 307.5034235  +6.3261769       780.18     1175.423     1347.563     78.72535     157.4507     314.0907      1.664     3.69     858.9672     55.35809     130.6851         8     0.970     0.595 -19.49   0
        74    846.7447    919.4521 307.5610154  +6.3223169     733.0793      1101.87     1467.087     78.72535     157.0766     314.0282      1.759     5.07     862.6747     55.35809     112.1378         9     1.213     0.598  82.75   0
        75    781.3379    920.7339 307.5881302  +6.3196007     530.2609     745.0034     147.3033     78.72535     157.0766     314.0594      1.261     3.61     863.6902     55.35809     116.3156         5     0.960     0.464 -83.89   0
        76    754.0482    918.7879 307.5995267  +6.3194912     1844.047     2710.416     2953.584     78.10004     156.9516      313.747      1.478     2.91     864.1612     55.35809     342.9016        14     1.153     0.746 -73.43   0
        77    577.7237    918.7881 307.6727381  +6.3135868     689.4825     1211.959     1035.904     78.35076     156.7015     313.9033      1.915     2.53     866.8461     55.35809     124.8782         6     0.715     0.573  39.22   0
        78      4.4214    915.8897 307.9108635  +6.2955154     1022.132     1439.399     1414.771     78.72535     156.8892     280.8614      1.464     3.14     865.9294     55.35809     192.1603        11     1.079     0.693  86.37  16
        79    617.8671    915.1851 307.6561916  +6.3164195      912.309      1277.02     896.7911      78.2255     156.9516     313.9658      1.493     4.27     866.2612     55.35809     145.0133        11     1.188     0.689 -83.49   0
        80    539.2071    914.2795 307.6888821  +6.3141572     1294.888     2029.849     2193.464     78.35076     156.6389     313.8408      1.599     4.56     867.0447     55.35809     197.8462        13     1.282     0.764  80.97   0
        81    985.3148    914.1188 307.5036571  +6.3291477     1268.991     1920.671     2075.834     78.47582     157.3884     314.1219      1.744     3.40     858.6755     55.35809     195.3973        14     1.178     0.766 -72.63   0
        82    629.3747    914.9260 307.6514223  +6.3169120     597.1935     780.5739      578.758     78.35076     156.9516      313.997      1.193     3.18     866.0493     55.35809     130.5223         7     0.858     0.618 -15.83   0
        83    672.4639    911.9536 307.6336312  +6.3195824     2710.603     3783.472     4214.958     78.60069     157.0141     314.0907      1.474     3.12     865.1799     55.35809       405.79        20     1.328     0.805 -77.31   0
        84    507.7547    912.5900 307.7019982  +6.3138000     410.5374      644.069     435.4842      78.2255     156.9516      313.747      1.518     5.03     867.4193     55.35809     94.42908         5     1.065     0.671  67.91   0
        85   1023.5020    911.1692 307.4878997  +6.3316400     530.8264     781.9158     864.0092     70.58102     127.1261     239.0239      1.556     4.26     856.7668     55.35809     77.46051         6     1.052     0.493  84.71  24
        86     69.1328    907.8071 307.8842707  +6.3010327     3211.384     4657.734     4573.965      78.2255     156.8266     313.9033      1.528     3.30     866.1415     55.35809     523.8428        24     1.433     0.924 -77.43   0
        87    833.1317    908.4611 307.5670367  +6.3263999     850.3875     1327.927     1749.912     78.84982     157.0141     314.0594      1.560     2.61     862.6675     55.35809     167.7208         7     0.835     0.573 -76.40   0
        88    569.6591    908.9201 307.6764188  +6.3173908     548.9485      862.225      1043.35     78.84982     157.0766     314.0282      1.754     4.83     866.5759     55.35809     87.08881         8     0.965     0.683  13.83   0
        89    950.6405    907.8651 307.5182644  +6.3305721     869.4584     1115.718     943.5772     78.72535     157.0141     314.1843      1.453     5.12     860.0382     55.35809     101.5768         9     1.008     0.735 -65.28   0
        90    212.7228    906.9236 307.8246848  +6.3062305     2487.616     3327.496     3605.337     78.97409     157.3261     314.1219      1.413     3.20     867.4554     55.35809     364.3102        19     1.211     0.873 -65.41   0
        91     86.5404    907.1133 307.8770670  +6.3019054      2192.82     3219.838     2523.183     78.72535     157.2014     314.1843      1.482     2.91     866.1951     55.35809     322.6522        18     1.053     0.986 -81.74   0
        92    246.8086    903.5164 307.8106479  +6.3087835      1012.99     1455.547     1642.569     78.35076     156.7641     313.9033      1.502     2.95     867.9728     55.35809      178.252         9     1.031     0.537 -61.00   0
        93    667.1476    900.9391 307.6362090  +6.3239521     7759.209     10778.87     11647.99     78.72535     157.0141     314.0594      1.416     2.82     865.1006     55.35809     1333.374        31     1.334     0.979 -70.75   0
        94    351.7894    902.5193 307.7670944  +6.3127232     933.0157     1520.372     1599.717     78.35076     156.8266     313.9033      1.892     4.49     868.6661     55.35809     175.0173         9     1.189     0.569 -66.61   0
        95    804.5389    902.0155 307.5791255  +6.3281052     736.8724     1106.687     1250.495      78.2255     157.0141     313.8408      1.420     3.73      862.941     55.35809     107.6022         6     0.801     0.498 -88.62   0
        96    904.8549    897.4424 307.5376254  +6.3333463     3050.099     4382.397     4066.935     78.60069     157.0766     314.0594      1.506     2.86      861.373     55.35809     468.5867        22     1.306     0.935 -78.69   0
        97     27.1271    898.8725 307.9020127  +6.3033064     1412.439     1957.247     1566.934     78.97409     157.2014     314.0907      1.457     3.70     865.9719     55.35809     234.1797        13     1.225     0.670 -78.09   0
        98    456.5816    897.9955 307.7237371  +6.3181092     473.1923     527.0427     164.9889     78.35076     156.7015      313.872      1.485     4.98     867.7542     55.35809     89.76202         5     1.430     0.490 -87.49   0
        99    779.6694    897.7545 307.5895949  +6.3290328     597.1555     833.6406     1296.801     78.72535     157.0141     314.0594      1.475     5.83     863.2868     55.35809     91.53729         8     1.263     0.757 -52.15   0
       100     40.1524    897.5209 307.8966507  +6.3043033     982.3932       1541.9     1008.734     78.72535      157.139     314.0282      1.519     3.99     866.0029     55.35809     180.3139        11     1.191     0.698 -69.14   0
       101    350.1372    894.0533 307.7680659  +6.3161632      18565.8     25571.78     27397.08     78.72535     157.0141     314.0282      1.433     2.88     868.5251     55.35809     3163.009        44     1.419     1.015 -68.35   0
       102     84.7748    895.0551 307.8782079  +6.3068244     1497.328     1986.014     2018.821     78.35076     157.0766      313.872      1.337     2.94     866.0978     55.35809     245.0685        12     0.998     0.762 -74.04   0
       103    400.7666    893.3423 307.7470686  +6.3181570     724.2197     1031.617     1070.953     78.60069     157.0766     314.0282      1.258     3.26     868.1246     55.35809     132.8979         7     0.923     0.516 -62.02   0
       104    221.2892    893.6585 307.8215763  +6.3119954       1459.7     1926.623     1588.092     78.60069     157.0141     314.1843      1.481     3.71     867.5011     55.35809     228.1832        14     1.106     0.896 -31.84   0
       105    427.9281    884.9227 307.7360749  +6.3225450     1279.751     1408.707     496.8494     78.97409     157.3261     314.0594      1.367     3.69     867.7405     55.35809     179.9225        13     1.090     0.803 -76.61   0
       106    113.2388    884.7825 307.8667375  +6.3120241      1917.21     2678.389     3114.074     78.35076     156.9516     313.8408      1.516     3.19      866.218     55.35809     301.6406        14     1.082     0.849 -54.83   0
       107    460.4013    884.0413 307.7226215  +6.3239988     519.6663     641.3904     887.9397     78.10004     156.7641      313.747      1.652     4.04     867.4796     55.35809     97.55518         5     1.096     0.426  25.31   0
       108    681.4631    881.1642 307.6309300  +6.3325962     963.5535     1369.866      2029.91     78.60069     157.0766     314.0594      2.461     4.04     864.6118     55.35809      128.652         9     1.062     0.590 -62.84   0
       109    508.4802    881.8860 307.7027312  +6.3265015     711.5894     1076.325     1519.503     78.47582     157.3884     314.1843      1.649     3.77     866.7194     55.35809     116.1121         6     0.826     0.494 -83.40   0
       110    895.1953    878.8651 307.5422598  +6.3406940     2113.435       2924.7     3088.477     78.10004     156.7641     313.8408      1.448     4.13     861.2834     55.35809      348.624        17     1.285     0.834 -62.28   0
       111    866.0035    878.5830 307.5543906  +6.3398351     2120.665      2744.09     2656.069     78.35076     156.6389     313.9033      1.364     3.21     861.7032     55.35809     312.1048        14     1.084     0.794 -72.58   0
       112     96.9931    878.2145 307.8737046  +6.3141888     2683.437     3832.281      4438.12     78.35076     156.8266     313.9033      1.522     3.00     865.9816     55.35809     460.8759        21     1.350     0.861 -58.70   0
       113    829.3102    877.9885 307.5696467  +6.3388540     3445.882     4732.171     5362.727     78.47582     156.7641      313.872      1.435     2.85     862.2036     55.35809     617.3569        20     1.154     0.896 -68.58   0
       114    565.2247    869.3315 307.6795927  +6.3335877     377578.5     515824.5     541349.1     78.35076     156.9516      313.997      1.444     3.57     865.2796     55.35809     60204.33       179     1.610     1.261 -75.76   4
       115    409.5089    871.8476 307.7441635  +6.3273252     8740.714     11942.47     12214.42     78.72535     157.0141     314.1843      1.400     2.77     867.6021     55.35809      1448.71        31     1.323     0.934 -72.78   0
       116    653.0679    872.0380 307.6430273  +6.3354135     1317.764     1695.487     1507.734     78.60069     157.0766     314.1531      1.406     3.57      864.704     55.35809      225.864        11     1.157     0.616 -76.60   0
       117    352.6315    870.2443 307.7678336  +6.3260771     14125.75     19538.19     20668.67     78.35076      157.139     313.9345      1.426     2.79     868.1053     55.35809     2126.405        43     1.403     1.030 -68.91   0
       118    903.2500    865.6618 307.5393582  +6.3464147     5672.997     8372.537     9371.884     78.72535     157.0141     314.1219      1.654     3.12     860.9952     55.35809     789.1711        35     1.604     1.227 -17.74   0
       119    670.9714    866.7346 307.6357717  +6.3382027     4063.513     5552.454     5793.903     78.47582     157.0766      313.997      1.409     2.58     864.5671     55.35809     713.1614        22     1.138     0.939 -66.91   0
       120    742.7399    863.0630 307.6060947  +6.3421210     957.5264     1332.686      1272.12     78.72535     157.0141     314.0907      1.422     4.24     863.1827     55.35809      132.596         8     0.994     0.619 -78.78   0
       121    645.9653    860.6339 307.6463601  +6.3398842      3795.05      5101.25     5555.355     78.47582     156.8266     313.8096      1.404     2.85     864.4484     55.35809     614.6459        21     1.242     0.833  88.63   0
       122    834.2919    859.7108 307.5681919  +6.3465672     1779.998     2462.849     2462.839     78.72535     157.5752     314.1219      1.452     3.26      861.834     55.35809     293.4082        14     1.149     0.769 -85.03   0
       123    636.1918    859.8408 307.6504449  +6.3398842     1284.695     1668.148     2258.272     78.10004     156.8892     313.7783      1.442     3.69     864.4293     55.35809     207.3333        13     1.125     0.871 -76.14   3
       124    638.7458    855.2990 307.6495373  +6.3418450     2369.517     3227.678     3642.797     78.60069     157.0766     314.3091      1.419     3.72     864.2753     55.35809     395.5222        16     1.290     0.680 -63.60   3
       125    961.4674    858.5580 307.5154223  +6.3512922      785.628     996.3981     964.3056     78.72535     157.0141     314.1219      1.697     5.22     858.2376     55.35809     105.0085         8     0.966     0.796 -21.34   0
       126    922.3637    853.3936 307.5318331  +6.3521186     3440.518     4932.991     5203.881     77.84851     156.8266     313.8408      1.518     3.12     860.3232     55.35809     483.2626        22     1.236     0.921 -86.64   0
       127    332.6990    854.1592 307.7766525  +6.3320487     1044.185     1421.637     1286.892     78.72535     156.9516      314.278      1.322     3.61      867.987     55.35809     168.0956         9     1.123     0.561  84.69   0
       128    380.6011    849.1953 307.7569304  +6.3357072     3022.909      4215.25     4400.675     78.10004     156.6389     313.8096      1.441     2.90     867.3665     55.35809     460.1315        24     1.344     0.944 -76.53   0
       129    798.9868    848.1562 307.5832399  +6.3501575      475.922     581.4225     385.2205      78.2255     156.8892     313.8095      1.141     3.96     862.1205     55.35809     90.11102         5     0.851     0.529  62.09   0
       130    348.6669    841.7449 307.7704413  +6.3377107      571.709     562.1038      88.1386     78.72535     157.0141     314.0282      1.169     2.91     867.4435     55.35809     97.32922         5     0.723     0.455  77.45   0
       131    516.7599    839.0983 307.7007346  +6.3444455     3521.687     4661.407     4683.643     78.72535     156.9516      314.278      1.360     2.95       864.83     55.35809       558.25        21     1.201     0.869 -72.16   0
       132    861.5538    838.2332 307.5575927  +6.3563464     1160.679     1528.938     1702.292     78.47582     157.0766      313.997      1.395     3.46     861.1592     55.35809     166.4318        11     0.991     0.796 -10.23   0
       133    581.9868    836.7543 307.6737294  +6.3476001     825.4924     1131.377     1205.189     78.10004     156.8892     313.8408      1.365     3.33     863.9368     55.35809     154.1495         8     0.960     0.564 -70.48   0
       134    563.6409    835.1702 307.6814006  +6.3476392     6914.821     9727.718     10374.08     78.35076     156.9516     313.9345      1.426     2.73     863.9811     55.35809     1066.042        31     1.297     1.031 -77.26   0
       135    570.4656    834.7759 307.6785800  +6.3480308      1359.59     1863.266     2437.061     78.35076     157.0766     313.9658      1.359     2.75     863.9425     55.35809     214.4473        10     0.946     0.684  82.08   0
       136    275.1478    835.3932 307.8011819  +6.3378626     905.6246     979.1296     532.6082      78.2255     156.8892     313.6845      1.247     3.11     867.9507     55.35809     141.3474         9     0.889     0.671 -75.82   0
       137    899.1954    833.4310 307.5421234  +6.3595870     1518.541     1869.954     1703.626      78.2255     156.9516     313.8408      1.260     2.95     860.2053     55.35809     274.8472        10     1.003     0.631 -80.43   0
       138    481.4066    834.1143 307.7155822  +6.3453174     1827.137     2659.266     2499.745      78.2255     156.7641     313.8096      1.465     2.99     865.2586     55.35809     301.7066        15     1.148     0.767 -83.82   0
       139    122.9627    833.1517 307.8644462  +6.3336683     1543.989     2151.338     2498.121     78.47582     157.0766     313.9658      1.382     2.92     865.7163     55.35809     279.3739        11     1.030     0.739 -80.07   0
       140    699.2153    832.4459 307.6251970  +6.3533057     885.6777     1044.433     875.2432      78.2255     156.8892     313.8096      1.290     3.15     863.2628     55.35809     156.2054        10     0.958     0.692 -83.25   0
       141    534.3308    829.0287 307.6937778  +6.3491923     22089.36     30088.21     31666.92     78.47582     157.0766      313.997      1.413     2.80     864.0403     55.35809     3761.083        48     1.416     1.030 -74.47   0
       142    375.5318    830.7856 307.7596562  +6.3431379     653.9089     856.1528     715.3431      78.2255     156.9516     313.9658      1.434     2.91     866.9692     55.35809     116.1816         5     0.723     0.458  69.36   0
       143    947.9233    827.5010 307.5220881  +6.3636631      4203.12     6207.477     6179.323     78.35076     157.2637     314.0594      1.549     3.13     858.2935     55.35809     620.3093        26     1.286     0.996 -84.17   0
       144    180.8803    827.8970 307.8405761  +6.3377871     710.8182       851.71     1136.269     78.47582     157.3884     314.1219      1.138     2.97     866.3712     55.35809     118.4803         8     0.826     0.637 -48.73   0
       145     67.8643    825.5439 307.8875805  +6.3349538     451.4669     812.9899     770.9216     78.84982     157.0141     314.0594      2.442     5.70      865.035     55.35809     72.92981         7     1.573     0.581 -81.60   0
       146     44.6210    819.5382 307.8974344  +6.3366503     1696.898     2421.377     2346.605     78.35076     157.0766     313.9345      1.493     3.06     864.6641     55.35809      272.579        15     1.127     0.779 -84.12   0
       147    589.4871    818.8803 307.6712167  +6.3552314     605.4155     1208.842     1457.063     78.47582     157.3261     314.1843      2.053     4.33     863.2686     55.35809     87.16449         6     1.103     0.484 -82.81   0
       148    326.8965    817.6978 307.7802923  +6.3469078     3677.404     4983.815     5357.472     78.72535     157.6374     313.9033      1.413     2.61     867.1899     55.35809     673.1857        24     1.306     0.879 -71.17   0
       149    792.4993    813.6149 307.5870942  +6.3642022     62463.77     84849.61     88919.25     78.72535     156.8266     313.7783      1.450     2.66     861.6609     55.35809     9608.483        67     1.453     1.090 -75.43   0
       150    636.3782    817.4353 307.6517943  +6.3573991     398.5404     517.0327     618.1188      78.2255     156.8266     313.8096      1.098     3.41      863.131     55.35809     73.85486         5     1.086     0.310 -69.01   0
       151     26.9510    815.9905 307.9048911  +6.3375196     2241.778     3203.507     3195.915      78.2255     156.8891      313.747      1.454     3.42     864.3503     55.35809     361.7877        17     1.249     0.895 -73.95   0
       152    731.1811    815.3987 307.6124965  +6.3614143     740.8664      977.266     770.1256     78.35076     156.6389     313.7783      1.215     2.68     862.6254     55.35809     158.0272         6     0.878     0.537 -65.68   0
       153    720.7588    808.2512 307.6170646  +6.3640165     23996.83     33442.68     35701.48     78.72535     157.0766     314.0594      1.475     2.73     862.5735     55.35809     3798.041        61     1.591     1.159 -72.74   3
       154    714.4525    804.6890 307.6198031  +6.3652762     99767.02     135014.6     142326.2     78.72535     156.8892     314.1843      1.437     2.71     862.5551     55.35809      16070.2        88     1.518     1.127 -77.37   3
       155    435.9725    812.1072 307.7351895  +6.3528791     1052.247      1478.38     1425.879     78.84982     156.8266     313.9345      1.494     4.35     865.7137     55.35809     146.2115        10     0.962     0.722 -81.66   0
       156    249.8178    811.3533 307.8125112  +6.3469365      5768.98     8402.661     10423.91      78.2255     157.0141     313.8096      1.581     2.90     867.0418     55.35809     900.4106        31     1.392     0.984 -67.29   0
       157    917.7971    808.9041 307.5352220  +6.3703355     9212.207     13020.39     13784.26     78.47582     156.7641      313.747      1.465     2.94     858.9318     55.35809     1358.053        34     1.354     1.018 -76.18   2
       158    914.7039    800.3382 307.5367939  +6.3737689     7281.985     10097.05     10554.04     78.47582      157.139     314.1219      1.480     2.98     858.7472     55.35809     950.9486        28     1.303     0.984 -86.56   2
       159    359.3328    805.4997 307.7672355  +6.3530338     23343.23     32268.57     33482.36     78.72535     157.2014     314.0282      1.468     2.72     866.3533     55.35809     3807.574        52     1.423     1.113 -72.51   0
       160    408.4997    805.8024 307.7468097  +6.3545600     1467.384     1773.781     1788.068      78.2255     156.8266     313.7783      1.223     3.07     866.3368     55.35809     213.2316        12     1.126     0.638 -61.54   0
       161    421.1849    803.3472 307.7416251  +6.3559996     24862.58     34338.97     35798.56     78.10004     157.0141     313.7783      1.439     2.74     866.1013     55.35809     4073.315        48     1.397     1.042 -73.02   0
       162    648.0153    804.8043 307.6473871  +6.3630041     866.9677     1249.283     1508.843     78.35076     156.7641     313.9033      1.613     4.13     862.7678     55.35809     153.8813         9     0.952     0.654  80.43   0
       163    249.2579    789.7698 307.8134726  +6.3558289     759804.6      1642204      1831667     78.47582     157.0766     313.9658      2.215     4.99     866.5463     55.35809     63793.66       658     2.450     2.324 -78.47   4
       164    887.1534    801.0004 307.5482123  +6.3725751     801.6498     1059.185     812.4951     77.97438     156.7641      313.622      1.553     4.56     859.8272     55.35809     131.4427         9     1.151     0.631  75.12   0
       165    655.2401    799.3423 307.6445708  +6.3655012     7374.444     9925.168     10384.01     78.72535      157.139     314.0907      1.389     2.76      862.558     55.35809     1204.873        27     1.284     0.870 -72.96   0
       166    612.2296    799.2152 307.6624350  +6.3641129     488.1067     673.2602     630.8705     78.35076     156.8266      313.997      1.589     3.90     862.5742     55.35809     91.09302         5     1.354     0.322  57.84   0
       167    144.9868    799.5131 307.8564390  +6.3482981     579.6555     824.6245     1260.245     78.35076     156.8892     313.9658      1.351     3.86     865.6252     55.35809      102.189         5     0.972     0.523  77.74   0
       168    990.4523    798.7933 307.5053903  +6.3769363     469.8151      648.364     544.6662      78.2255     156.8892      313.747      1.158     3.43     856.0458     55.35809     82.92242         5     0.779     0.436 -68.15   0
       169    395.5522    799.1950 307.7524087  +6.3568533     490.6726      818.997     1012.839     78.10004     156.8892      313.747      1.593     3.46     866.1577     55.35809     81.42914         5     0.792     0.438 -69.08   0
       170    443.9639    797.1583 307.7323752  +6.3593194     1917.913     2661.807      3152.22     78.47582     157.0766     313.9345      1.437     2.99     864.9006     55.35809     364.7832        13     1.111     0.652 -75.56   0
       171    169.0779    796.5294 307.8465368  +6.3503408     809.0161     1166.371      1052.71     78.97409     157.3261     314.0282      1.570     3.49     865.8021     55.35809     151.2079         6     0.985     0.477 -58.15   0
       172    743.0176    794.2119 307.6082936  +6.3705581     542.8922     837.3164     754.4314     78.35076     156.7641     313.9658      1.528     3.28     861.9451     55.35809     91.19116         5     0.796     0.494 -53.26   0
       173    883.1897    791.4398 307.5501791  +6.3763901     769.0286     925.6901     958.4029     78.10004     156.8892     313.8096      1.273     4.59     859.6247     55.35809     132.3652         8     1.138     0.526 -68.00   0
       174    608.4692    791.4973 307.6642563  +6.3671735     1067.837     1479.226     1817.825     78.60069     157.2637     314.0594      1.426     3.17     862.2861     55.35809     201.9963        10     1.019     0.706 -82.26   0
       175    159.3146    790.3134 307.8508009  +6.3525786     1038.822     1532.919     1838.322     78.47582     157.2637     314.1219      1.610     4.46      865.374     55.35809     172.5779        12     1.386     0.593 -67.92   0
       176    690.3506    789.3191 307.6303282  +6.3708154      2686.19     3823.864     4252.486     78.72535      157.139     314.0907      1.527     3.03     861.9943     55.35809     422.7706        21     1.361     0.906 -86.63   0
       177    424.1498    786.0287 307.7409780  +6.3632495     59790.28     82818.63     86966.46     78.35076     157.2014     313.9658      1.432     2.75      865.302     55.35809     10518.64        70     1.475     1.104 -70.06   0
       178    134.4586    789.8207 307.8611382  +6.3519453     1258.731     1787.314     1644.839     78.35076     156.9516      313.872      1.382     3.95     865.0596     55.35809     217.7865        10     1.088     0.666 -62.57   0
       179    967.3510    787.7689 307.5153532  +6.3807170     809.0579     1081.829     1352.367     78.47582     157.0766     313.9658      1.433     4.60     856.7176     55.35809     117.4651         8     0.968     0.622 -71.28   0
       180    541.9197    785.1085 307.6921059  +6.3675806     7933.288     10748.14     11135.06     78.47582     157.3261     314.0907      1.387     2.83     862.2583     55.35809     1308.615        29     1.288     0.922 -71.58   0
       181    458.7024    783.7063 307.7267086  +6.3653681      5201.77     7356.223     8532.593     78.72535     157.6374     313.9658      1.533     2.96     863.9175     55.35809      762.729        27     1.332     0.919 -70.75   0
       182    787.1347    781.7066 307.5903939  +6.3771974     12928.19     17919.04     18642.55     78.72535     157.2637     314.0907      1.445     2.81       860.85     55.35809      2170.89        39     1.353     1.042 -76.23   0
       183    682.6401    781.2696 307.6338008  +6.3738808     533.2089     849.7684     609.2834     78.60069     157.0766     314.1219      1.472     3.08      861.637     55.35809     143.2729         5     0.914     0.463  80.88   0
       184    455.1794    777.1426 307.7283928  +6.3679599     2532.721     3469.814      3774.47     78.35076     156.9516      313.872      1.385     2.84     863.8715     55.35809     423.2415        16     1.173     0.757 -71.84   0
       185     16.5626    777.6627 307.9105019  +6.3529937     1309.129     1787.043      1768.87     78.72535      157.139     314.0594      1.456     3.08     863.5879     55.35809     218.2299        12     0.963     0.852 -65.31   0
       186    808.9911    775.8586 307.5815142  +6.3803430     1399.732     2105.531     2523.921     78.10004     157.0141     313.7783      1.593     3.69     860.3935     55.35809      198.126        15     1.143     0.903 -51.97   0
       187    144.8728    773.5873 307.8573629  +6.3589982     12733.47     18038.52     19625.98      78.2255     156.7641      313.872      1.499     2.82     864.5143     55.35809     2034.058        44     1.426     1.130 -65.50   2
       188    136.9512    770.8239 307.8607456  +6.3598725     3111.979     4589.495     5759.347     78.35076     157.0766     313.9658      1.516     3.31     864.3231     55.35809     522.9042        24     1.319     0.960 -63.33   3
       189    977.1071    775.1305 307.5117257  +6.3862610     607.8829     836.2178     783.1678     78.72535     157.2014     314.0594      1.370     3.97     856.3087     55.35809      92.2489         6     0.773     0.584  56.40   0
       190    152.9134    774.0217 307.8540096  +6.3590895     3373.273     4797.158     5002.035     78.72535     156.8266     313.9345      1.450     2.80     864.5833     55.35809     586.3617        20     1.189     0.859 -64.37   0
       191    981.8870    770.4656 307.5098971  +6.3883467     1624.192      2161.36     2294.653     78.72535     157.2637     314.0907      1.460     4.28     856.1566     55.35809     207.4839        14     1.320     0.705 -87.05   0
       192    958.3384    802.3889 307.5186055  +6.3743795     2050.842     3130.946     3028.011      78.2255     156.8892     313.8408      1.639     3.83     857.2278     55.35809     314.2552        18     1.298     0.868 -78.00   0
       193    932.6028    770.3054 307.5303688  +6.3867671     7159.486     10005.19     10268.77     78.47582     156.7641     313.7783      1.475     2.90     857.2486     55.35809     999.8977        28     1.340     0.934 -81.01   0
       194    688.1676    767.9446 307.6319536  +6.3795676     2025.154     2454.262     2622.679     78.60069     157.0766     314.0282      1.299     2.84     860.9843     55.35809     348.7538        14     1.050     0.785 -71.29   0
       195    575.0112    767.2951 307.6789645  +6.3760449     2608.663      3704.01     3834.931     78.35076     156.7641     313.8096      1.409     2.76     861.5814     55.35809      453.558        16     1.191     0.737 -74.22   0
       196    422.9368    766.5635 307.7421380  +6.3712456     1425.262     2193.145     2195.615     78.60069      157.139     314.0594      1.608     3.67     864.5406     55.35809     214.1301        14     1.174     0.785 -70.96   0
       197    706.8391    765.3703 307.6242866  +6.3812556     512.5687     574.2309     196.9602      78.2255     156.8266     313.9345      1.191     4.34     860.7514     55.35809       86.034         6     0.784     0.684  44.89   0
       198    137.3420    764.4121 307.8608001  +6.3625329     2216.677     3245.074     3936.865     78.10004     157.0141     313.7783      1.587     3.04     864.0378     55.35809     376.8204        17     1.203     0.836 -58.65   0
       199    926.7267    762.2656 307.5330787  +6.3898904     3450.245     4831.012     5139.875     78.84982     157.0766     314.0594      1.474     2.74     857.1665     55.35809     539.3293        25     1.389     0.915 -77.31   0
       200    956.3562    761.8459 307.5207885  +6.3910533     3317.083     4636.541     5041.204     78.72535     157.0766      313.997      1.488     3.11      856.596     55.35809     540.1752        20     1.198     0.903 -72.36   0
       201    987.2173    761.3801 307.5079883  +6.3922760     1950.594     2527.616     2513.418     78.47582     156.8892     313.9658      1.476     3.08     856.0123     55.35809     302.3022        16     1.160     0.880 -69.73   0
       202    679.2628    761.3226 307.6358741  +6.3820036     1596.476     2238.787     2309.832     78.97409      157.139     314.0282      1.413     3.51     860.6866     55.35809     290.9354        12     1.169     0.669 -69.76   0
       203    826.3008    760.0421 307.5748574  +6.3874523     1198.253     1414.179     1436.576     78.72535     156.9516      314.278      1.265     3.62     859.6408     55.35809     185.4783         7     0.768     0.636  83.61   0
       204    901.5106    757.5583 307.5437083  +6.3909916      772.206     1056.575     1151.223     78.72535     157.0141     314.0907      1.539     4.75     857.8511     55.35809      99.2337         7     0.958     0.669 -81.57   0
       205    251.7700    756.4382 307.8135554  +6.3696751     2081.221      3017.83     4314.165     78.35076     156.8266     313.9345      1.674     3.27     865.6544     55.35809     304.8101        18     1.173     0.895 -62.84   0
       206    944.6027    751.8666 307.5260042  +6.3947812      1065.98     1476.059     1625.139     78.10004     156.7641     313.8408      1.367     3.31     856.5776     55.35809     207.1802         9     1.073     0.571 -71.50   0
       207    166.8283    751.7013 307.8489863  +6.3687733     877.1491     1170.135     1047.152     78.84982     156.8266     314.0282      1.530     4.03     863.7947     55.35809     136.7162        10     1.060     0.744 -58.18   0
       208    918.3336    751.0079 307.5369419  +6.3942583     1117.004     1599.729     1415.432      78.2255     156.8266     313.9033      1.478     3.48     857.1202     55.35809     193.4725         9     1.014     0.632 -51.60   0
       209    272.2236    752.0137 307.8052117  +6.3721896      789.673     1020.123     928.1254     78.47582     156.8892      313.997      1.280     2.53     865.6272     55.35809     152.7675         7     0.721     0.642 -67.07   0
       210    971.1158    749.7128 307.5150661  +6.3965558     2678.512     3790.695     3886.473     78.47582     157.2637     314.1219      1.496     2.84     856.1856     55.35809     422.0643        19     1.223     0.867 -65.72   0
       211    690.7726    748.9276 307.6315114  +6.3875067     1084.505      1507.08     1144.331     78.47582     157.0141     313.9658      1.335     2.94     860.0484     55.35809     199.6426        10     0.983     0.656 -70.90   0
       212   1012.9877    743.0541 307.4979009  +6.4007029     1765.326     2524.782     2665.645     78.10004     157.0141     313.7783      1.474     2.86     855.6804     55.35809     298.8438        15     1.079     0.825  84.45   0
       213    411.4314    744.1449 307.7476717  +6.3801155     637.8931     735.3313     1318.963     78.60069      157.139     314.0282      1.154     3.57     863.7319     55.35809     114.9041         5     0.857     0.557 -42.74   0
       214    639.1241    742.7814 307.6531660  +6.3883147     702.8793      722.081     893.8757      78.2255     156.8266      313.997      1.173     2.78     860.2144     55.35809     134.8688         6     0.748     0.549 -56.82   0
       215    814.3807    741.4921 307.5804305  +6.3947128      1304.66     2110.943     2207.842     78.60069     156.8266     313.9033      1.773     2.98     859.1724     55.35809     207.3914        12     0.987     0.783 -59.27   0
       216    900.5482    738.9453 307.5447326  +6.3986446     1832.316     2526.485     2976.624     78.84982     157.0766     314.0907      1.457     3.03     857.2559     55.35809     276.8572        14     1.080     0.755 -89.88   0
       217    660.6533    734.0125 307.6445207  +6.3926564     622.1635     881.9434     517.2068     78.10004     157.0141     313.7783      1.509     3.89     859.6607     55.35809     107.3314         6     1.011     0.429  76.96   0
       218    875.0970    733.7303 307.5554770  +6.3999474     1035.642     1336.803     1933.166     78.60069     157.2637     314.0594      1.473     3.43     857.8955     55.35809     178.3574         9     1.059     0.544 -64.18   0
       219    857.5589    730.6230 307.5628646  +6.4006442     1837.247     2589.536     2090.465     78.35076     156.8892     313.8408      1.397     3.95     858.2206     55.35809      288.281        14     1.237     0.755 -82.21   0
       220     56.4670    729.1432 307.8955750  +6.3743705     2860.249     3782.577      4234.24     78.84982     157.0141     314.0282      1.446     2.89     863.1364     55.35809     447.3113        19     1.242     0.828 -66.68   0
       221    120.6424    728.8924 307.8689356  +6.3766356     890.3709      1708.27     1425.546     78.72535     157.0766     314.1531      2.010     5.39     862.9124     55.35809     127.0699        11     1.283     0.722  87.26   2
       222    468.9664    727.6965 307.7243344  +6.3888380     614.6187     741.7526     1007.621     78.84982     156.9516     314.1843      1.207     2.40     862.2599     55.35809     128.8774         5     0.763     0.477 -62.08   0
       223    574.0479    724.1622 307.6808168  +6.3938215     670.4021     929.7574     1231.532     78.60069     157.0766     313.9658      1.257     2.36     860.4446     55.35809     148.3602         5     0.751     0.472 -67.20   0
       224    669.1998    717.6176 307.6415231  +6.3997118     7036.328     9523.873     9867.075     78.35076     156.6389      313.747      1.409     2.66     859.3863     55.35809     1250.898        27     1.230     0.929 -72.64   0
       225    616.0709    716.8522 307.6636120  +6.3982481       1675.3     2383.001     2974.462     78.60069     157.0141     314.0594      1.460     3.51     859.8527     55.35809     278.5591        14     1.240     0.664 -87.02   0
       226    537.3687    717.6357 307.6962683  +6.3952864     678.9803     890.1185     1278.483     78.35076     156.8266     313.8096      1.306     3.98     860.8283     55.35809     106.8952         6     0.949     0.478 -85.33   0
       227    526.7267    717.1669 307.7007034  +6.3951231     981.4797     1280.475     1605.661     78.60069     157.0766     314.0594      1.308     3.43     860.9808     55.35809     156.2013         8     0.975     0.557 -81.02   0
       228    132.1991    713.4541 307.8646589  +6.3833987     4147.474     5836.395     6098.529     78.10004     156.7641     313.6533      1.484     2.76     862.8332     55.35809     648.6138        22     1.297     0.895 -84.49   0
       229   1006.1912    712.9788 307.5017317  +6.4128939      2804.29      3805.71     4257.604     78.35076     156.8892     313.8408      1.406     2.90      854.865     55.35809     442.3879        20     1.107     0.998  83.66   0
       230    643.1196    713.2737 307.6524998  +6.4006318     2474.222     3398.437     3741.183     78.97409     157.3261     314.1219      1.493     3.24     859.5482     55.35809     390.4528        18     1.175     0.889 -76.02   0
       231    318.5720    713.3909 307.7872697  +6.3896940     780.6152      1108.49     1234.746     78.35076     156.8892     313.9345      1.584     3.32     863.7083     55.35809     147.7296         8     1.027     0.489 -85.11   0
       232    254.5409    713.4678 307.8138563  +6.3875096     702.6365     1135.853     1002.892     78.84982     157.0141     314.0594      1.316     2.88     863.9493     55.35809     134.6457         6     0.855     0.446  72.22   0
       233    786.1059    709.7560 307.5932387  +6.4068707     22447.38     30597.35     32313.59     78.60069     157.0766     314.1843      1.421     2.66     858.3459     55.35809     3976.771        46     1.416     1.014 -76.27   0
       234    916.1522    709.6680 307.5392351  +6.4112543     4158.361      5731.61     6024.493     78.72535     157.0141     314.0594      1.451     2.84      856.322     55.35809     664.2759        25     1.286     0.923 -81.34   0
       235    513.6826    709.7713 307.7063694  +6.3977391     1037.688     1315.356      976.034     78.60069     156.8892      313.997      1.372     4.41     861.0544     55.35809     157.4903        11     1.163     0.636 -79.57   0
       236    485.0325    709.9789 307.7182599  +6.3966923     1577.419     2267.834     2702.858      78.2255     156.8891     313.9033      1.465     2.46     861.4824     55.35809     309.0438        11     0.948     0.673  89.65   0
       237    331.0054    709.7324 307.7822301  +6.3916223     685.7467     939.3499     527.6979      78.2255     156.7641      313.872      1.495     4.09     863.4684     55.35809     102.8997         6     0.924     0.517  89.86   0
       238    287.6558    709.6616 307.8002337  +6.3901946     722.1498     744.5232     445.0531     78.84982     157.0766     314.0907      1.270     4.71     863.9365     55.35809     137.5385         8     0.979     0.643 -84.47   0
       239    666.6033    702.4650 307.6431112  +6.4058811     7667.046     10941.18     11772.12     78.10004     156.8266     313.8408      1.512     2.88     859.2179     55.35809     1118.412        36     1.414     1.019 -72.73   0
       240    649.0862    703.5171 307.6503503  +6.4048600       1062.9      1804.34     2298.494     78.47582     157.2637     314.1219      1.871     4.44     859.3685     55.35809     163.9671        14     1.385     0.680 -77.29   0
       241    259.6138    703.2161 307.8120960  +6.3919129     6803.816     9475.377     9802.185     78.47582     156.7641      313.997      1.461     2.92     863.4825     55.35809     1013.382        31     1.390     0.952 -70.10   0
       242     94.8261    704.6276 307.8804764  +6.3857844     561.7498      818.813     992.9387      78.2255     156.8892     313.9033      1.801     5.47     862.8561     55.35809     84.07648         7     0.990     0.853 -13.66   0
       243    361.8224    702.2868 307.7696842  +6.3957318     636.5948     1010.773     1098.096     78.72535     156.8892     313.9345      1.618     4.10     862.9104     55.35809     91.21326         6     0.759     0.633  82.24   0
       244    926.5457    695.2316 307.5354032  +6.4175622      1453.03     1878.694     2129.304     78.60069      157.139     314.0282      1.322     2.67     855.8204     55.35809     224.3284        12     0.938     0.779 -40.81   0
       245    738.2825    690.9319 307.6137318  +6.4130428     4094.854      5903.34     6775.804     78.97409     157.3261     314.0907      1.546     3.10     857.8279     55.35809     626.7916        25     1.412     0.952 -70.64   0
       246    693.5845    691.5533 307.6322734  +6.4112900     1139.075     1557.602     1695.207      78.2255     156.8892     313.8096      1.542     3.46     858.6729     55.35809     170.8931         9     1.047     0.617 -62.17   0
       247   1004.6877    687.5848 307.5032075  +6.4233288     9896.153     13744.59     14121.32     78.47582     156.8266     313.9345      1.486     2.83     853.9338     55.35809     1354.847        35     1.404     0.985 -73.66   0
       248    943.1235    687.9740 307.5287620  +6.4211125     2789.456     3824.834     2423.136     78.47582     157.0141     314.0282      1.425     2.75     855.3533     55.35809       488.66        21     1.289     0.865 -87.27   0
       249      4.3070    689.5018 307.9185758  +6.3889792     656.6156     915.8724      193.648     78.72535      157.139     279.2156      1.350     3.96     863.4622     55.35809     127.0976         6     1.066     0.422 -56.00  16
       250     24.0734    687.1727 307.9104468  +6.3906071     2115.523     3118.829     3982.865     78.47582     157.0141      313.997      1.521     2.92      863.319     55.35809     391.0884        15     1.165     0.732 -76.76   0
       251    557.3038    685.7657 307.6890632  +6.4091134     580.8708     777.3718     1292.735     78.84982     156.9516     314.1843      1.133     2.13     860.1171     55.35809     140.4522         5     0.714     0.431 -73.69   0
       252    440.5071    686.0091 307.7375581  +6.4050947     517.6555     771.4474     960.9857     78.35076     156.7015      313.872      1.642     4.87     861.3685     55.35809     110.1306         6     1.197     0.562 -59.58   0
       253     82.0358    682.2996 307.8865430  +6.3945721      28591.5     39961.99     41905.02     78.72535     156.9516     314.2155      1.466     2.87      862.876     55.35809     4480.069        56     1.429     1.127 -72.45   0
       254    543.3057    683.3229 307.6949587  +6.4096527     2282.056     2772.585     3174.135     78.47582     157.2637     314.1219      1.315     2.77      860.288     55.35809     373.3061        16     1.106     0.794 -70.20   0
       255    281.1710    683.3567 307.8038149  +6.4008372     540.1168     626.0436     453.2112     78.35076      157.139     313.9658      1.176     4.22     862.6843     55.35809     85.03497         6     0.760     0.667 -80.23   0
       256    511.9570    680.7318 307.7080644  +6.4096712     1675.325     2132.701     2289.949     78.72535     157.0141     314.1219      1.359     2.94     860.4755     55.35809     276.4533        16     1.115     0.851 -59.72   0
       257    933.0143    679.4226 307.5332473  +6.4243057     992.1351     1232.886     1595.781     78.47582     156.8892     313.9658      1.440     3.36     855.4445     55.35809     168.9008         9     0.943     0.629 -69.37   0
       258    552.6148    676.9689 307.6913068  +6.4125883      1135.94     1534.807     1992.747     78.35076     156.8266      313.997      1.534     3.74     860.0638     55.35809     216.9623        11     1.093     0.802 -81.21   0
       259    727.9794    674.5863 307.6185602  +6.4194468     3854.149     5300.454     5917.358     78.47582     156.7641     313.9658      1.438     2.72     857.5573     55.35809     680.8026        21     1.230     0.823 -85.79   0
       260    750.1155    672.9248 307.6094230  +6.4208737     4671.876     6192.829     6124.439     78.84982     157.3884     314.1219      1.375     2.85     857.2366     55.35809     788.1353        22     1.217     0.867 -70.70   0
       261    581.5657    670.6368 307.6794972  +6.4161733     3498.434     4887.934     5260.827     78.47582     156.8266     313.8408      1.437     2.89     859.4443     55.35809     561.6329        22     1.344     0.817 -70.64   0
       262   1022.8416    669.0896 307.4962883  +6.4315712     5342.911       6937.9     6976.271     76.96168     136.6437     249.4237      1.373     2.91     852.7166     55.35809     877.3816        22     1.298     0.851 -81.41  24
       263    417.6212    671.3987 307.7475547  +6.4103587     1537.145      2195.08     2217.095     78.35076     156.7641     313.7783      1.497     3.13     861.2064     55.35809     214.7137        13     0.993     0.837 -51.32   0
       264    325.5221    669.5574 307.7858632  +6.4080254     1559.017      1941.88     2484.506     78.60069     157.0766     314.1219      1.376     3.46     862.1858     55.35809     257.7963        12     1.173     0.666 -82.95   0
       265    242.0589    670.1027 307.8205045  +6.4049942     1838.581     2807.093     2954.293     78.47582     157.0766     314.1843      1.614     3.32     861.7418     55.35809     283.4658        16     1.217     0.797 -84.42   0
       266    988.3160    667.9539 307.5106650  +6.4308877     8956.453     12306.16     13025.72     78.72535     157.0766     314.0907      1.441     2.79     853.6567     55.35809     1445.816        33     1.329     0.983 -75.86   0
       267    542.3239    668.8552 307.6958538  +6.4155932     625.0214     863.9622      915.561     78.72535     157.0766      313.997      1.571     2.42     860.0417     55.35809     116.9185         5     0.741     0.422 -70.65   0
       268    708.1827    666.7467 307.6270452  +6.4220210     1162.982     1431.714     1535.235      78.2255      157.139     313.7783      1.274     3.28     857.7928     55.35809     201.0461        11     1.056     0.710  81.83   0
       269    146.8030    661.1573 307.8603632  +6.4054822     26315.75     37087.57     38863.52     78.10004     156.6389      313.747      1.463     2.92     862.4425     55.35809     4107.367        55     1.465     1.084 -72.02   0
       270     99.7208    664.4990 307.8798015  +6.4025171     1008.818     1616.921     1700.831     78.47582     157.3884     314.0907      1.602     4.54     862.5724     55.35809     167.7506        10     1.137     0.655  89.77   0
       271    815.0810    661.9388 307.5828122  +6.4275830     1390.167      1556.03      1789.09     78.84982     157.0766     314.0282      1.300     3.59     856.7272     55.35809     211.8898        11     1.043     0.677 -85.48   0
       272    433.6788    662.0375 307.7412020  +6.4147629      3217.88     4558.926     5162.155     78.60069      157.139     314.0594      1.483     3.17     860.8628     55.35809     482.6069        22     1.339     0.884 -73.42   0
       273    651.2956    662.0939 307.6508266  +6.4220371     620.8771      641.318     62.22976     78.72535     157.6996      313.997      1.133     4.25     858.4879     55.35809     98.66168         7     0.881     0.586 -60.07   0
       274    366.3404    655.6090 307.7693832  +6.4151558      907.623     1264.012     1099.122     78.10004     156.9516     313.7783      1.513     4.35     861.4716     55.35809     173.0107         9     1.268     0.543 -77.41   0
       275    983.2106    650.8858 307.5133578  +6.4377646     7290.271     11197.96     11744.18     78.35076     156.8266     313.9033      1.609     2.93      853.196     55.35809     1078.446        38     1.423     1.170  75.52   0
       276     27.9403    649.8654 307.9101041  +6.4061403     1341.865         2022     2315.066     78.84982     157.0141     314.0907      1.644     3.45     862.9605     55.35809     223.1871        12     1.126     0.674 -69.66   0
       277    576.7859    646.1056 307.6823083  +6.4261416     53543.62     73748.75     77129.15     78.47582     156.8266     313.9033      1.421     2.85     858.8377     55.35809     8703.678        65     1.460     1.086 -74.90   0
       278    941.2815    647.4477 307.5308868  +6.4377840     776.9709     935.7872     791.5403     78.72535     157.0766     314.0907      1.398     3.79     854.2925     55.35809     131.3865         8     0.944     0.614 -66.78   0
       279    219.8800    647.8879 307.8304653  +6.4134200     668.5392     865.2218     858.9602     78.47582     157.3261     314.1843      1.284     2.69     860.9079     55.35809     121.7386         6     0.888     0.436 -55.12   0
       280    536.0908    646.5776 307.6991928  +6.4245823     790.1719     1175.916     1304.261     78.72535     156.8892     313.9345      1.452     3.18     859.4405     55.35809     137.0008         6     0.960     0.465 -60.34   0
       281    184.2183    642.6001 307.8454534  +6.4144033     2950.001     4187.237     4253.642     78.35076     156.6389      313.747      1.502     3.43     861.6027     55.35809     473.8793        21     1.301     0.881 -74.68   0
       282    987.8829    642.3459 307.5117038  +6.4414466     753.9086     870.9246     1167.972     78.72535     157.0766     314.1531      1.325     3.97     852.7289     55.35809     96.98041         9     0.930     0.675  71.28   0
       283    506.8110    643.1600 307.7114676  +6.4250112     726.4042     1026.948     951.0839     78.10004     156.8892     313.8095      1.258     2.70     859.8045     55.35809     138.2397         6     0.880     0.552  70.17   0
       284     77.0158    636.8541 307.8901655  +6.4131660     1549.886     2034.202     2075.177     78.10004     157.0766     313.7783      1.370     2.88     862.3136     55.35809     227.0652        12     1.018     0.701 -81.47   0
       285    474.0496    629.8728 307.7255210  +6.4293981     68717.21     94937.83     98913.57     78.72535      157.139     314.0907      1.437     2.86     860.1696     55.35809     11832.53        75     1.483     1.121 -73.56   0
       286     17.5456    631.5922 307.9150394  +6.4133343      1941.34     2812.398      3278.72      78.2255     156.9516     313.7783      1.646     3.25     862.7953     55.35809     302.2062        16     1.203     0.815 -57.29   0
       287    148.5069    624.8557 307.8608833  +6.4205274     1732.702     2382.291     1637.148     78.60069     157.0766     314.2467      1.319     3.89     861.8984     55.35809     265.1308        13     1.257     0.711 -68.87   0
       288    943.5422    622.8381 307.5307736  +6.4480206     705.6315     810.3185      630.461     78.72535      157.139     314.0594      1.359     4.92     853.4241     55.35809     104.2299         8     1.159     0.591 -56.62   0
       289    427.6001    622.7733 307.7450506  +6.4307702     943.8459     1348.333       1258.9      78.2255     156.7641      313.872      1.392     3.19     860.2358     55.35809      165.167         7     0.926     0.476 -81.56   0
       290    619.9861    621.6367 307.6651910  +6.4376923     937.1411      1161.58     988.6392      78.2255     156.8892     313.8096      1.242     2.78     857.6093     55.35809     179.6321         9     0.896     0.648 -75.47   0
       291    659.8328    627.0266 307.6484611  +6.4368018     986.4439     1012.247     556.0021      78.2255     156.8266      313.872      1.219     2.35     856.9366     55.35809     190.5472         8     0.807     0.601 -58.74   0
       292    319.5409    619.1946 307.7900474  +6.4286179     2295.006     3126.841     3777.664      78.2255     156.9516     313.8408      1.427     3.11     860.0957     55.35809      349.376        18     1.186     0.836  87.93   0
       293    471.6460    617.8369 307.7269250  +6.4342868     843.2197     1402.464     1875.432     78.47582     157.0766     313.9658      1.763     5.43     860.0695     55.35809     125.8617        10     1.299     0.640 -59.95   0
       294    746.0292    613.5009 307.6131178  +6.4452724     5891.503     8022.455     8868.074     78.72535     156.8266     314.0907      1.388     2.81     855.9055     55.35809      991.014        23     1.226     0.869 -65.76   0
       295    799.6519    608.7141 307.5910083  +6.4490429     15680.93     21089.87     22294.46     78.72535     157.0141     314.1531      1.388     2.74     855.6415     55.35809     2380.304        38     1.374     0.943 -75.13   0
       296   1016.8624    609.4318 307.5007718  +6.4560040     1031.855     1615.255     1742.493     78.47582      157.139     313.0587      1.557     2.67     850.6171     55.35809     205.1077         8     0.920     0.569 -66.49  16
       297    541.9680    608.0002 307.6980516  +6.4407072     1171.748     2172.073     2351.377     77.97438     156.8891     313.8095      1.981     4.88     858.1307     55.35809       182.71        17     1.587     0.814 -81.57   0
       298    623.4958    606.7808 307.6642335  +6.4439437     3147.837     4110.621      4436.14     78.60069     156.8892      313.872      1.377     2.83     857.1223     55.35809     452.2911        18     1.128     0.834 -87.77   0
       299     44.3745    607.9914 307.9046973  +6.4239825     643.5145     669.8926     893.5424     78.35076     156.8892     313.9033      1.298     3.63      862.201     55.35809     119.5256         5     0.831     0.498 -40.68   0
       300    940.6663    602.9642 307.5326350  +6.4561303     1253.297     1782.502     2095.258     78.60069      157.139     314.1219      1.438     3.44     852.8933     55.35809     218.2455        11     1.087     0.699 -69.41   0
       301    381.7501    600.4275 307.7648457  +6.4384566     936.2922     1364.635     1410.499     78.35076     157.2014      313.997      1.240     2.75     859.5032     55.35809     184.5525         8     0.999     0.511 -69.22   0
       302    235.9001    600.3710 307.8254182  +6.4335774     1539.085     2242.617     2910.907     78.72535     156.8266     314.0907      1.638     3.58     859.2532     55.35809     230.3042        14     1.155     0.800 -57.60   0
       303    199.7450    601.4495 307.8403965  +6.4319157     676.6556     874.3064     920.9263     78.72535     157.0766     314.0907      1.178     3.44     860.0768     55.35809     112.0026         5     0.773     0.442 -21.18   0
       304    875.7288    591.9675 307.5599744  +6.4585011     3069.754     4114.299     4566.448     78.60069     157.0766     314.0282      1.431     2.80     853.7454     55.35809     484.9131        21     1.211     0.872 -64.44   0
       305    171.1138    591.8458 307.8526113  +6.4349172     742.5106     1114.088     1661.077     78.72535     156.9516     314.0594      1.525     4.21     860.7475     55.35809     146.5154         7     1.301     0.589 -62.82   0
       306    834.4122    589.6066 307.5772136  +6.4580946     2799.791     3854.281     4008.836     78.35076     156.8892     313.9658      1.438     2.53     854.5028     55.35809     458.9231        20     1.215     0.860 -72.33   0
       307    815.0415    580.5873 307.5855618  +6.4611708     177103.6     239487.4       251088     78.10004     156.8892     313.8096      1.420     2.63       854.67     55.35809     31122.26       119     1.519     1.187 -72.78   0
       308    805.3839    585.3165 307.5894139  +6.4588952     2770.357     4165.632     5676.461     78.35076     156.7641     313.9658      1.779     2.86     854.9547     55.35809     463.0416        19     1.270     0.906 -80.70   0
       309    748.0295    586.0195 307.6132110  +6.4566860     756.0995     978.7649     1787.277     78.35076     156.8891     313.9345      1.810     3.48     855.1968     55.35809     135.0792         9     0.895     0.762 -17.62   0
       310    262.4789    584.3447 307.8149217  +6.4410882     8628.313     11558.42     11663.94     78.84982     157.0766     314.0907      1.437     2.85     858.8878     55.35809     1244.048        28     1.295     0.937 -71.43   0
       311    196.6511    578.8185 307.8424464  +6.4411553     63372.57     89919.27     95771.14      78.2255      157.139     313.8096      1.487     2.87     859.5905     55.35809     9522.299        87     1.554     1.196 -68.46   0
       312    120.6447    575.1203 307.8741362  +6.4401234     6667.557     9646.665     9907.213     78.72535     157.0766     314.0594      1.536     3.07     861.1515     55.35809     906.8933        35     1.430     1.108 -67.87   0
       313    985.9520    572.4984 307.5148485  +6.4702217     1481.789     1724.132     1686.368     78.72535     157.0141     314.2467      1.220     2.78     851.0375     55.35809     255.3496        11     0.974     0.701 -73.37   0
       314   1006.5694    571.6727 307.5063130  +6.4712509     877.8135     1066.287     473.6404     78.60069     157.0766     314.0594      1.331     3.53      850.587     55.35809     157.1184         7     0.978     0.648 -46.80   0
       315    234.9594    570.8095 307.8268079  +6.4457509     741.9057     1302.375     1747.484     78.10004     156.8892     313.7783      2.021     4.52     858.6147     55.35809     108.3587         9     1.084     0.664 -44.09   0
       316    851.6262    567.8923 307.5707935  +6.4676358     4824.097     6633.611     7028.681     78.84982     156.8266     313.9033      1.404     2.83     853.7481     55.35809     760.2602        26     1.371     0.860 -78.37   0
       317    370.0653    565.9882 307.7708607  +6.4522833     18288.05     26053.53     27167.67      78.2255     156.8891     313.9345      1.479     2.96     858.2623     55.35809     3023.719        43     1.420     1.046 -73.79   0
       318    460.4365    566.0800 307.7333253  +6.4552800     825.5082     1174.369     1017.452     78.60069      157.139     314.0594      1.695     4.68       858.34     55.35809     137.4859         8     1.058     0.588 -45.75   0
       319    171.8497    565.0773 307.8532109  +6.4459939     2147.331     3075.675     4655.683     78.72535      157.139     314.0282      1.488     2.89     859.8361     55.35809     393.3055        16     1.173     0.817 -83.69   0
       320    805.5253    561.1877 307.5901660  +6.4688624     6461.488     8884.434     9539.092      78.2255     156.7641     313.8408      1.427     2.77      854.345     55.35809     944.5817        27     1.328     0.915 -76.66   0
       321    247.0729    562.7690 307.8220488  +6.4494781     894.5781     1533.601     1222.731     78.60069     157.0766     314.0594      1.631     4.69     858.3851     55.35809     138.1376        12     1.285     0.765 -65.94   0
       322    536.3873    560.8619 307.7019575  +6.4599827     6942.886     9622.075     9538.909      78.2255     156.8892     313.7783      1.433     2.71     857.0118     55.35809     1128.941        31     1.339     0.961 -77.26   0
       323    109.0646    562.1946 307.8793826  +6.4450700     868.2884     1127.755     1597.492     78.10004     156.8266     313.8408      1.379     2.94     861.2444     55.35809     130.8804         8     0.832     0.628 -46.59   0
       324    394.4935    557.5244 307.7610010  +6.4565984     1466.008     1792.702     1372.919     78.60069     157.2637     314.0594      1.289     3.07     858.0399     55.35809     254.4744        11     1.059     0.666 -76.63   0
       325    183.4297    553.9857 307.8487768  +6.4509631     7240.356     10670.26     11722.56     78.35076     156.8266      313.997      1.530     2.94      859.234     55.35809     1061.621        37     1.431     1.085 -71.04   0
       326    864.5636    554.2722 307.5658776  +6.4736919     638.8038      862.276     982.3141     78.60069     157.0766     314.0907      1.388     3.42     853.3036     55.35809     127.1227         5     0.908     0.481 -80.96   0
       327    581.0410    553.9844 307.6836435  +6.4643195     2579.785     4071.638     4001.872      78.2255     156.8891     313.8408      1.595     3.80     856.1793     55.35809     408.8853        22     1.418     0.887 -38.32   0
       328    278.6454    550.4717 307.8093520  +6.4556171     94482.13       133105     140057.7     78.60069     157.0766     314.0594      1.519     2.86     857.8446     55.35809     13018.77        87     1.537     1.177 -72.44   0
       329    822.1422    553.5709 307.5835204  +6.4725631     1543.531     1899.858      2021.91     78.35076      157.139     313.9658      1.368     2.64     853.9371     55.35809     280.4297        12     0.985     0.732 -67.52   0
       330     55.0331    552.7192 307.9021421  +6.4471618     5370.979       7679.7     7867.745     78.60069     157.0141     314.0282      1.488     2.86     861.9795     55.35809     861.7676        29     1.273     1.042 -79.04   0
       331    568.1292    547.9262 307.6892102  +6.4663880     952.9968     1263.531     1155.112     78.97409     157.2014     314.0907      1.431     3.75     856.1819     55.35809     149.6086        11     1.110     0.729 -48.97   0
       332    801.7691    542.9736 307.5923382  +6.4762572     17995.31     24687.83     25436.15      78.2255     156.8266     313.9033      1.410     2.78     853.9702     55.35809     3020.296        43     1.387     0.990 -73.90   0
       333    505.4253    541.3543 307.7154742  +6.4669984     43579.49     66693.59      71705.7      78.2255      157.139     313.9345      1.684     2.95     856.8749     55.35809     6056.089        79     1.561     1.392 -66.58   0
       334    262.4816    545.4835 307.8162335  +6.4571330       1776.2     2630.265     1831.765     78.47583     157.3261     314.1219      1.541     3.22     857.8285     55.35809     257.7163        14     1.113     0.786 -76.60   0
       335    978.1058    544.2247 307.5190558  +6.4816337     1840.447     2324.002     2468.017     78.84982     156.8266     313.9033      1.394     3.23     850.6864     55.35809     305.2816        12     1.161     0.627 -74.56   0
       336    655.7112    540.1233 307.6530974  +6.4725449      869.149     971.1125     1655.631     78.72535     157.3884     314.1219      1.174     2.88     855.2598     55.35809      151.869         7     0.809     0.594  74.86   0
       337    217.8323    537.5456 307.8350450  +6.4589084     2034.364      2979.22     2830.599     78.60069     157.0766     314.0282      1.546     3.61     858.1792     55.35809     281.6749        16     1.276     0.740 -72.50   0
       338     53.6099    537.9213 307.9032342  +6.4532233     1177.568     1575.907     1595.778     78.35076     156.7015     313.9033      1.406     3.95     861.9225     55.35809     191.2169        13     1.271     0.693 -76.39   0
       339    665.2871    536.3679 307.6492465  +6.4744162     3185.944     4583.605     5018.413     78.84982     156.8892     314.0594      1.477     2.81     855.1044     55.35809     521.4547        21     1.195     0.878 -79.48   0
       340    675.5320    536.4727 307.6449879  +6.4747161     1426.732     1835.916     2324.837     78.84982     157.2014     314.0594      1.350     2.80     855.0209     55.35809     210.4167        10     0.931     0.685 -87.37   0
       341    727.3917    535.3129 307.6234877  +6.4769314     1404.882     2035.008     2092.001     78.35076     156.7641     313.8408      1.304     2.40     854.1744     55.35809      256.686         9     0.939     0.556  78.80   0
       342     84.2829    533.9926 307.8906287  +6.4558789     778.2164     1258.012     1137.434     78.35076     156.7641     313.9345      1.676     2.53     861.4326     55.35809     142.6413         7     0.695     0.679 -60.33   0
       343    403.1400    532.1160 307.7582672  +6.4673793     1951.248     2529.623     2232.013     78.84982      157.139     314.1219      1.327     2.86     856.6973     55.35809     349.3995        16     1.105     0.827 -77.27   0
       344    334.6362    530.1309 307.7867853  +6.4658975     4040.048     5963.909      6519.93     78.60069      157.139     314.1531      1.545     2.97     856.6418     55.35809     581.0013        25     1.475     0.873 -77.65   0
       345    149.7439    528.8019 307.8636182  +6.4602267     27514.89     39463.46     41796.45     78.10004     156.7641     313.7783      1.512     2.92     859.4609     55.35809     4259.662        60     1.495     1.143 -71.99   0
       346    514.4145    529.7525 307.7121317  +6.4720901     2423.127     3327.827     3596.159     78.10004     156.9516     313.8096      1.458     2.92     856.1935     55.35809     378.7458        18     1.127     0.920 -71.00   0
       347    877.5711    529.0911 307.5613206  +6.4845237     1665.152     2218.963     2070.623     78.84982     156.8266     313.9658      1.304     3.12     852.2932     55.35809     313.6093        13     1.056     0.792 -54.37   0
       348    419.4264    529.4952 307.7515915  +6.4690083     606.8266     775.9203     575.7973     78.84982     156.8266     313.9345      1.420     3.58     856.5068     55.35809     108.5369         6     0.929     0.409  70.50   0
       349    115.0433    527.0780 307.8780879  +6.4597699     2768.681     4100.917     3906.397     78.60069     157.0766     314.0907      1.533     3.31     860.5128     55.35809      476.298        21     1.280     0.907 -73.01   0
       350    351.7019    525.4954 307.7798540  +6.4683848     1140.475     1530.278     1648.346     78.72535     157.6374     313.9033      1.370     3.16     856.1729     55.35809     230.6094        13     1.131     0.787 -87.01   0
       351    975.3038    523.5693 307.5209126  +6.4900686     5793.822     7560.729     7743.965     78.84982     156.8266     314.1219      1.359     2.69     849.9993     55.35809     917.1161        24     1.249     0.857 -72.92   0
       352    139.8144    518.4006 307.8680939  +6.4641868     457.0423     570.8751     572.1884     78.35076     156.7641     313.8408      1.195     3.86     859.5586     55.35809     87.56342         5     0.883     0.532  52.07   0
       353    548.3824    516.1580 307.6984818  +6.4788424     1450.905     2061.565      1894.42      78.2255     156.8892     313.8408      1.435     3.20     855.4109     55.35809       220.37        13     1.041     0.818  80.95   0
       354     14.0202    513.1664 307.9205139  +6.4621093     27174.07     38539.63     40532.22      78.2255     156.8892     313.9033      1.468     2.88     862.6484     55.35809     4376.114        52     1.458     1.080 -72.55   0
       355    446.7749    509.9677 307.7408916  +6.4779890     45757.92     64624.62     67664.71      78.2255     156.8892     313.9033      1.470     2.88     855.1818     55.35809     7287.312        65     1.470     1.128 -75.08   0
       356    423.4299    512.6904 307.7504957  +6.4760811     591.3188     696.6432      747.278     78.84982     156.8266     314.0282      1.338     3.68     855.4023     55.35809     119.6589         6     1.043     0.481 -82.70   0
       357    654.7725    509.6976 307.6545113  +6.4850757     13362.42      18346.2     18428.05     78.84982     156.8266     314.0282      1.418     2.81      854.397     55.35809     2117.537        36     1.339     0.998 -74.92   0
       358    294.2248    510.5475 307.8042302  +6.4726246     982.7579     1157.139     896.3409      78.2255     157.0766     313.9658      1.298     4.10     856.1747     55.35809     155.8454         9     1.128     0.573 -69.74   0
       359    211.9163    507.5468 307.8385160  +6.4710950     20478.05     30871.58        32362     78.72535     157.0766     314.1843      1.641     3.08     857.9102     55.35809     3009.426        52     1.464     1.232  88.27   0
       360    828.7368    508.3779 307.5822998  +6.4914433     948.6475     1367.352      1307.97     78.35076     157.0766     313.9345      1.296     4.65     852.7086     55.35809      177.086        10     1.321     0.656  87.71   0
       361    177.5840    508.6771 307.8527365  +6.4694729     1759.618     2452.084     2512.862      78.2255     156.8266     313.9345      1.481     2.77     858.4798     55.35809     266.1912        16     1.055     0.868 -68.48   0
       362      1.4988    507.0212 307.9259222  +6.4642242     1571.725     2882.045     4025.699     70.30259     127.1261     238.8597      2.382     6.88      863.014     55.35809     253.4048        18     2.001     0.682 -89.88  24
       363    988.6938    508.0970 307.5158700  +6.4969040     1060.668     1518.029     1519.937     78.72535     157.6374     313.9658      1.631     3.48     848.9933     55.35809     188.5692         9     1.054     0.625 -72.71   0
       364    917.1614    507.4064 307.5456048  +6.4948001     838.6061     1202.904     1016.611     77.84851     156.7641     313.7783      1.435     3.69     850.9787     55.35809     139.1213         8     1.073     0.594 -81.07   0
       365    576.6471    506.5183 307.6870671  +6.4837702     3184.161      4210.45     3965.322     78.72535     157.0766     314.0907      1.354     2.78     854.9474     55.35809     487.9042        19     1.207     0.793 -75.50   0
       366    950.3899    503.7370 307.5319262  +6.4974252     5232.228     7274.862     7250.341      78.2255     156.8892      313.872      1.407     2.79     850.0692     55.35809     947.8154        26     1.268     0.921 -81.51   0
       367    623.6312    502.1212 307.6677007  +6.4871605     6914.924     9634.773     10117.07     78.60069     157.0766     314.0282      1.451     2.83     854.5031     55.35809     1047.126        28     1.322     0.910 -72.09   0
       368    111.2149    502.7791 307.8805001  +6.4696732     1141.856     1683.349     1643.099     78.47582     156.8266     313.9658      1.405     3.33      860.114     55.35809      180.064         9     0.990     0.598 -61.18   0
       369    522.1180    501.5259 307.7098835  +6.4840028     480.8099     917.4875     1180.078     78.97409     157.3884     314.1219      1.729     4.24     854.8396     55.35809     89.55707         6     1.041     0.493  -4.98   0
       370    973.1032    496.0196 307.5227509  +6.5013701     3711.725     4966.968     4985.409     78.60069     156.8892     313.8408      1.392     2.93     849.0494     55.35809     616.3928        21     1.240     0.841 -76.72   0
       371    381.7761    493.5285 307.7684424  +6.4825936     2970.309      4234.69     4183.157     78.35076     156.9516      313.997      1.484     2.77     854.0952     55.35809     454.5925        20     1.317     0.806 -86.28   0
       372    535.7851    493.2951 307.7044843  +6.4878596     8052.068     10955.51     11334.81     78.47582     156.8266      313.872      1.436     2.83     854.5649     55.35809      1271.65        30     1.321     0.947 -73.60   0
       373    411.7111    495.0139 307.7559592  +6.4829858     885.9208     1269.756     1817.505     78.47582     156.8892     313.9345      1.543     3.23     854.1653     55.35809     146.5423         9     0.941     0.662 -37.46   0
       374    751.1982    493.2597 307.6150139  +6.4950914     508.2177     756.1123     844.5482     78.10004     156.7641     313.7783      1.748     3.66     853.2997     55.35809     90.14288         5     1.174     0.328 -78.42   0
       375    104.1383    492.6035 307.8837834  +6.4736360     556.7682      851.278     903.2757     78.10004     156.8892     313.7783      1.565     4.46     860.0955     55.35809      91.7157         7     1.110     0.510 -49.12   0
       376   1003.2276    491.8391 307.5103786  +6.5041020     604.6223      660.477     388.3891     78.35076     156.8892     313.9345      1.429     4.96     847.7867     55.35809     106.9828         7     1.001     0.695 -74.69   0
       377    892.2787    489.1098 307.5565544  +6.5015231      3385.13     4754.094     5524.246     78.47582     157.3261     314.1219      1.415     2.79     850.8849     55.35809     547.5203        21     1.287     0.821 -68.87   0
       378    545.3333    489.7339 307.7006386  +6.4896501     687.2604     757.6699     949.4326     78.72535     157.0766     314.0907      1.186     2.99     854.5511     55.35809     135.4116         5     0.746     0.436 -72.76   0
       379    899.7354    483.5448 307.5536440  +6.5040700     2356.677     3030.705     3369.866     78.84982     157.0141     314.0594      1.303     2.88     850.6783     55.35809      378.955        16     1.155     0.716 -82.80   0
       380    939.1139    482.8638 307.5373104  +6.5056668     1316.171      1901.12      1802.26     78.84982     157.2014     314.0594      1.395     2.92      849.994     55.35809       218.98        11     1.034     0.708 -81.03   0
       381    118.5567    482.8750 307.8781244  +6.4781382     866.8542     1270.047     1440.936     78.60069      157.139     314.0907      1.414     2.46     859.4562     55.35809      159.897         6     0.761     0.495  85.86   0
       382    723.6191    479.5564 307.6269299  +6.4998261      3320.44     4497.372      4777.81      78.2255     156.9516     313.8408      1.405     2.79     853.1377     55.35809     487.7601        18     1.171     0.839  89.65   0
       383    434.9313    477.9937 307.7468891  +6.4907927     1040.303     1452.104     2122.315      78.2255     156.7015     313.9033      1.546     3.39     853.0966     55.35809     139.3939        11     1.002     0.729 -88.08   0
       384    394.5264    477.7772 307.7636783  +6.4895252     4039.687     5762.073     6095.869     78.35076     156.8892     314.0282      1.509     2.94     853.1125     55.35809     569.7344        23     1.259     0.931 -86.58   0
       385     85.2869    478.3988 307.8920934  +6.4788655     2092.465     2814.874       3103.1     77.97438     156.6389     313.7783      1.382     3.10     860.3224     55.35809       300.21        17     1.085     0.945 -65.03   0
       386    622.2410    474.2838 307.6692154  +6.4986075     10882.37     14993.11      15601.9     78.72535     157.0141      313.997      1.428     2.78     853.6568     55.35809     1773.831        34     1.317     0.989 -71.30   0
       387    784.9515    470.8593 307.6017473  +6.5054697     18136.22     24560.15     25653.46     78.72535     157.0766     314.1219      1.404     2.72     852.5162     55.35809      3199.71        43     1.367     1.004 -69.72   2
       388    788.8284    466.4035 307.6002867  +6.5074391      1578.91     2333.219     2937.805      78.2255     156.8266     313.9033      1.613     3.05     852.2729     55.35809     272.7477        12     1.018     0.784 -75.30   3
       389    304.5761    471.1294 307.8012625  +6.4892473     2965.953     4321.577      3900.49     78.35076     156.9516      313.997      1.492     2.87     854.2352     55.35809     443.3071        21     1.302     0.863 -79.66   0
       390    428.5584    470.6669 307.7497832  +6.4936038     807.6642      981.046     1739.175     78.72535     157.0141     314.1219      1.285     3.54     852.8448     55.35809     136.3073         9     0.885     0.850  81.49   0
       391    814.0175    468.2273 307.5897627  +6.5075287     1433.763     1842.303     1981.652     78.35076     156.8892     313.9658      1.352     3.12     851.9388     55.35809     253.7509        12     1.101     0.673 -81.56   0
       392    387.6705    467.8119 307.7668621  +6.4934094     1831.452     2420.873     2812.752      78.2255     156.8266      313.872      1.380     3.09     852.7988     55.35809     278.2889        16     1.152     0.831 -80.66   0
       393    914.2243    468.0063 307.5481475  +6.5109698     592.4951     918.5443     1140.434      78.2255     156.8892     313.9345      1.504     3.98     849.8622     55.35809      96.8125         6     0.995     0.456 -51.40   0
       394    970.2098    465.7930 307.5249670  +6.5137538     2219.883     3069.479     3292.681      78.2255     156.8892     313.9345      1.392     2.90     847.9643     55.35809     407.2309        14     1.128     0.713 -66.65   0
       395    403.1036    467.6404 307.7604578  +6.4939986     555.9193     683.3519     573.1075     78.72535     156.9516     314.2155      1.073     3.83      852.778     55.35809     96.95648         6     0.993     0.424  14.52   0
       396    718.4971    464.9825 307.6295476  +6.5056720     749.1743     992.9906     1406.333     78.60069     156.8892     313.8408      1.370     4.25     852.4596     55.35809     127.4799         8     1.117     0.460 -78.95   0
       397    122.3317    462.7050 307.8772390  +6.4865929     4702.855     6797.516      7462.39     78.60069     157.2014     314.0907      1.528     3.02     858.8307     55.35809     659.3076        29     1.335     1.036 -82.33   0
       398    376.5164    464.0559 307.7716216  +6.4945855     726.3235     1037.388     1490.992     78.72535     157.0766     314.1531      1.495     2.79     852.6902     55.35809     129.8811         6     0.802     0.703 -78.07   0
       399   1023.3146    460.3585 307.5030909  +6.5177706     3105.422     4026.458      4161.59      72.7701     130.0997     242.1219      1.311     3.34     845.6442     55.35809     487.4918        18     1.395     0.725  84.72  24
       400    760.4904    461.7357 307.6122143  +6.5084182     2426.917     3344.366     3347.257     78.60069     157.2637     314.1219      1.456     2.83     852.1638     55.35809     381.6133        15     1.077     0.768 -62.19   0
       401    280.2396    459.8653 307.8117508  +6.4930796     1718.523     2412.706     3259.498     78.72535     157.0141     314.1531      1.471     3.38      854.576     55.35809      285.013        15     1.224     0.730  88.73   0
       402    358.3980    457.5587 307.7793663  +6.4966592     3630.805      5128.42       4795.4     78.10004     156.8266     313.7783      1.468     2.72     852.5452     55.35809     527.0236        22     1.238     0.924 -71.71   0
       403    714.3149    455.4825 307.6316043  +6.5094544     1866.042     2651.546     2670.989     78.47582     157.3261     314.1219      1.475     2.93     852.0236     55.35809     304.0421        13     0.978     0.846 -66.51   0
       404    417.9221    454.0624 307.7547612  +6.5001023     515.2168     693.8902     1383.702     78.97409      157.139     314.0282      1.575     3.82     852.2783     55.35809     93.91858         5     1.251     0.334  63.27   0
       405    988.3561    453.7497 307.5178335  +6.5193323     673.0274     981.4686     915.6836     78.84982     156.9516     314.0907      1.435     2.95     846.7444     55.35809     132.2312         5     0.763     0.414 -67.92   0
       406    246.2352    453.3640 307.8260938  +6.4946202     1052.714     1614.841     1912.717     78.47582     156.8266     313.8096      1.544     3.33     855.5809     55.35809     160.6212        11     1.020     0.700 -52.44   0
       407    456.9741    449.0305 307.7387106  +6.5034910     718.0142     1131.737     909.6713      78.2255     156.8892     313.9033      1.636     4.66     851.9095     55.35809     117.5414         8     0.963     0.851 -42.29   0
       408    555.6378    448.1895 307.6977584  +6.5071486     1047.783     1550.945     1907.194     78.10004     156.8892      313.747      1.642     3.35     852.2365     55.35809     148.7915        12     1.087     0.739 -71.67   0
       409    477.9813    446.5521 307.7300688  +6.5052194     1430.386     1966.544      2459.39      78.2255     157.0766      313.872      1.522     3.51     851.7142     55.35809     206.3193        13     1.104     0.788 -73.34   0
       410    826.0110    444.6239 307.5855742  +6.5176754     2105.414     2808.619     2832.086     78.35076     156.8892     313.9658      1.389     2.85      850.613     55.35809     389.4747        15     1.295     0.729 -69.13   0
       411    840.6584    445.3107 307.5794670  +6.5178816     1562.578     2167.058     2301.287     78.60069     157.0141     314.1843      1.424     3.14     850.2103     55.35809     267.4192        13     1.096     0.699 -67.97   0
       412    723.4559    442.5352 307.6282430  +6.5151062     16681.54     22265.69     23662.83     78.84982     157.0141     314.0594      1.417     2.71     851.4043     55.35809     2588.263        43     1.454     0.959 -72.96   0
       413    625.8871    444.5754 307.6687012  +6.5109958     711.4015     1077.002     1389.846     78.84982     156.8892     313.9345      1.695     3.40     852.0108     55.35809     96.94684         5     0.776     0.430  22.16   0
       414    644.5966    438.5555 307.6611326  +6.5141082     2987.241     3911.697     4831.646     78.10004     156.7015     313.7158      1.413     2.72     851.6716     55.35809     434.6997        17     1.041     0.860 -79.88   0
       415    619.6822    435.6631 307.6715786  +6.5144676     6062.339     8895.941     9541.859     78.84982     157.0766     314.0594      1.532     2.79     851.5121     55.35809     845.0372        23     1.269     0.874 -69.47   3
       416    615.9170    433.0456 307.6732307  +6.5154221     15873.69      22210.2     23660.73     78.72535     157.0766     314.0594      1.447     2.80     851.3345     55.35809     2697.538        44     1.482     1.031 -76.06   3
       417    948.7061    432.4619 307.5350177  +6.5267977     4212.469     5408.214      5782.19     78.60069     157.0766     314.1219      1.350     2.93      847.137     55.35809     639.3615        21     1.224     0.824 -71.13   0
       418    387.8838    428.3575 307.7681050  +6.5097063      30870.7     43605.41     45375.29     78.72535     157.0141      313.997      1.503     2.88     851.5266     55.35809     4597.507        55     1.445     1.112 -70.89   0
       419    424.9042    430.1747 307.7526670  +6.5101994     615.9412     950.0909     553.7352     78.84982     156.8266     313.9345      1.508     3.91     851.3997     55.35809     94.56921         6     0.761     0.574 -50.19   0
       420    904.4449    428.1354 307.5535483  +6.5271053      1596.46     2239.893     2499.408     78.72535     157.0141     314.0594      1.332     3.08     848.1283     55.35809      253.007        15     1.169     0.739 -72.02   0
       421    133.7434    427.6551 307.8736853  +6.5014482     2357.543     3277.861     3528.494     78.84982      157.139     314.0907      1.501     3.57      857.759     55.35809      370.089        19     1.286     0.862 -83.62   0
       422    900.7849    424.3920 307.5551943  +6.5285286     782.9263     1256.698     1466.507     78.35076     156.8266     313.9033      1.459     4.64     848.0097     55.35809     113.1304         8     0.985     0.620  81.48   0
       423    917.5649    422.8482 307.5482760  +6.5297268     5691.404     7632.664     8196.897     78.47582     157.0766      313.997      1.377     2.81     847.5869     55.35809     911.8309        23     1.198     0.863 -67.80   0
       424    599.4713    424.0518 307.6803646  +6.5185842     623.6385     788.2658     877.1732     78.60069     157.0766     314.0907      1.100     3.70     850.7754     55.35809     111.1866         6     0.807     0.489  80.83   0
       425     67.2462    423.3889 307.9014484  +6.5009693     1457.723      2362.53     2658.625      78.2255     156.8892      313.747      1.697     3.19      858.979     55.35809     215.5969        15     1.088     0.881 -51.75   0
       426    245.4391    418.8946 307.8275894  +6.5088248     14698.69     21052.62     22095.74     78.84982     156.9516     314.1843      1.521     3.00     854.3542     55.35809      2169.27        42     1.427     1.080 -73.32   0
       427    740.1581    412.7491 307.6223072  +6.5279635     736.4063     880.1874     1627.166     78.72535     157.0766     314.0594      1.374     3.52     849.8192     55.35809     138.0101         7     1.016     0.514 -71.49   0
       428    708.2776    412.1711 307.6355691  +6.5271349     710.5397     1054.183     1309.981     78.60069      157.139     314.0907      1.368     4.59     850.1008     55.35809     132.3447         7     0.986     0.607  82.33   0
       429     81.1386    412.8678 307.8960346  +6.5057813      828.735     1258.911      1578.03     78.72535     157.0141     314.0594      1.721     5.23     858.1508     55.35809     118.5591         9     1.001     0.854  81.54   0
       430   1018.0148    411.5630 307.5069289  +6.5377409      544.665       675.63     260.0515     78.35076     156.8892     306.1858      1.365     4.28     843.9711     55.35809     101.0225         6     1.314     0.397  74.38  16
       431    968.7136    411.2376 307.5274191  +6.5362292     1110.316     1410.015     1370.031     78.72535     157.0141     314.0594      1.241     3.23     845.5189     55.35809     184.6216        10     1.075     0.587 -80.11   0
       432    358.2283    408.5332 307.7810919  +6.5168950     1516.056     2224.388     2310.094     78.47582     157.0141     314.0282      1.681     3.61     850.9714     55.35809     218.0768        16     1.198     0.878 -82.16   0
       433    191.1469    408.9726 307.8504751  +6.5110943     787.2173     1187.065     1160.949     78.47582     157.2014     313.9658      1.577     4.39     856.0623     55.35809     135.3719         7     1.020     0.576 -88.09   0
       434    145.6649    407.4363 307.8694179  +6.5101973     5482.394     7785.694     8128.358     78.60069     157.0766     314.1219      1.513     2.92     857.1999     55.35809     845.9572        27     1.429     0.937 -73.70   0
       435    250.4898    406.6553 307.8259053  +6.5140479     1434.383     1836.949     1453.766     78.60069     156.8892     314.1843      1.353     3.38     853.8275     55.35809     200.6971        13     1.045     0.815 -66.16   0
       436    167.8206    402.9127 307.8603686  +6.5128110     2555.648     4370.452     4200.776     78.60069     156.8266     313.9345      1.774     5.47     856.7353     55.35809     398.4706        26     1.886     0.884 -74.64   0
       437    831.8757    404.2626 307.5844944  +6.5345362     858.2037     1324.823     1134.434     78.97409     157.0766     314.0594      1.581     2.80      848.812     55.35809     148.5779         7     0.805     0.642 -50.84   0
       438    563.4698    402.7866 307.6960350  +6.5261572     1132.456     1554.569     1396.117      78.2255     156.8266     313.9345      1.441     3.37     849.6348     55.35809      189.366        12     1.182     0.741 -79.10   0
       439    391.1518    398.2495 307.7677638  +6.5222470     2239.699     3123.158      3211.96     78.72535     156.9516     314.0594      1.452     3.21     850.3453     55.35809     375.4013        20     1.317     0.852 -70.81   0
       440    279.4502    398.9855 307.8141356  +6.5181887     811.6091     1196.189     912.4417     78.10004     157.0766     313.7783      1.548     2.63     852.5863     55.35809     141.6117         6     0.766     0.490  81.75   0
       441    979.7650    397.5570 307.5232876  +6.5422468     1063.394     1428.911     1591.551     78.47582     157.0766     313.9033      1.451     2.66      844.559     55.35809     198.4007         8     0.802     0.703 -42.38   0
       442     10.1246    398.5483 307.9260144  +6.5092994     752.3712     854.5338      540.761     78.72535      157.139     314.0594      1.072     2.34     859.6948     55.35809     130.1815         6     0.743     0.496   4.34   0
       443    325.3594    395.7886 307.7951747  +6.5210522     610.4966     1151.436     1739.407     78.10004     156.8892     313.8095      2.324     4.67     851.1756     55.35809      93.4082         7     1.009     0.614  40.89   0
       444    444.9963    391.7350 307.7456183  +6.5267449     7843.222     11296.58     11666.79     77.97437     156.8266     313.8408      1.504     2.95     849.7697     55.35809     1249.433        35     1.393     1.032 -73.00   0
       445     41.5145    392.4134 307.9131847  +6.5128906     3405.925     5251.416     5481.968     78.35076     156.8892     313.9658      1.676     3.77      858.518     55.35809     529.0095        28     1.613     0.972 -60.97   0
       446    777.6519    390.7778 307.6074717  +6.5382900     2086.186     2792.567     3167.355      78.2255     157.0766     313.9033      1.443     3.15     848.7532     55.35809     331.0099        15     1.185     0.755 -78.71   0
       447    205.4014    391.4406 307.8451473  +6.5188125     498.2164     741.1136      848.792     77.97438     156.8266     313.8096      1.348     3.92     855.0162     55.35809     84.14075         5     0.998     0.441  76.15   0
       448    785.5997    389.1241 307.6042258  +6.5392387     14053.17     19333.62     20201.61     77.97437      156.451     313.8408      1.400     2.73     848.6545     55.35809     2119.455        41     1.365     1.017 -74.87   0
       449    348.9987    387.3377 307.7856411  +6.5253358     1092.596     1330.343     1589.055     78.10004     156.8892     313.7783      1.472     4.74     850.1141     55.35809     177.0297        13     1.335     0.731 -88.91   0
       450    193.9704    379.5555 307.8502971  +6.5233348     836.3107     1174.284     845.5121     78.35076     157.0766     313.9033      1.446     3.08     855.1044     55.35809     161.8383         8     0.920     0.645 -84.30   0
       451      1.2442    377.4453 307.9304177  +6.5177126      523.071     1028.255     1663.737     67.45514     123.6061     234.8436      1.995     4.95     858.3837     55.35809     89.92377         8     1.616     0.429 -89.03  24
       452    465.4536    376.1107 307.7376479  +6.5338826     2524.807     3532.683     3660.515     78.72535     156.8892     314.1843      1.443     2.93     849.0216     55.35809      422.811        20     1.245     0.885 -76.26   0
       453    399.9770    378.2127 307.7647743  +6.5308161     458.4987     883.5718     1262.788     78.47582     156.8892     313.9658      1.846     3.79     849.4655     55.35809     86.30463         5     0.831     0.495 -50.99   0
       454    493.1606    375.3039 307.7261662  +6.5351457     3386.913     4720.222      4562.61     78.72535     156.9516     314.1843      1.458     2.99     848.7037     55.35809     529.2051        22     1.283     0.866 -74.55   0
       455    921.6254    375.4733 307.5481799  +6.5494230     725.7072     926.7792     1036.157     78.35076     156.9516      313.997      1.372     3.49     845.8221     55.35809     139.9291         5     1.021     0.344 -69.26   0
       456    851.0044    372.0844 307.5776297  +6.5484618     36113.14     51348.47      54157.1      78.2255     156.7015      313.747      1.476     3.13     847.4755     55.35809     5906.907        56     1.534     1.038 -78.76   0
       457    996.5773    372.6619 307.5171390  +6.5530871     538.2026     853.1046     668.1664     78.35076     157.0766     313.9658      1.582     4.20     842.6887     55.35809     78.43817         5     1.021     0.492  86.88   0
       458    343.0578    367.5419 307.7887773  +6.5333093     1019.973     1337.253     1164.932     78.72535     157.0141     314.0907      1.469     3.79     849.5135     55.35809     160.4359        12     1.143     0.706 -81.87   0
       459     68.4522    368.0549 307.9028210  +6.5238554     536.5763      1013.08     1401.535     78.84982     157.0766     314.0282      1.540     3.73     857.1698     55.35809     89.48676         6     0.809     0.494 -84.64   0
       460    622.8091    364.4623 307.6726774  +6.5439699     2889.853     3854.262      3723.48     78.10004     156.8892     313.8408      1.358     2.53     848.2927     55.35809     471.9819        17     1.118     0.820 -84.86   0
       461     30.9227    365.0211 307.9185117  +6.5238428     1202.732     1614.354     1293.746     78.35076     156.8266     314.0282      1.390     3.32     857.3306     55.35809     210.0475        11     1.124     0.643 -66.16   0
       462    707.4843    358.0494 307.6377197  +6.5494543      86489.6     119127.2     125395.4     78.72535     157.0766     314.1219      1.433     2.79     847.1908     55.35809     13701.78        87     1.487     1.182 -72.91   0
       463    154.4967    363.0733 307.8672504  +6.5288108     636.2477     780.1832     128.3326     78.35076     157.2637     314.0282      1.503     4.26     855.9735     55.35809     103.6742         5     0.760     0.679  19.91   0
       464    865.6558    359.5456 307.5719648  +6.5541287     1189.788     1537.658     1510.554     78.84982      157.139     314.0594      1.308     2.75     847.0359     55.35809     221.1052        10     0.994     0.649 -59.80   0
       465     86.7315    357.7328 307.8955780  +6.5287330     1320.923      2103.44     2243.121     78.72535      157.139     314.0907      1.636     3.58      856.797     55.35809     196.6187        12     1.164     0.784 -77.12   0
       466    948.7896    355.3106 307.5375726  +6.5586554     881.2971     1119.533     1238.726     78.47582     156.7641      313.872      1.458     4.19     844.0192     55.35809     159.7459        10     1.108     0.620 -69.26   0
       467    569.8857    354.6752 307.6949910  +6.5462366     2936.153     4188.149     4497.492     78.84982     157.3884     314.1219      1.476     3.03     847.3365     55.35809     498.7317        20     1.186     0.916 -78.49   0
       468    107.1614    353.4537 307.8872372  +6.5311880     6717.521     9464.821     9531.743     78.72535      157.139     314.0594      1.495     2.90     856.5197     55.35809      1032.29        30     1.295     1.028 -72.97   0
       469    553.1586    350.9230 307.7020657  +6.5472249     7768.904     10938.01     11646.73     78.60069     157.0766     314.1219      1.441     2.84     846.7458     55.35809     1343.052        33     1.357     0.992 -73.32   0
       470    282.2349    348.4930 307.8146850  +6.5391292     2959.375     4102.582     3745.727     78.84982     156.9516     314.1219      1.506     3.02     851.3435     55.35809     416.6286        23     1.270     0.939 -75.41   0
       471    416.0939    346.0689 307.7591645  +6.5446288     27782.89     39978.96        41895     78.60069     157.2014     314.0907      1.505     2.99       848.14     55.35809     4430.971        54     1.452     1.126 -76.69   0
       472    682.3738    344.4554 307.6486080  +6.5542261     540.7529     807.4137     1166.585     78.35076      157.139     313.9033      1.545     3.44     846.5122     55.35809     71.07831         5     1.091     0.313 -69.34   0
       473    594.5360    344.9850 307.6850779  +6.5510640     615.9727     906.7542     533.1053      78.2255     156.9516     313.9345      1.489     3.71      847.223     55.35809     93.21649         6     0.796     0.496 -85.63   0
       474    523.6553    344.6228 307.7145335  +6.5488364      1501.88     2054.834     2435.649     78.35076     157.0766      313.872      1.411     3.05     846.7046     55.35809     220.0605        13     1.037     0.785  65.31   0
       475    396.0694    344.0166 307.7675516  +6.5448036     1332.238     1819.554     2171.113      78.2255     156.9516     313.9658      1.449     3.79     848.1724     55.35809     243.8737        13     1.232     0.670 -78.22   0
       476    495.1722    341.4686 307.7264715  +6.5491830     1247.656     1901.558     1888.823     78.47582     157.0141     313.9658      1.519     2.51     847.1063     55.35809     246.0223         9     0.890     0.618 -75.90   0
       477    810.6960    338.6121 307.5954989  +6.5609340     1007.511      1468.07     1140.181     78.60069     156.8266     313.8408      1.569     3.87     846.2589     55.35809     185.7684        11     1.207     0.713 -86.33   0
       478    505.1881    336.4641 307.7224797  +6.5515853     9285.427     13212.62     13547.78      78.2255     156.8892      313.872      1.517     2.96     846.6064     55.35809     1415.674        37     1.457     1.017 -74.44   0
       479    393.4425    338.7972 307.7688190  +6.5468703     890.9658     1356.044     853.2278     78.10004     156.7015     313.7783      1.783     5.22      848.064     55.35809     117.5877        10     0.915     0.862 -80.74   0
       480    646.6397    338.2598 307.6636606  +6.5555870     606.8689     741.7114     415.9615     78.72535     157.0766     314.1531      1.252     3.36      846.528     55.35809     118.5864         5     0.774     0.422 -69.30   0
       481    774.3549    335.1930 307.6107103  +6.5611298     3443.427     4889.732     5057.315      78.2255     156.8892     313.7158      1.462     2.84     846.1562     55.35809     549.9541        21     1.227     0.879 -79.04   0
       482    929.3647    335.5974 307.5463038  +6.5661458     920.1075     1378.451     1615.186     77.84851     156.8892      313.872      1.459     3.10     844.0836     55.35809     161.0873         8     0.914     0.612 -65.50   0
       483    721.7178    335.0212 307.6325819  +6.5594388     799.0804      1157.71     1539.735     78.47582     156.7641     313.9658      1.424     2.74     846.2032     55.35809     134.3215         7     0.742     0.632 -72.52   0
       484    331.6825    333.4010 307.7946553  +6.5470228     1174.068     1715.283     1839.586     77.97438     156.6389     313.7783      1.557     3.10      849.048     55.35809     189.0101        11     1.009     0.749 -75.40   0
       485    267.6985    326.8236 307.8214554  +6.5475869     528.9807     786.0323     1103.425     78.84982     156.8266      313.872      1.485     3.87     851.0432     55.35809      103.424         5     0.904     0.474  41.83   0
       486    167.4263    326.8026 307.8631069  +6.5442211      1182.17     1740.869     1863.379      78.2255     156.7641      313.872      1.660     2.86     854.5115     55.35809     178.8298        14     0.956     0.906 -23.82   0
       487    614.1700    325.3242 307.6775842  +6.5598397     651.4093     944.3427     318.2969     78.60069      157.139     314.0594      1.444     3.82     845.9393     55.35809     103.5104         7     1.033     0.497 -67.63   0
       488    395.0879    320.6652 307.7687475  +6.5544118      8021.19     11267.28     11891.12     78.72535     157.2637     314.0907      1.494     2.99     847.5803     55.35809      1246.66        31     1.334     0.978 -75.05   0
       489    683.4966    321.4975 307.6489143  +6.5637426     487.5893     817.7711     611.9349     78.72535     157.6374     313.9033      1.347     4.02     845.5076     55.35809     95.19147         5     1.153     0.401 -54.93   0
       490    251.0316    321.0144 307.8285748  +6.5494247     2189.852     3198.322     3702.568     78.35076     156.8266      313.997      1.481     3.18     851.5974     55.35809     341.7087        18     1.205     0.951 -70.97   0
       491    748.6157    320.4912 307.6218970  +6.5663385     1033.343     1276.972     1432.729     78.47583     156.8892     313.9345      1.510     3.63     845.6094     55.35809     139.4215         9     0.996     0.632 -84.27   0
       492    762.9543    316.5856 307.6160720  +6.5684310     59597.86      81313.7     85000.83     78.10004     156.8892     313.8408      1.430     2.73     845.4371     55.35809      9877.49        70     1.433     1.115 -73.28   0
       493    434.6815    315.9524 307.7524596  +6.5576874     2548.878     3586.186     3375.496     78.72535     157.0766     314.0907      1.516     3.30     846.7044     55.35809      333.183        19     1.162     0.975 -69.14   0
       494    997.7899    313.7792 307.5186109  +6.5774396      1808.25     2384.068     2615.204     78.35076     156.7641     313.9033      1.379     3.09     840.9672     55.35809     299.3187        13     1.128     0.676  89.56   0
       495    471.6302    312.7134 307.7372204  +6.5602652     1101.775     1779.371     2814.381     78.84982     156.8266     313.9658      2.390     4.65     845.9277     55.35809     190.2788        12     1.460     0.575 -70.28   0
       496    580.8734    313.3311 307.6918197  +6.5636752     1366.205     1793.095     1923.807     78.84982     157.2014     314.0594      1.332     2.43     844.8097     55.35809     247.9843        10     0.855     0.699 -79.11   0
       497    421.1676    311.5820 307.7582207  +6.5590380     2209.164     3310.341     2948.243     78.35076     156.8892     313.9345      1.571     3.22     846.7788     55.35809     345.5095        20     1.310     0.942 -72.73   0
       498    301.0181    311.0609 307.8081475  +6.5552155     823.4851      1179.63     1132.663     78.35076     157.0141      313.872      1.559     2.86     849.2239     55.35809     146.5558         9     0.814     0.729 -46.16   0
       499    842.1750    306.3051 307.5835079  +6.5753259     1329.281     1912.075     1855.328     78.84982     156.8266     313.9345      1.523     2.75     844.5797     55.35809     253.1556        10     0.932     0.678 -87.31   0
       500    938.8394    312.8993 307.5431299  +6.5758341     2682.388     3506.577     3910.497     78.72535     156.9516      314.278      1.388     3.02     842.7031     55.35809     427.6501        17     1.162     0.798 -78.16   0
       501    761.3638    301.2090 307.6172498  +6.5747265      6823.68     9223.888     9513.512      78.2255     156.8266     313.8408      1.358     2.66     844.7872     55.35809     1108.203        27     1.282     0.911 -76.81   0
       502    451.8363    303.2845 307.7457609  +6.5634937     1316.151     1840.046     2271.288     78.72535     157.0766     314.0282      1.576     3.18     845.7857     55.35809     181.4226        11     0.985     0.715 -75.21   0
       503    197.5103    302.9004 307.8514191  +6.5551023     2367.815     3400.159      3824.46     78.72535      157.513     314.0282      1.551     3.36     853.1052     55.35809     343.9554        20     1.291     0.900 -45.63   0
       504    352.2041    301.0614 307.7872230  +6.5610647     705.8541     1028.514     129.1203     78.10004     156.8266     313.7783      1.443     3.81     848.2689     55.35809     104.1119         6     0.922     0.453  56.60   0
       505    233.5777    300.8969 307.8365050  +6.5571434      682.118      858.434     189.4996     78.72535     156.8266      313.872      1.319     4.90     852.0355     55.35809     106.6264         7     1.241     0.547 -14.17   0
       506     93.6935    300.2283 307.8946331  +6.5527091     1219.464     1663.456     2010.702     78.84982     156.8266     313.9658      1.361     3.09     855.8331     55.35809     182.4601        11     1.001     0.755 -56.94   0
       507    777.8550    299.2237 307.6104658  +6.5760981     2956.655     3975.662     4157.637     78.35076     157.0766      313.872      1.389     2.82     844.6145     55.35809     490.1691        17     1.109     0.817 -66.82   0
       508    367.3177    293.8029 307.7811900  +6.5645694     1791.458     3306.389     3452.382     78.10004     156.7015      313.747      1.918     4.77     847.7823     55.35809     251.2147        23     1.558     0.991  -8.14   0
       509     80.9199    294.4244 307.9001354  +6.5546748     1317.114     1791.393     1891.516     78.47582     156.8892     314.0594      1.394     2.78       855.76     55.35809     221.6243        11     0.981     0.694 -74.56   0
       510   1015.9766    290.0202 307.5118528  +6.5878566     6773.738     9199.594     9458.733     78.47582     156.8891      313.997      1.404     2.81     840.2018     55.35809     1191.533        28     1.315     0.895 -78.61  16
       511    494.0216    289.9300 307.7286873  +6.5704235     2116.165     3033.548     2791.872     78.35076     157.0141     314.0594      1.467     3.08     844.1888     55.35809     355.4391        18     1.207     0.842 -59.94   0
       512    256.7338    285.3337 307.8274122  +6.5643480         6483     9182.347     9749.475     78.72535     157.0766     314.0907      1.518     2.99     850.3653     55.35809     926.5745        28     1.265     1.021 -81.41   0
       513    924.2800    284.9047 307.5501182  +6.5869063     466.8292     812.9774     998.0173     78.47582     157.3261     314.1531      1.351     4.11     841.8758     55.35809     101.0963         6     1.240     0.389 -79.06   0
       514    265.3033    286.5226 307.8238123  +6.5641454     598.8788     925.4155      1517.68     78.47582     157.2637     314.1219      1.713     4.08     849.9005     55.35809     89.96655         7     0.981     0.485   8.16   0
       515    821.0736    284.4305 307.5930091  +6.5836518     669.1872     928.9899     1405.852     78.60069     157.0766     314.0594      1.292     2.47     843.7334     55.35809     138.8346         6     0.755     0.484 -10.15   0
       516    776.3817    278.8797 307.6117620  +6.5844485     955.0672     1407.189     1840.199     78.35076     156.7641      313.997      1.555     3.24     843.8979     55.35809     154.2864         8     0.858     0.660 -49.42   0
       517    391.0119    276.3364 307.7719370  +6.5725770     1841.841     2870.618     3120.906      78.2255     156.8892      313.872      1.616     3.88      846.467     55.35809     299.6765        22     1.362     1.043 -89.51   0
       518    233.1598    278.5849 307.8374329  +6.5663412     749.7352     1064.386     1285.554      78.2255     156.8892     313.8408      1.437     4.53     851.6923     55.35809     120.4382         7     1.029     0.566 -71.88   0
       519    977.5490    275.1391 307.5283163  +6.5927178     1077.672      1466.43     1259.356     78.72535     157.0141     314.0594      1.279     3.85     840.2943     55.35809     161.9927         9     1.147     0.480 -82.77   0
       520    313.0260    272.4471 307.8044640  +6.5715617      1349.97     1632.803     1476.859     78.35076      157.139     313.9345      1.280     2.87     848.1135     55.35809     224.4845        10     0.838     0.809  72.68   0
       521    197.7221    272.9971 307.8523425  +6.5674555     653.4222     805.1364      645.691     78.10004     156.5763      313.872      1.451     4.81     852.4854     55.35809     116.0715         7     0.941     0.697 -50.93   0
       522    160.4109    271.9597 307.8678764  +6.5666276     1936.534     2823.786     2948.072     78.10004     156.8892     313.8096      1.494     3.21     853.1467     55.35809      282.527        14     1.114     0.790 -75.68   0
       523    913.5005    267.0869 307.5551948  +6.5939028     1815.695     2807.971     3030.738     78.72535      157.513     314.1219      1.634     4.05     841.5234     55.35809      319.408        18     1.271     1.099  28.41   0
       524    570.1500    267.6858 307.6978124  +6.5821615     2329.723     3342.879     3370.612     78.72535     156.9516     314.1219      1.454     2.84     842.2233     55.35809     387.5472        17     1.174     0.864 -73.64   0
       525    852.3478    267.7997 307.5805758  +6.5915643     487.4908     412.8491     503.1884     77.97437     156.5763      313.622      1.013     3.23     842.8104     55.35809     91.74536         5     0.748     0.439 -72.33   0
       526    733.8212    265.3251 307.6298988  +6.5886203     5729.709     7676.287     8180.017     78.35076     156.9516      313.997      1.372     2.66     843.5961     55.35809      912.822        26     1.232     0.930 -74.39   0
       527    674.5906    265.2157 307.6545085  +6.5866819     2347.181     3173.104     3315.846     78.47582     156.8266     313.9658      1.428     2.67     843.0322     55.35809      357.856        17     1.058     0.871  87.09   0
       528    972.0514    265.3196 307.5309298  +6.5965885     729.6309     833.6988     476.6503     78.72535     157.0766     314.0594      1.292     2.95     840.0014     55.35809      116.613         7     0.821     0.600 -29.46   0
       529    389.5632    259.4709 307.7731081  +6.5794916     884.5569      1250.68     1378.987     78.60069     157.0766     314.1219      1.584     4.15     845.9482     55.35809     132.8172         8     1.007     0.654  32.63   0
       530    930.0211    257.7468 307.5486451  +6.5983113     1173.677     1523.653     1502.837      78.2255     157.0766      313.872      1.363     3.21     840.8886     55.35809      199.486        12     1.010     0.808  82.97   0
       531    233.2782    250.4998 307.8383333  +6.5779406     2435.396     3505.236     3661.848     78.47582     157.3261     314.0907      1.550     3.20     851.0789     55.35809     339.5063        20     1.150     1.004 -88.32   0
       532    876.0390    249.5341 307.5713473  +6.5998980     1891.676     2782.834     2842.542     78.60069     157.0141     314.1531      1.504     2.53     841.6458     55.35809     356.7714        18     1.215     0.831 -69.54   0
       533    766.3869    248.8231 307.6169250  +6.5965238     1756.984     2428.015     2406.702     78.47582     156.8892     313.9658      1.375     3.35     843.0117     55.35809     267.0878        12     1.088     0.700 -76.35   0
       534    467.2798    240.4264 307.7414660  +6.5899647     25010.02      35279.8     37487.94     78.60069     156.8892     314.0907      1.527     2.86     842.4925     55.35809     3664.027        51     1.438     1.109 -77.33   0
       535    328.1244    242.5934 307.7992005  +6.5843950     777.2744     1234.679     916.2186     78.35076     156.5763     313.9033      1.663     4.78     847.2953     55.35809     115.5488        11     1.037     0.869  70.60   0
       536    793.3556    239.5897 307.6060317  +6.6012386     14674.85     20443.74     22183.36      78.2255     156.9516     313.7783      1.538     2.81     842.6908     55.35809     2616.458        54     1.500     1.286 -45.52   0
       537    731.8100    235.3362 307.6317433  +6.6009349     876.5569     1316.303     1046.575      78.2255     156.8892     313.9033      1.451     3.47     842.5331     55.35809     141.6295        10     1.062     0.657 -87.48   0
       538    473.0989    234.9378 307.7392338  +6.5924261     1472.338     2444.458     2638.974     78.47582      157.139     314.1219      1.755     3.79     842.0186     55.35809     241.9863        17     1.274     0.927  73.18   0
       539    155.5585    233.6202 307.8711893  +6.5822932     2512.559     3501.433     3441.553     78.35076     156.8892     313.9033      1.441     3.12       852.68     55.35809      388.235        19     1.238     0.848 -68.50   0
       540    129.9933    232.4899 307.8818475  +6.5818988     1159.981      1704.23     1664.878      78.2255     156.7641     313.8408      1.669     4.76     853.3892     55.35809     170.7894        12     1.174     0.709  85.52   0
       541    929.6398    230.0154 307.5497347  +6.6097484     1551.508     2212.719     1988.774      78.2255     156.8892     313.8408      1.402     3.50     840.0198     55.35809     244.8256        15     1.264     0.719 -74.54   0
       542    182.3840    231.7253 307.8601100  +6.5839789     646.8851     908.5664     1570.523      78.2255     156.8266     313.9345      1.511     4.56     852.0229     55.35809     93.81635         7     1.099     0.538 -46.65   0
       543    591.4001    226.2468 307.6903808  +6.5999833     5002.836     7114.194     7302.349     77.97438     156.7015     313.5907      1.470     2.81     840.2605     55.35809     761.4369        27     1.324     0.969 -86.65   0
       544    553.9164    226.3530 307.7059493  +6.5986824     2267.061     3100.147     3195.784     78.72535     157.0766     314.0907      1.473     2.92     840.2605     55.35809     331.3038        18     1.154     0.892 -66.14   0
       545    395.8655    225.6772 307.7716309  +6.5936559     1542.814     1965.113     1760.111     78.84982     157.0766     314.0282      1.330     3.00     844.6902     55.35809     250.1644        13     1.135     0.696  89.82   0
       546    311.7575    226.4758 307.8065441  +6.5904992     1202.856     1693.547     1441.281     78.60069     157.0766     314.0907      1.418     3.54     847.5049     55.35809     226.1677        10     1.200     0.608 -73.86   0
       547    952.1821    223.4810 307.5405889  +6.6131995     2983.539     4010.399     4081.066     78.35076     156.7641     313.9658      1.393     2.65     838.9196     55.35809     492.7231        19     1.203     0.827 -80.02   0
       548    898.3306    222.7761 307.5629853  +6.6116911     12412.96     16515.15     17085.26     78.35076     156.9516     314.0282      1.357     2.70      840.199     55.35809     2226.031        33     1.277     0.959 -71.67   0
       549    325.8347    223.3521 307.8008017  +6.5922622     1022.185     1432.236      1398.58     78.47582     157.0766      313.997      1.470     4.47     846.9551     55.35809     143.7809        11     1.184     0.693 -84.29   0
       550    985.0005    220.6028 307.5270509  +6.6154839     10854.52     14674.85     15089.81     78.10004     156.6389     313.8096      1.432     2.76      837.635     55.35809      1879.73        34     1.348     0.956 -86.44   0
       551    573.4842    222.5696 307.6979477  +6.6009008     1019.416     1281.427     1360.072     78.72535     156.8892     313.9345      1.371     3.41     840.1875     55.35809     149.2096        10     1.039     0.682 -25.30   0
       552    217.4832    222.9100 307.8458276  +6.5887999     831.2394     1146.571     1012.345     78.47582     157.3261     314.1219      1.300     3.71     851.0401     55.35809     160.1585         7     0.965     0.483 -81.28   0
       553    696.4562    220.6653 307.6469244  +6.6058083     3291.935     4614.747     5285.534     78.84982     157.0141     314.0594      1.540     2.74     841.5132     55.35809      546.228        21     1.165     0.931 -77.01   0
       554     24.5563    219.2246 307.9260953  +6.5838217     28018.13     39830.74     41981.38      78.2255     157.0141     313.9345      1.499     2.86     855.6944     55.35809     3956.819        58     1.486     1.139 -70.17   0
       555    270.7596    220.1030 307.8237907  +6.5917515     1128.298     1575.645     1631.772     78.72535     156.9516      314.278      1.468     3.64     849.0441     55.35809      188.955         9     1.003     0.613 -61.07   0
       556    505.0888    215.5581 307.7265978  +6.6015012     2264.734     3008.054      2495.05     78.72535     157.0141     314.0907      1.376     2.86     840.6683     55.35809     366.7825        18     1.257     0.787 -79.81   0
       557    836.9624    212.3064 307.5888326  +6.6139621     2288.473     2988.826      3072.55     78.84982     156.9516     314.1219      1.380     2.45     840.9099     55.35809     424.9852        17     1.101     0.854 -89.89   0
       558    889.1899    211.2604 307.5671697  +6.6161403     2214.466     3263.894     3541.775     78.10004     156.9516     313.7783      1.520     2.97     839.7115     55.35809     361.7737        17     1.122     0.872 -85.84   0
       559    748.5620    208.7506 307.6256782  +6.6124724     44273.69     60045.04     62398.75     78.47582     157.0141     313.9345      1.424     2.80     841.7034     55.35809     6756.751        62     1.417     1.079 -75.74   0
       560    517.0132    211.3600 307.7217856  +6.6036346      2705.88     3901.955     3890.553      78.2255     156.8892     313.8096      1.479     3.05     840.4153     55.35809     481.5425        19     1.248     0.841 -68.20   0
       561    351.5565    208.0970 307.7906316  +6.5994252     6305.166     12116.21     13717.62     78.72535     157.0141     314.2155      2.093     5.80     845.7169     55.35809     876.1315        47     2.032     1.092 -76.89   0
       562    982.3214    207.3906 307.5286074  +6.6208496     3089.064     4346.167     4370.903     78.35076     156.6389     313.9033      1.463     2.85      837.226     55.35809     535.3088        21     1.230     0.917 -74.38   0
       563    916.4525    205.8678 307.5560244  +6.6192779     8391.334     11091.48     11387.05     78.60069     157.0141      313.997      1.355     2.67     838.8813     55.35809      1407.96        25     1.250     0.866 -73.75   0
       564   1020.5403    206.2017 307.5127689  +6.6226165      1851.75     2387.053     2526.573     78.10004     156.7641     280.9312      1.380     2.94     836.1473     55.35809     284.5093        13     1.058     0.728 -64.65  16
       565    459.9265    204.9136 307.7457188  +6.6043801      5385.46     7724.375      8254.33     78.84982     157.3884     314.0594      1.500     2.99     841.5579     55.35809     840.3177        31     1.344     1.037  85.37   0
       566    234.6549    201.8715 307.8394056  +6.5980639     792.8894     942.1622     654.7463     78.60069     156.9516     314.0282      1.226     3.29     850.3605     55.35809     138.9376         8     0.902     0.713 -62.43   0
       567    117.3236    196.0747 307.8883432  +6.5965064     5255.257     7219.396     7632.622     78.97409     157.3261     314.1219      1.452     2.97     852.9007     55.35809     747.5819        26     1.266     0.972 -64.16   0
       568    936.7716    195.3678 307.5479352  +6.6242922     1012.315     1252.333     1775.991      78.2255     156.8266      313.872      1.297     3.44     837.6919     55.35809     169.8658        11     1.080     0.680  55.94   0
       569    287.6448    192.8539 307.8176972  +6.6035697      36587.8     52592.82      55548.2     78.72535     157.0766     314.0907      1.523     2.91     848.3976     55.35809     5528.296        65     1.510     1.158 -70.35   0
       570    262.9633    193.9749 307.8279127  +6.6022766     7206.283     10302.67     11131.13     78.35076     156.8892     313.8095      1.483     2.88     849.3051     55.35809      1218.43        31     1.354     0.990 -70.90   0
       571    613.7934    194.3267 307.6821532  +6.6139131     719.9372     1224.135     1211.156     78.35076     156.6389     313.9658      2.064     3.85     839.8505     55.35809      109.575         7     0.974     0.557 -67.96   0
       572     73.0887    194.2409 307.9067810  +6.5957728     475.8937     705.2275     1080.682     78.72535     157.0141     314.0907      1.492     4.33     854.0201     55.35809      92.5224         5     0.766     0.697   8.31   0
       573    716.7153    192.3518 307.6394607  +6.6181768     931.1689     1168.054     1317.561     78.72535     157.0766     314.0907      1.339     3.15     840.8586     55.35809     152.1793        11     1.035     0.722 -63.07   0
       574    411.7183    188.3346 307.7663058  +6.6096061      54664.1     77420.53     81242.95     78.97409     157.2637     314.0594      1.517     2.87     842.6122     55.35809     7968.193        71     1.499     1.164 -74.05   0
       575    429.0682    189.1691 307.7590698  +6.6098443      1462.93     2084.359       2037.1     78.60069     157.0766     314.0282      1.397     3.24     842.0593     55.35809      244.431        14     1.135     0.779 -81.37   0
       576    167.6467    189.6058 307.8676571  +6.6008722     4475.448     6306.288      6268.89     78.10004     156.8892     313.7158      1.478     2.96     851.2877     55.35809     637.3693        25     1.321     0.921 -81.82   0
       577    323.3146    185.4922 307.8031277  +6.6078086     2227.278     3776.782     5034.825     78.47582      157.513     314.1531      1.946     5.09     846.7178     55.35809     348.1338        28     2.121     0.943 -80.84   2
       578    315.7207    186.0289 307.8062643  +6.6073317     19584.42     28107.19     29968.38     78.60069     157.0766     314.0594      1.513     2.91     847.0645     55.35809     3029.585        48     1.420     1.122 -71.54   2
       579    582.4743    188.0170 307.6953772  +6.6154682     581.2405     870.1062     1094.543      78.2255     156.8266     313.9345      1.499     3.77     839.7283     55.35809     79.76868         6     0.820     0.498  87.23   0
       580    751.0019    184.6059 307.6254769  +6.6225229     36604.53     50366.88      52723.9     78.10004     156.7641      313.872      1.414     2.70     840.8673     55.35809      6203.09        55     1.418     1.062 -75.26   0
       581    699.0826    186.3014 307.6469899  +6.6200844     1089.911     1504.522     1409.911     78.72535     157.4507     314.1531      1.547     2.47     840.4397     55.35809     195.5314         9     0.882     0.612 -69.01   0
       582    799.2122    185.1423 307.6054294  +6.6239149      1304.48     1627.691     1808.631     78.10004     157.0141     313.7783      1.394     3.32     840.8673     55.35809     196.8708        14     1.022     0.919 -72.85   0
       583     67.8130    181.7322 307.9093963  +6.6007593     9849.237     14064.33     14467.72      78.2255     156.8892     313.9658      1.494     2.91     853.8613     55.35809     1580.982        34     1.375     1.015 -78.33   0
       584    574.5488    183.1832 307.6988328  +6.6171982      659.866     1234.437     1718.098      78.2255      157.139     313.7783      1.922     4.10     839.6628     55.35809     88.89221         7     0.986     0.486  82.87   0
       585    101.5177    179.9672 307.8954545  +6.6026239     1582.624     2054.374     1416.888     78.72535     157.0141      313.997      1.374     2.82     852.9967     55.35809     250.8503        13     1.009     0.790  89.93   0
       586   1009.2794    179.1781 307.5183542  +6.6333983     1316.512     1801.134     2156.888     78.35076     156.7641     314.0282      1.502     3.24     835.9056     55.35809     218.9274        12     1.067     0.774 -79.41   0
       587    977.1519    177.8419 307.5317471  +6.6328772     614.5547       880.64     914.4718     78.72535     157.0141      313.997      1.510     4.28     836.2077     55.35809     100.7072         7     1.050     0.497  68.03   0
       588    584.5272    169.4877 307.6951487  +6.6231874     900.3735     1124.428     988.6676     78.84982     157.3261     314.0594      1.198     3.62     839.4791     55.35809     140.1409         6     0.901     0.438 -72.30   0
       589      1.5979    167.0085 307.9374018  +6.6046052     865.9761     1335.831     1222.177     71.13461     128.5071      240.374      1.637     4.45     855.0024     55.35809     178.4395        11     1.295     0.721 -88.57  24
       590   1010.3775    165.3427 307.5183622  +6.6391474     2403.715     3563.014     4214.389     78.35076     157.0766      313.872      1.775     3.04     835.6117     55.35809     376.9688        18     1.206     0.868  84.60   0
       591    593.4860    162.8496 307.6916504  +6.6262285     1210.084      1680.77     1877.519     78.72535     157.0141     314.1219      1.533     2.55     839.4004     55.35809     212.2256        10     0.858     0.725 -15.45   0
       592    601.6712    161.0947 307.6883090  +6.6272274     2126.547      2743.81     3015.362     78.72535      157.139     314.0282      1.461     2.96     839.3741     55.35809     355.0105        16     1.139     0.862 -63.42   0
       593    345.9897    161.2537 307.7945264  +6.6185783     1004.942      1507.74     1216.308     78.10004     157.0141     313.7783      1.606     4.07     845.2205     55.35809     142.1887        12     1.044     0.871  24.92   0
       594    286.5491    159.0786 307.8192939  +6.6174776     33518.32     47796.29     50251.74     78.72535      157.139     314.0594      1.509     2.83     848.4488     55.35809     4948.301        59     1.453     1.154 -71.18   0
       595     31.7090    157.7843 307.9252057  +6.6094290     4776.388     7065.383     7712.787     78.47582     156.8892     313.9345      1.578     2.91     854.1913     55.35809      725.291        30     1.574     0.980 -77.17   0
       596    718.2174    155.7134 307.6400697  +6.6333544     8907.331     12348.06     12808.15     78.35076     156.8266     313.9658      1.455     2.85     839.5966     55.35809     1529.525        31     1.332     0.958 -75.75   0
       597    195.7108    156.9622 307.8571029  +6.6152945     1028.429     1512.613     1668.454     78.72535     157.0141     314.0907      1.686     3.57     850.4253     55.35809     161.9252        11     1.067     0.738 -67.18   0
       598    272.2336    154.2776 307.8254034  +6.6189782     850.4226     1016.008     926.3162     78.60069     157.0766     314.0282      1.289     3.12     848.9208     55.35809      136.233         8     0.898     0.613 -80.33   0
       599    129.0144    152.8173 307.8849509  +6.6147595     5470.503     7604.157     7904.194     78.47582     156.7641      313.997      1.460     3.04     851.3357     55.35809     881.9536        25     1.260     0.935 -68.33   0
       600    590.5120    150.9650 307.6932865  +6.6310356     697.0253      1042.87     1230.723     78.72535     156.9516     314.0594      1.476     2.94     839.1439     55.35809     124.0922         6     0.772     0.500 -88.99   0
       601    468.0370    149.9969 307.7442022  +6.6273260     1508.054     2012.874     1770.031     77.84851     156.8891      313.872      1.429     3.12     839.9216     55.35809     251.5995        13     1.067     0.782  85.74   0
       602    399.7670    148.9043 307.7726019  +6.6254842      4135.74     6574.381     6415.262     78.84982     156.9516     314.1843      1.725     3.66     842.0932     55.35809     575.0667        34     1.574     1.108 -85.61   0
       603    657.0561    149.6666 307.6656837  +6.6338022     948.1898     1277.445     645.4912     78.84982     157.0141     314.0282      1.402     3.55       839.08     55.35809     168.8259        10     1.060     0.672 -40.21   0
       604    364.0165    147.7081 307.7874948  +6.6247767     3567.075     5052.345     4711.365     78.47582     156.8892     313.9658      1.479     2.95     844.2236     55.35809     504.3062        23     1.237     0.960 -78.49   0
       605    118.4910    147.8297 307.8894915  +6.6164642     1999.085     2709.255     2696.929     78.84982     156.8266      313.997      1.377     2.80     851.4966     55.35809     300.5964        18     1.146     0.829 -72.75   0
       606    575.9982    147.7663 307.6994242  +6.6318696     640.6917     823.9761     757.7439     77.97437     156.8892      313.872      1.408     3.47     839.0646     55.35809      96.0899         5     0.800     0.495 -56.64   0
       607    947.1502    147.2055 307.5452406  +6.6445243     536.1012     659.2088     463.2596     78.10004     156.8892     313.6845      1.172     2.66     835.1574     55.35809     98.85974         6     0.737     0.555  44.85   0
       608    679.9167    145.7519 307.6563177  +6.6361844     973.2513      1138.04     515.5364     78.72535     157.0766     314.0594      1.193     3.24     838.9758     55.35809     172.1073         9     0.904     0.644 -77.46   0
       609   1010.9789    142.0093 307.5188954  +6.6488014     1688.741     2263.668     1812.204     78.35076     156.8266      313.872      1.409     3.77     834.2731     55.35809     221.4082        16     1.225     0.861 -84.12   0
       610    736.7668    142.1992 307.6328179  +6.6395552     754.6838      1146.92     976.9238     77.97437     156.8892     313.8096      1.443     3.44     838.9639     55.35809     133.8087         5     0.991     0.345  41.28   0
       611    216.0148    136.6719 307.8493542  +6.6243551     6058.313      8705.71     8837.235      78.2255     156.9516     313.9345      1.498     2.78     850.1512     55.35809     950.3588        30     1.300     1.044 -72.92   0
       612     98.6457    136.5231 307.8981186  +6.6204635     2283.024     3470.933      3734.84     78.60069      157.139     314.0594      1.687     3.20     851.5889     55.35809     314.4924        20     1.306     0.906 -67.27   0
       613    677.8179    135.4989 307.6575349  +6.6403473     7038.529     9609.161     9973.009     78.72535     156.9516     313.8096      1.450     2.84      838.633     55.35809     1060.697        30     1.358     0.931 -73.47   0
       614    825.8840    135.4962 307.5960174  +6.6453051     1088.745     1528.964     1225.826     78.72535     157.4507     314.1531      1.516     2.61     837.8629     55.35809     183.0503        10     0.948     0.629 -65.10   0
       615    854.7130    135.3520 307.5840445  +6.6463288      619.259     853.0055     1142.162     78.72535     156.9516     314.0907      1.257     3.11     837.0419     55.35809     109.6362         5     0.843     0.598 -50.68   0
       616    629.9109    132.7842 307.6775302  +6.6398628     10457.14     14783.27     15793.65     78.47582     156.8266     313.9033      1.479     2.91     838.6989     55.35809     1771.441        36     1.420     0.977 -76.89   3
       617    633.4792    124.3237 307.6763327  +6.6434756     59691.49     81953.66     85719.98     78.97409     157.3261     314.1531      1.469     2.79      838.471     55.35809     8616.088        72     1.467     1.133 -74.97   2
       618    264.4123    133.2623 307.8293631  +6.6273915     789.6947     977.7457     919.8566      78.2255     156.8892     313.8096      1.400     3.44     849.0715     55.35809     151.8685         8     0.993     0.572 -68.79   0
       619     28.6456    131.8274 307.9273579  +6.6200422     1272.943     2010.672     1738.043      78.2255      157.139     313.9658      1.681     5.13     854.3326     55.35809     188.2581        17     1.601     0.837 -72.35   0
       620    567.8776    132.4745 307.7033134  +6.6379108     637.9269     929.6987     1267.372     78.97409     157.3261     314.0907      1.508     3.34     838.6713     55.35809     121.6677         5     1.008     0.321 -85.96   0
       621    357.0523    128.3886 307.7910406  +6.6325191     3938.343     6244.279     6426.689     78.10004     157.0141     313.7783      1.654     3.66     844.6917     55.35809     624.9638        28     1.576     0.919 -60.77   0
       622    538.7542    127.9071 307.7155671  +6.6388196     2051.256     2885.096     2711.512     78.72535     157.0141     314.1843      1.406     3.02     838.5843     55.35809     321.9557        17     1.252     0.777 -71.57   0
       623   1003.0547    127.6035 307.5226712  +6.6544848      929.327     1459.802     1683.228     78.10004     156.8892     313.7158      1.652     4.33     833.5095     55.35809     121.2498        10     1.035     0.650 -64.93   0
       624    870.9676    127.9720 307.5775390  +6.6499194     5887.632     5987.519     5924.452      78.2255     156.8266      313.872      0.433     1.72     836.2607     55.35809     4842.697         7     0.320     0.298   9.47   0
       625    312.6022    117.9781 307.8098593  +6.6353228     3973.196     5716.397     6368.791     78.35076     156.7641     313.8096      1.507     2.90     847.1067     55.35809     565.8097        23     1.232     0.962 -80.59   0
       626    507.7278    115.0566 307.7288909  +6.6430841     557.2836     870.4023     689.5213     78.72535     157.0141     314.0282      1.541     4.25     838.5142     55.35809     82.67346         7     0.770     0.668  88.79   0
       627     10.1272    100.9698 307.9360968  +6.6321573     724839.1      1488662      1634184     78.60069     157.0766     314.0282      2.132     4.83     855.6444     55.35809     61280.64       420     2.219     1.813 -73.62  28
       628    712.6227    112.4589 307.6438500  +6.6510259     1049.229     1371.658     1342.341     78.35076     157.0766     313.9345      1.311     2.74     837.5444     55.35809     168.9747         9     0.863     0.725 -73.85   0
       629    683.8285    111.5594 307.6558437  +6.6504328     1464.723     1981.847      2007.79     78.35076     156.8266     313.9033      1.363     2.97     837.8655     55.35809     235.2086        11     1.000     0.671 -74.50   0
       630    697.8618    108.3904 307.6501199  +6.6522113     3538.241     4859.446     4347.248     78.10004     156.9516      313.872      1.368     2.75     837.5538     55.35809     586.8711        19     1.181     0.806 -74.21   0
       631    439.6680     99.2049 307.7577024  +6.6473439       4529.3     6426.528     6522.113      78.2255     156.7641      313.872      1.496     2.90     839.8161     55.35809     666.6598        27     1.354     0.948 -73.85   0
       632    894.1712     95.6855 307.5689831  +6.6640256     2423.299     3241.568     3434.264     78.84982     156.7641     313.9033      1.440     3.04     834.6144     55.35809     381.9611        19     1.251     0.913 -61.63   0
       633    912.1458     94.6699 307.5615489  +6.6650457     4475.312     6295.854     6543.767     78.60069     157.0141      313.997      1.472     2.75     834.5146     55.35809     804.8752        25     1.241     0.958 -74.60   0
       634    592.1024     95.2659 307.6945028  +6.6540857     832.8229     1183.792     1625.527     78.72535      157.139     314.0907      1.549     3.48     837.8189     55.35809      180.988         8     0.997     0.587 -62.91   0
       635    604.1726     93.3661 307.6895519  +6.6552747     2041.862     2708.902     2452.368      78.2255     156.8266     313.8408      1.423     3.07     837.7657     55.35809     345.8989        14     1.113     0.742 -83.24   0
       636    403.1722     91.1442 307.7731373  +6.6494459     2028.965     3076.339     2917.003     78.35076      157.139     313.9033      1.520     3.77     841.6252     55.35809     341.9819        18     1.382     0.856 -68.40   0
       637    249.8871     92.5165 307.8367753  +6.6437253     889.8866     1640.342     2393.435     78.47582     157.2637     314.0907      2.141     4.60     849.0614     55.35809     139.4757         9     1.135     0.699 -88.08   0
       638     94.1221     92.1640 307.9015001  +6.6386250     508.0834     755.8702     451.4408     78.60069      157.139     314.0594      1.328     3.95      849.938     55.35809     86.77991         6     0.767     0.582  51.13   0
       639    150.9809     87.9866 307.8780196  +6.6422655     3477.054     5016.553     4915.185     78.47582     156.8266     313.9658      1.471     2.96     848.8698     55.35809     542.8878        25     1.209     1.044 -87.19   0
       640     32.8212     85.7649 307.9271841  +6.6392002     13616.37     19269.58     20165.45      78.2255     156.8892     313.8095      1.459     2.89     853.3025     55.35809     2226.991        41     1.409     1.028 -69.08   0
       641    299.0632     86.7051 307.8165410  +6.6477790     1455.231     2172.561     2834.969     78.60069     157.2014     314.1219      1.495     3.28     847.5735     55.35809     214.9742        13     1.023     0.868 -61.25   0
       642    559.8997     85.5343 307.7082103  +6.6570235     858.1484     1029.824     1396.874     78.72535     157.2014     314.0282      1.309     2.94     837.3912     55.35809     148.1059         8     0.812     0.665 -88.46   0
       643    953.6212     84.6697 307.5446519  +6.6705604     597.9213      665.501     61.46114     78.35076     156.9516     314.0282      1.264     4.25      832.992     55.35809     95.08325         6     1.097     0.469 -82.83   0
       644    767.5902     85.1472 307.6219309  +6.6641426     766.5427     1125.033     1984.207     78.10004     156.9516     313.8096      3.116     5.34     836.0645     55.35809     139.1742         9     1.274     0.633 -88.07   2
       645    162.3768     85.0019 307.8733862  +6.6438816     479.6438     461.8145      -17.935     78.35076     156.7641     313.8408      1.236     3.90     848.6836     55.35809     78.76001         5     0.899     0.484  88.70   0
       646    990.6310     84.1006 307.5292934  +6.6720315     478.2888      930.226     894.3659     78.72535     156.8266     314.1843      2.228     3.53     831.3351     55.35809     93.52795         5     0.811     0.442 -73.55   0
       647    901.8691     81.3447 307.5662665  +6.6702039     751.2389     835.3746     824.1607     78.72535     156.9516     314.0282      1.305     4.75     833.9933     55.35809     123.1036         8     1.148     0.558 -45.18   0
       648    834.5718     80.4707 307.5942577  +6.6683146     6963.181     9175.948     9653.854     78.47583     157.0766     314.0282      1.378     2.58     834.8876     55.35809     1076.428        26     1.264     0.898 -85.93   0
       649    779.5620     80.8060 307.6171028  +6.6663356     3635.925     4830.158     5241.175     77.84851     156.8266     313.8096      1.383     2.97     835.9138     55.35809     547.9106        18     1.111     0.841 -77.24   0
       650    424.7990     81.5758 307.7644751  +6.6541230     1087.193     1262.041      1083.67     78.35076     156.7641     313.8408      1.256     3.44      840.384     55.35809     186.8764        10     1.002     0.676 -52.73   0
       651    104.4207     81.6806 307.8975766  +6.6433003     533.3235     597.5293     376.4639     78.47582     156.7641     314.0282      1.072     3.41     849.4918     55.35809     96.63007         5     0.723     0.466 -72.74   0
       652    661.5858     78.4685 307.6661995  +6.6633500     608.6712     781.5296     871.0892      78.2255     156.9516     313.9658      1.271     4.07     836.8407     55.35809     112.9963         5     0.965     0.491 -87.06   0
       653    541.9701     78.9938 307.7158803  +6.6591224     1172.664     1547.077     2061.121      78.2255     156.8891     313.8408      1.347     2.80     837.1695     55.35809     234.0138         9     0.826     0.774  26.38   0
       654     73.0994     77.6876 307.9107243  +6.6438931     3486.736     4807.655     4619.048     78.72535      157.513     314.0594      1.478     3.29     850.7171     55.35809     564.4936        22     1.242     0.903 -70.68   0
       655     57.5704     78.5380 307.9171470  +6.6430184     1011.805     1197.865     586.3376     78.47583     157.0766      313.997      1.278     3.17     851.5076     55.35809     158.3622         9     0.979     0.614  83.30   0
       656    434.1306     77.2672 307.7607435  +6.6562153     920.4145     1052.836     1257.395     78.72535      157.139     314.0594      1.278     3.26     839.9987     55.35809     143.7114        10     0.970     0.747 -78.50   0
       657    596.7501     74.7398 307.6932634  +6.6627162     1496.629     2014.156     1747.965     78.72535     157.0141     314.1219      1.426     3.16     836.9647     55.35809     235.2233        14     1.059     0.846  84.19   0
       658    267.8557     74.4890 307.8299196  +6.6517728      556.343     858.1813     1226.207     78.72535     156.9516     314.2155      1.803     4.08     848.0717     55.35809     90.69446         6     1.040     0.457 -58.04   0
       659     15.5747     73.1301 307.9347772  +6.6438348     2895.139     4213.995     5077.107     78.35076     156.9516      313.997      1.519     2.79     853.0502     55.35809     413.0076        22     1.292     0.918 -76.34   0
       660    724.2858     71.0007 307.6403996  +6.6685336      641.545     883.7858     907.8967     77.97437     156.5763     313.7158      1.463     6.17     835.8981     55.35809     82.44983         9     1.325     0.808   8.53   0
       661    774.2864     68.2635 307.6197167  +6.6713376     2288.804     3182.516     3457.486     78.84982     157.2014     314.0907      1.491     3.03     835.5138     55.35809     371.2284        19     1.272     0.833 -76.57   0
       662    665.6480     68.3390 307.6648528  +6.6676683     544.6909     728.6283     474.2038     78.72535     157.0141     314.1219      1.551     3.71     836.4084     55.35809     117.4141         5     1.023     0.387 -72.81   0
       663    415.0414     68.2442 307.7689791  +6.6592994     1229.892     1626.608      1661.88     78.47582     157.0766     313.9033      1.368     2.55     840.9481     55.35809     219.0301        11     0.891     0.766  50.22   0
       664     88.1644     68.9028 307.9047630  +6.6480278     984.0947     1345.377     915.1663     78.72535     156.9516     314.2155      1.427     3.54     849.7643     55.35809     166.1673         9     0.978     0.626 -79.86   0
       665    111.9207     67.2521 307.8949493  +6.6495099     1043.583     1444.026     1278.968     78.72535     157.0766     314.0594      1.434     4.47     849.1431     55.35809     170.0724        13     1.177     0.797  79.15   0
       666    100.8091     61.9441 307.8997454  +6.6513269     10183.13     14691.15     15310.63     78.10004     157.0141     313.7783      1.480     2.92     849.2337     55.35809     1682.414        35     1.363     1.039 -80.64   0
       667    429.9985     61.6650 307.7629869  +6.6625182     2818.692     3861.898     4216.604     78.10004     156.8266     313.8408      1.447     2.94     840.1959     55.35809     451.9109        18     1.149     0.878 -75.34   0
       668    251.3724     61.3679 307.8372115  +6.6566354     689.4406     1086.899     1812.583      78.2255     156.8266      313.872      1.608     3.05     848.0582     55.35809     118.8559         6     0.840     0.491 -45.40   0
       669    643.6791     54.0239 307.6744629  +6.6728424     20548.75     28621.93     29756.21     78.35076     156.8892     314.0594      1.451     2.83     835.8956     55.35809     3153.078        47     1.411     1.047 -73.24   0
       670    267.6000     55.9938 307.8306511  +6.6594001     1618.254     2312.515     3449.736     77.97437     156.7641      313.872      1.683     3.19     847.4903     55.35809     255.8035        17     1.197     0.850 -68.54   0
       671    543.3949     50.1091 307.7162622  +6.6710959     5642.845     8026.239     8270.702     78.35076     156.7641     313.7783      1.468     2.96     836.1816     55.35809     861.5176        28     1.284     0.978 -74.22   0
       672    261.5905     50.4373 307.8333358  +6.6614920     2345.648     3716.967      5267.62     78.10004     156.8892     313.7783      1.826     3.14     847.4462     55.35809     357.3024        19     1.209     0.870 -76.75   0
       673     10.9818     48.1278 307.9375327  +6.6540022     1406.905      2111.96     2266.641      78.2255     157.0141      313.997      1.483     3.55     850.8038     55.35809     199.7236        15     1.174     0.829 -60.60   0
       674    629.9221     44.4811 307.6805003  +6.6763213     3573.179     5560.795     6372.175     78.97409     157.3261     314.2155      1.807     4.32     835.4968     55.35809     545.0171        31     1.852     0.941  79.20   0
       675    448.9664     45.6717 307.7556459  +6.6697583     24947.07     35083.95     36743.98     78.60069     157.0766     314.0594      1.497     2.90     839.1306     55.35809     4008.136        52     1.420     1.109 -68.70   0
       676    269.5553     46.0259 307.8301758  +6.6635813     9923.616     14563.14     16473.48      78.2255      157.139     313.9345      1.555     2.86     847.1166     55.35809     1480.471        38     1.418     1.046 -75.44   0
       677    926.9883     45.9318 307.5570190  +6.6856647     2224.005     2999.404     2999.935      78.2255     156.8891     313.9345      1.418     3.00     832.5714     55.35809      386.169        16     1.063     0.919 -77.47   0
       678    533.9212     46.1940 307.7203305  +6.6723945     627.8915     848.6034     1030.352     78.35076     156.5763     313.8408      1.406     4.93     836.2293     55.35809     113.1643         8     1.092     0.630 -60.72   0
       679    329.4609     46.3195 307.8052765  +6.6654750     1164.035     1624.056     1644.124     78.84982     157.0766     314.0282      1.442     3.84     845.6445     55.35809     178.7678        10     1.086     0.696 -73.96   0
       680     34.9997     45.5472 307.9276418  +6.6558777      2508.37     3550.659     3156.702     77.97437     156.5763      313.622      1.460     2.77     850.1724     55.35809     404.9332        15     1.103     0.787  88.26   0
       681    562.0790     45.5081 307.7086542  +6.6736224     745.7211     964.7622     810.3364     78.47582     157.3261     314.1219      1.246     3.83     835.9077     55.35809     135.5593         7     0.863     0.689  63.69   0
       682    257.5477     42.7834 307.8352743  +6.6645160     3416.498     4977.616     6354.278      78.2255      157.139     313.8096      1.644     3.23     847.3264     55.35809     498.0991        24     1.281     1.007 -70.85   0
       683    310.5344     40.8223 307.8133258  +6.6671081      1050.52     1549.551       2162.4     78.35076     157.0766     313.9658      1.697     4.43      845.978     55.35809     161.6088        12     1.267     0.706 -54.03   0
       684    947.4255     36.1412 307.5488560  +6.6903899     1055.164     1195.798     831.7183     78.35076     157.0766     313.9033      1.130     3.24     831.1329     55.35809     199.0084         7     0.918     0.491 -85.94   0
       685    698.6826     35.3702 307.6522371  +6.6823870     2135.506     2790.011      2392.93     78.60069     156.8892     314.0282      1.381     3.14     834.9335     55.35809     339.6619        17     1.207     0.852 -78.10   0
       686    103.5011     35.8384 307.8995111  +6.6621955     726.5255     986.1084     529.0302     78.72535     156.9516      314.278      1.418     2.95     848.7938     55.35809     145.2369         5     0.751     0.455 -69.64   0
       687    209.8408     31.6010 307.8554735  +6.6675270     812.6681     1025.498     629.8981     78.10004     156.7641     313.7783      1.414     4.83     847.8636     55.35809     128.0189         8     1.231     0.537 -73.30   0
       688    264.4580     30.2346 307.8328275  +6.6699294      1043.98     1418.199     2170.365     78.60069     157.0766     314.0594      1.446     3.16     846.7578     55.35809     163.6793         9     0.959     0.687 -66.48   0
       689    187.0788     28.1503 307.8650473  +6.6681853     11718.51     16601.94     16894.25     78.72535      157.139     314.0594      1.464     2.85     847.7866     55.35809     1883.317        38     1.365     1.054 -72.68   0
       690    531.3356     26.3460 307.7220741  +6.6805024     3376.754     4500.714     4464.831     78.72535     157.0141     314.0282      1.439     3.12     835.6728     55.35809     511.5861        21     1.272     0.890 -76.59   0
       691      1.2873     28.0457 307.9422412  +6.6619660     549.6066     757.2589     958.2618     67.88987     124.0021     235.6357      1.352     2.93     848.8354     55.35809     118.4207         5     0.861     0.452  89.07  24
       692    932.6608     25.9160 307.5553344  +6.6941184     4503.674      6130.86     6163.237     78.84982      157.139     314.1219      1.388     2.91     831.5515     55.35809     704.9996        24     1.196     0.980 -75.58   0
       693    733.4358     24.7243 307.6381553  +6.6879463      2131.25      2931.07     2665.049     78.60069      157.139     314.0907      1.402     2.94     834.5262     55.35809      331.446        16     1.102     0.803 -82.15   0
       694    469.4578     25.0250 307.7478287  +6.6789708      2015.23     2744.821     2578.714     78.35076     157.0766     313.9345      1.452     3.24     837.6838     55.35809     283.8937        16     1.167     0.799 -73.70   0
       695     75.0128     24.9550 307.9117156  +6.6657285     497.2773     442.0164     327.6716     78.10004     156.8891     313.8095      1.262     3.67     848.6814     55.35809     72.42249         5     0.995     0.389 -59.50   0
       696    997.3887     22.1379 307.5285655  +6.6978405     2138.477      3131.01     2929.647      78.2255     156.8892     313.8408      1.511     3.13     827.3829     55.35809     312.5458        18     1.300     0.787 -79.03   0
       697    371.3564   1019.9500 307.7550096  +6.2648959     1985.419     2946.953      2794.31     78.84982     157.0141     288.1685      1.469     3.44     869.2817     55.35809     296.3713        17     1.246     0.800 -73.75  16
       698    218.5576   1019.2191 307.8184693  +6.2600630      543.196     743.7828     720.1462      78.2255     156.8892     295.6599      1.452     4.42     867.5394     55.35809     90.32947         7     1.072     0.518 -42.69  16
       699    981.0203   1018.0922 307.5019547  +6.2860744     594.9831     914.7761     867.8347     78.60069     156.8892     305.6408      1.327     4.18     861.3601     55.35809     95.92645         7     0.929     0.536  48.55  16
       700    709.2819   1016.6363 307.6148251  +6.2775928     663.1099     934.6954     1406.656     78.72535     157.0766     313.7783      1.867     4.86     866.3575     55.35809     88.04242         7     1.093     0.612 -70.72  16
       701    758.1207   1009.5294 307.5947869  +6.2821614      8690.65     12532.62     12981.28     78.97409     157.3261     314.0282      1.545     2.97     865.5904     55.35809     1252.154        36     1.522     1.034 -76.20   0
       702    596.4950   1012.6125 307.6617868  +6.2754772     611.9121     932.8942     780.9591     78.47583     156.8266     313.9033      1.621     5.41     868.4984     55.35809     88.43726         7     1.184     0.698 -54.64   0
       703    553.5682   1010.1310 307.6796924  +6.2750631     4788.792       7069.5     7488.176     78.60069     157.0766     314.0594      1.565     2.84     868.6526     55.35809     667.2059        30     1.409     0.977 -81.88   0
       704    392.8668     16.0634 307.7799543  +6.6800980     827.8036     1071.876     506.6103     78.72535     157.0766     314.0594      1.368     3.16     842.6146     55.35809     136.7365         7     0.887     0.501 -45.48   0
       705    523.9504   1010.9740 307.6919605  +6.2737222     1243.724     1915.413     1497.732     78.35076      157.139     313.9658      1.568     4.32     868.9207     55.35809     191.0767        12     1.194     0.688 -77.64   0
       706    303.8212   1008.7308 307.7834259  +6.2672595     16423.59     23559.74     25610.49     78.35076     157.0141     313.9658      1.539     3.00     869.1918     55.35809     2442.866        53     1.661     1.127 -49.13   0
       707    819.1564   1009.0334 307.5694625  +6.2844074     1230.575     1683.039     1669.799     78.35076     157.0766     313.9345      1.493     3.98     864.6639     55.35809     175.1684        14     1.122     0.890  61.52   0
       708    428.0865   1009.2767 307.7318173  +6.2712071     1321.019     1869.538     1611.096     78.72535     157.3884     314.1219      1.517     3.42     869.3065     55.35809     206.4219        14     1.132     0.790 -37.34   0
       709    274.9901   1006.1745 307.7954816  +6.2673460     1081.109     1345.797     1687.199     78.35076     156.8892     313.9345      1.226     2.33     868.8095     55.35809     212.7836         9     0.790     0.697 -59.96   0
       710    919.4567   1003.0894 307.5280184  +6.2902133     8954.592     14012.04      14796.4     78.60069     157.0141     314.1843      1.674     3.20     863.7653     55.35809     1242.896        38     1.430     1.177 -86.81   0
       711    550.7936   1002.3228 307.6811072  +6.2781940     9381.853     13212.68     14104.75     78.35076     156.5763      313.872      1.473     2.85     868.5426     55.35809     1361.246        35     1.377     1.023 -75.16   0
       712    893.1110    999.2140 307.5390870  +6.2909334     12756.42     19879.43     20967.79     78.47582     156.8892     313.9345      1.652     3.19     863.6348     55.35809      1698.04        50     1.470     1.324 -71.53   0
       713   1014.8728    998.7391 307.4885480  +6.2951950     4840.843     7859.669     8515.011     78.84982     157.0766     314.0907      1.747     3.48     859.1886     55.35809     585.9135        31     1.405     1.159 -81.88  16
       714    605.6852    999.7893 307.6584027  +6.2810796     1367.745     2084.213     2308.679     78.35076     156.8266     313.9033      1.651     3.59      868.221     55.35809     219.4314        14     1.111     0.833 -64.34   0
