#   1 NUMBER                 Running object number                                     
#   2 X_IMAGE                Object position along x                                    [pixel]
#   3 Y_IMAGE                Object position along y                                    [pixel]
#   4 ALPHA_J2000            Right ascension of barycenter (J2000)                      [deg]
#   5 DELTA_J2000            Declination of barycenter (J2000)                          [deg]
#   6 FLUX_APER              Flux vector within fixed circular aperture(s)              [count]
#   9 FLUXERR_APER           RMS error vector for aperture flux(es)                     [count]
#  12 FLUX_RADIUS            Fraction-of-light radii                                    [pixel]
#  13 FWHM_IMAGE             FWHM assuming a gaussian core                              [pixel]
#  14 BACKGROUND             Background at centroid position                            [count]
#  15 THRESHOLD              Detection threshold above background                       [count]
#  16 FLUX_MAX               Peak flux above background                                 [count]
#  17 ISOAREA_IMAGE          Isophotal area above Analysis threshold                    [pixel**2]
#  18 A_IMAGE                Profile RMS along major axis                               [pixel]
#  19 B_IMAGE                Profile RMS along minor axis                               [pixel]
#  20 THETA_IMAGE            Position angle (CCW/x)                                     [deg]
#  21 FLAGS                  Extraction flags                                          
         1    482.9988     25.7568 307.7477764  +6.6790718     2183.537     2803.482     2608.661     77.85896     156.2802     312.7162      1.331     3.09     831.5342     55.18721     387.3771        14     1.090     0.735 -66.56   0
         2    730.3613     19.4654 307.6452132  +6.6899407     8655.498     11396.97     11893.05     78.35806     156.5294     313.1834      1.389     2.81     829.8829     55.18721     1795.665        29     1.277     0.978 -66.54   0
         3    650.5108     18.7385 307.6784143  +6.6875731     4546.816     6022.478     6009.621     78.48235     156.7161     313.1523      1.353     3.07     830.4312     55.18721     875.0236        22     1.227     0.851 -65.48   0
         4    450.7411     15.0079 307.7615394  +6.6824293     7503.716     10183.17     10246.55     77.85896     156.4672     312.8097      1.347     3.06     832.6445     55.18721      1144.75        24     1.251     0.859 -70.16   0
         5     51.6735     14.6411 307.9273481  +6.6691871     10165.01     13520.42     14089.02     78.35806     156.6539     313.1212      1.395     2.98      828.796     55.18721      1591.63        28     1.299     0.889 -71.25   0
         6    697.5570     13.7452 307.6590346  +6.6912067     960.4021     1011.881     1147.665     78.48235     156.5917       313.09      1.224     3.14     829.7265     55.18721     162.7072         9     0.934     0.663 -66.86   0
         7    526.3521     12.2243 307.7302183  +6.6861100     1093.492     1460.814     1878.079     78.10891     156.5917     312.9966      1.346     3.18     830.5092     55.18721     225.3249        12     1.149     0.736 -62.91   0
         8    347.2795      9.9744 307.8046937  +6.6810403     15275.23     20272.17     20893.06     78.23359     156.4049     313.0589      1.363     2.73     837.6817     55.18721     2963.172        35     1.323     0.913 -69.19   0
         9    120.8872     10.4037 307.8987362  +6.6732634     3092.505     4179.283     4621.861     77.98404     156.2802     312.8098      1.387     2.91     829.8168     55.18721     474.8319        20     1.194     0.889 -72.80   0
        10    442.1570     10.6160 307.7652534  +6.6839550     1006.534     1330.913     1834.067     77.98404     156.4672      312.872      1.362     2.73     832.9922     55.18721     187.7236        10     0.959     0.648  84.43   0
        11    112.1206      9.2170 307.9024182  +6.6734587     1798.486     2506.623     2028.515     78.10891     156.3425     313.0278      1.346     2.99     829.6346     55.18721     294.9319        14     1.108     0.748 -66.06   0
        12    815.6323      8.7256 307.6101433  +6.6972212     867.6845     1063.701     1272.764     78.35806     156.6539     313.0589      1.113     2.66     829.6131     55.18721     184.3569         7     0.890     0.472 -82.65   0
        13    413.4775      7.8299 307.7772625  +6.6841445     2796.528      3760.67     3385.628     78.35806     156.6539     310.9034      1.354     3.26     834.2734     55.18721     513.6738        16     1.245     0.709 -74.07  16
        14   1008.6296      4.7131 307.5300870  +6.7053109     732.1182     985.1093     658.5062     78.60643     156.2802     283.2475      1.424     3.55       828.29     55.18721     132.3552         8     0.973     0.600 -69.55  16
        15    838.9221      2.8449 307.6006632  +6.7004262      1985.53     2760.334     2741.161     78.35806     144.4851      259.058      1.414     3.15      829.931     55.18721     340.0503        14     1.186     0.757  86.76  24
        16    674.2728      3.3703 307.6690565  +6.6947121     13037.77     17067.64     17659.97     78.35806     149.5889     266.2198      1.379     2.74     829.2927     55.18721      2665.44        33     1.282     0.969 -72.12  24
        17    551.8673      2.8924 307.7199303  +6.6908166     1541.116     2239.112     2275.494     78.35806     144.8893     259.5841      1.402     3.56     830.0259     55.18721     274.7247        14     1.255     0.687 -79.28  24
        18     92.4998      3.9076 307.9107486  +6.6749912     731.1721     976.3039     1355.677     78.48235     154.3349     273.3723      1.326     3.39     828.9683     55.18721     155.6943         5     1.037     0.320 -67.08  16
        19    909.0325      1.5596 307.5715753  +6.7032947     1221.757     1447.822     1773.641     70.63963     127.7295     239.1434      0.906     1.58     830.3736     55.18721     343.8529         7     0.645     0.587  -4.48  24
        20    274.0370      1.4304 307.8354109  +6.6821110     4391.604     4826.493     4511.598      69.3868     125.8075      237.097      0.901     1.65      835.976     55.18721     1433.169        12     0.850     0.577   8.43  24
        21    665.9570      1.1310 307.6725866  +6.6953588      978.369     1302.955     1564.574     65.33569     121.2311     232.1119      0.752     1.71     829.3997     55.18721     422.5353         5     0.692     0.321  -9.82  24
        22    435.6706      1.1519 307.7682661  +6.6876451     1043.423     1153.155     1269.112     65.92966     121.5523     232.5314      0.881     2.13     833.2021     55.18721     350.7841         6     0.825     0.359  -0.65  24
        23    245.8722    986.0803 307.8140079  +6.2746438     1911.507     2654.283     3218.416     78.73032     156.8405     313.1212      1.497     3.08     860.5186     55.18721     279.7905        16     1.164     0.792 -58.50   0
        24    978.9154   1023.5942 307.5084275  +6.2836467     2580.239     3208.619     3548.355     68.96414     125.4972     236.7679      1.131     3.23     860.5699     55.18721     574.4664        11     1.119     0.598  -4.13  24
        25    754.2498   1022.8400 307.6017247  +6.2764707     956.6437     1196.464     1242.087     76.85104     136.0071     248.6145      1.492     4.00     862.9609     55.18721     136.7317        10     1.067     0.816 -57.56  24
        26    738.5637   1023.0328 307.6082304  +6.2758677     2651.573     3469.465     3392.065     74.92464     133.3294     245.4981      1.337     3.35     862.8593     55.18721     384.8319        16     1.237     0.769 -34.33  24
        27    462.0507   1023.6166 307.7230043  +6.2663872     668.5656     811.9606     874.0229     68.53886     125.1083     236.2322      1.176     3.17     863.7731     55.18721     180.9005         6     0.944     0.478  -6.26  24
        28    644.5502    984.2240 307.6485588  +6.2887523     1076.824     1354.475     1223.387     78.10891     156.6539     312.9966      1.319     3.92     862.6155     55.18721     149.9336        11     1.122     0.676  86.33   0
        29    134.0530    984.6915 307.8604745  +6.2714658     729.0989     1206.247     1404.253     78.35806     156.4049     313.2456      1.628     3.30     857.9175     55.18721     116.8494         8     0.959     0.580 -66.85   0
        30    836.6880    981.5178 307.5688800  +6.2962811     2479.105     3681.692     3602.183     78.23359     156.7783     313.1523      1.623     3.54     860.9608     55.18721     314.3986        21     1.253     0.979 -61.13   0
        31    784.8546    979.4101 307.5904702  +6.2954229     6875.959     10436.92     11405.01     77.85896     156.5294     312.8098      1.642     3.40     862.0108     55.18721     903.3098        36     1.522     1.100 -72.59   0
        32    571.4426    979.0824 307.6790823  +6.2884324     998.0654     1632.726     1999.028     78.48235     156.5917     313.0278      1.781     5.30     862.9062     55.18721      140.601        11     1.274     0.651 -77.63   0
        33    254.2108    978.4380 307.8108029  +6.2780786     1608.634     2319.138     2727.835     77.85896     156.4049     312.7786      1.602     3.98     860.5217     55.18721     232.7352        15     1.349     0.700 -63.13   0
        34    218.7730    978.2969 307.8255193  +6.2769485     871.0219     1282.849     1085.412     78.60643     156.3425     313.0278      1.591     5.18     859.7365     55.18721     125.0323        10     1.393     0.545 -26.75   0
        35     79.1488    976.6497 307.8835374  +6.2729424     3035.532     4445.466     4348.238     78.48235     156.4672     313.0278      1.540     3.21     856.0013     55.18721     483.9958        23     1.309     0.955 -68.26   0
        36    973.0811    974.5095 307.5124868  +6.3037186     6657.173     11028.65     11817.91     78.23359     156.8405     313.1212      1.803     3.74      859.106     55.18721     797.7567        38     1.534     1.224 -83.26   0
        37    228.8113    971.2432 307.8215890  +6.2801974     651.1896     958.3334     532.5807     77.98404     156.4049     312.8097      1.501     2.96     859.8193     55.18721     147.4993         5     0.917     0.387  86.19   0
        38    946.8005    966.2419 307.5236737  +6.3062571     2030.422     3439.353     3419.421     77.85896     156.2802     312.7162      1.748     4.28     859.3621     55.18721     249.9714        24     1.394     1.097 -63.48   0
        39    655.1512    968.7836 307.6446743  +6.2954813     715.9331     1009.465     1226.829     77.98404     156.6539     312.8097      1.527     4.26     862.4171     55.18721     119.4276         6     0.777     0.667  79.61   0
        40      4.4295    964.8021 307.9149543  +6.2753233     1174.644     1795.014     1895.626     77.98404     156.4049     279.7507      1.664     4.74     853.1431     55.18721     194.9169        14     1.267     0.932  83.17  16
        41    806.1382    962.8315 307.5821877  +6.3029776     1518.835     2241.468     2411.891     78.23359     156.6539     313.0278      1.519     3.85     861.3665     55.18721     226.2552        16     1.273     0.802 -67.82   0
        42    667.5383    962.1367 307.6397540  +6.2986393     4993.008     7137.659     7349.881     78.48235     156.5917     313.1212      1.513     2.96     862.2792     55.18721     759.3633        26     1.286     1.006 -65.95   0
        43    279.6070    962.3092 307.8008016  +6.2855890     5046.753     7000.272     7435.671     78.10891     156.2802      312.872      1.471     3.06      860.719     55.18721     694.1953        24     1.271     0.931 -66.56   0
        44   1016.8538    961.9398 307.4947322  +6.3103654     713.1995     1174.843      1556.14     78.60642     156.5294     312.1548      1.775     4.96     857.7743     55.18721     98.42572         7     0.861     0.810  41.63  16
        45    489.5601    960.6954 307.7136928  +6.2932859     1117.591     1568.442     1490.379     78.48235     156.4672     313.2145      1.479     3.73     862.5295     55.18721     174.6964        14     1.266     0.742 -65.78   0
        46     48.4295    959.8414 307.8968556  +6.2788499     2396.506     3364.328     3097.877     78.10891     156.4672     312.9655      1.488     3.14     854.4389     55.18721     338.6401        17     1.132     0.876 -70.25   0
        47    899.3536    958.7963 307.5436213  +6.3077508     922.7408     1403.349     1115.874     77.85896     156.3425     312.7474      1.674     3.20     859.8305     55.18721     154.2255         8     0.913     0.754  86.07   0
        48    971.0028    955.9232 307.5139695  +6.3113234     824.9839     1212.273     1147.759     77.98404      156.093     312.9655      1.607     4.94     858.6152     55.18721     115.4796         9     1.134     0.609  72.37   0
        49    315.3854    956.2291 307.7861524  +6.2892984     960.3726     1257.942     1058.425     78.10891     156.3425     312.9966      1.414     2.86     860.8792     55.18721     176.3988         8     0.930     0.560 -64.96   0
        50   1023.4757    953.5729 307.4922618  +6.3140404     679.8133     1384.383     1472.158     70.50153     127.1942     238.6539      2.156     5.16     857.2004     55.18721     112.7943        10     1.577     0.477 -84.41  24
        51    592.1533    954.6144 307.6713033  +6.2992267     2003.467     2334.735     2072.434     77.85896     156.4049      312.872      1.349     3.38     862.6047     55.18721     315.2658        13     1.085     0.746 -59.17   0
        52    631.5274    951.0903 307.6550743  +6.3019974     1280.242     1833.632     1768.943     78.48235     156.8405       313.09      1.448     3.41     862.4256     55.18721     175.1249        13     1.110     0.756 -68.35   0
        53     81.0141    951.5570 307.8836074  +6.2833648     948.6658     1441.138     1679.095     77.73369     156.3425     312.8409      1.601     4.10     855.1763     55.18721     127.2048         9     0.928     0.835  80.08   0
        54     76.2383    950.5871 307.8856227  +6.2836048     576.9397     866.9086      1183.55     78.10891     156.4049     312.8098      1.827     5.25      854.998     55.18721     77.12482         7     0.927     0.841 -77.61   0
        55    311.0339    948.9515 307.7882033  +6.2921572      1716.65     2603.321     2778.301     78.23359     156.5917     313.0277      1.577     5.53     860.6888     55.18721     241.6119        18     1.547     0.845 -45.28   0
        56    579.2892    946.7819 307.6769063  +6.3020307      756.024     1202.319     1090.326     78.23359     156.3425     312.9966      1.606     6.01     862.5042     55.18721     106.4275        10     1.250     0.813 -70.76   0
        57    778.5343    944.7364 307.5942529  +6.3095281     939.2928      1370.15     1221.925     78.48235     156.5917       313.09      1.656     4.79     861.1795     55.18721     134.5263        10     1.118     0.736 -58.00   0
        58    915.7369    941.3394 307.5374018  +6.3155043     7247.329     11299.78     11829.26     78.48235     156.5917     313.1212      1.696     3.44     859.6594     55.18721     896.0945        40     1.484     1.212  84.04   0
        59    153.5931    942.7167 307.8537742  +6.2894513     551.1282     812.2336     766.6561     78.10891     156.2802     312.9655      1.403     4.14     857.0455     55.18721     85.33063         5     1.007     0.487  85.65   0
        60    451.5858    938.4829 307.7302029  +6.3011862     2504.772     3231.893     3285.144     78.10891     156.3425     312.9032      1.386     3.02     861.6906     55.18721     381.9028        17     1.220     0.739 -65.25   0
        61    124.8981    940.0051 307.8657780  +6.2896076     588.2424     883.0764     1241.404     78.23359     156.2802     312.7474      1.420     2.96     856.0333     55.18721     123.6653         6     0.895     0.453 -57.28   0
        62    353.2660    936.9296 307.7710738  +6.2985356     11030.68     15289.53     16111.49     78.48235     156.6539       313.09      1.450     2.95      860.566     55.18721     1851.796        33     1.323     0.996 -66.90   0
        63    273.3317    935.8309 307.8042961  +6.2963106     8154.083     11313.69     12129.31     78.35806     156.5917     313.0589      1.466     2.96     859.9607     55.18721     1361.209        30     1.307     0.967 -62.07   0
        64    601.4219    930.5654 307.6682604  +6.3094657     1373.956      2000.76     2047.493     77.98404     156.4049     312.8409      1.492     3.76     862.3032     55.18721      241.176        15     1.318     0.760 -80.41   0
        65    785.9293    930.4884 307.5916588  +6.3156574     709.3708     1002.922       1280.2     78.60642     156.8405       313.09      1.721     5.43     860.7049     55.18721     87.72925         9     1.156     0.720  77.57   0
        66    931.3039    926.7437 307.5314256  +6.3220491     1069.503     1737.289     2242.988     78.35806     156.5294     313.2767      1.732     5.81     859.3901     55.18721     123.9829        11     1.192     0.799 -85.00   0
        67    235.2694    926.5942 307.8204082  +6.2988479     629.9326     850.4977     477.8771     77.98404     156.2178     312.9343      1.413     4.24      859.039     55.18721     91.11237         7     0.968     0.529 -59.63   0
        68    163.8452    925.7565 307.8500884  +6.2967976     633.9484     1042.702     1264.984     78.48235     156.5917     313.0278      1.863     4.24     856.8278     55.18721      104.558         7     1.052     0.487 -69.68   0
        69    887.3937    925.1116 307.5497113  +6.3212601     790.8616     1415.054     1248.254     77.98404     156.2802      312.872      1.893     5.25     859.6795     55.18721     112.9218         9     1.170     0.666  26.97   0
        70    429.6217    924.8248 307.7397797  +6.3060901     763.4149     895.4377     802.1429     78.10891     156.4049     313.0589      1.344     3.97     861.0145     55.18721     129.6218         8     0.843     0.777 -58.67   0
        71    998.8373    922.2930 307.5035345  +6.3261353     885.1936     1399.665     1772.639     78.60642     156.4672     313.1523      1.908     5.25     856.7383     55.18721     100.8109        10     1.233     0.632  72.87   0
        72    767.7242    919.3967 307.5995880  +6.3196296     1714.651      2713.84     2818.698     77.98404      156.093     312.9966      1.632     4.07     860.8213     55.18721     211.7584        19     1.395     0.867 -60.07   0
        73    591.4236    920.1623 307.6727597  +6.3134267     786.8077     1403.129     1454.176     78.10891     156.3425      312.872      1.985     4.05     862.1462     55.18721     169.8503         9     1.307     0.721 -66.28   0
        74    860.7305    920.3661 307.5609402  +6.3223308     513.5248     687.5865     320.9704     78.35806     156.5917     313.1523      1.383     3.51     859.8401     55.18721     99.80615         5     0.787     0.451 -15.14   0
        75    620.4286    920.0053 307.6607227  +6.3144608      535.587     498.0739    -317.5986     77.98404     156.4049     312.9032      1.263     4.11     862.1125     55.18721     93.84149         5     0.793     0.610   0.68   0
        76     18.1336    916.8719 307.9108792  +6.2955721     1031.651     1457.518     1699.364     78.48235     156.6539     313.1523      1.674     4.15     852.8004     55.18721     166.6432        15     1.264     0.994 -74.70   0
        77    631.8644    916.3690 307.6560964  +6.3163441     869.0795      1065.41     789.3881     78.23359     156.6539     313.0278      1.396     4.11     862.0104     55.18721     144.8237         7     0.888     0.592 -77.30   0
        78    368.4257    916.9004 307.7654522  +6.3073128     528.7561     737.3234     661.3201     78.60642     156.3425     312.9966      1.364     3.90     860.2994     55.18721     89.43713         5     0.882     0.494 -88.11   0
        79    999.1781    914.9164 307.5036390  +6.3291923     1205.363     1965.427     1927.672     78.23359     156.2802     312.9655      1.693     3.84     856.7097     55.18721     195.9208        14     1.234     0.856 -78.72   0
        80    552.9230    915.4359 307.6889027  +6.3140912     1486.159     1999.045      1921.19     78.35806     156.6539     313.1212      1.464     3.14     862.0647     55.18721     220.6773        12     1.011     0.748 -87.22   0
        81    686.3582    912.9909 307.6335844  +6.3195589     2889.926     3994.225     4634.945     77.85896     156.4049     312.8409      1.457     3.37     861.6765     55.18721     459.8401        18     1.275     0.833 -76.92   0
        82     82.8986    909.1426 307.8842524  +6.3009391     3351.922     4769.267     5052.162     78.23359     156.5917     313.2767      1.491     3.24     854.0834     55.18721     544.8549        18     1.280     0.756 -72.27   0
        83    976.8238    910.0315 307.5130834  +6.3304651     750.2203     920.3331     1151.417     77.85896     156.4049     312.9032      1.375     5.02     857.3734     55.18721     114.6926         8     0.884     0.808 -88.23   0
        84    846.8149    909.5184 307.5670801  +6.3263458      959.962       1503.1      1559.28     78.10891     156.3425     312.9343      1.676     3.05     859.9113     55.18721     150.6082        10     0.918     0.785  26.64   0
        85    226.5327    908.0048 307.8246600  +6.3062297     2408.346     3361.891     3644.521     77.98404     156.2802     312.9032      1.481     2.99     858.6927     55.18721     414.6248        17     1.162     0.845 -52.72   0
        86    100.4334    908.4232 307.8769970  +6.3018251     2373.237     3088.881     3151.775     77.98404     156.4049     312.9032      1.422     3.08     854.4518     55.18721     337.8555        17     1.101     0.890 -67.05   0
        87    964.5935    907.2745 307.5182534  +6.3311962     775.6351     1114.564     643.8461     78.10891     156.1554     312.9343      1.580     5.79     857.6887     55.18721     106.3844        10     1.129     0.835 -80.38   0
        88    260.6262    904.9180 307.8106093  +6.3086474     808.7834     1080.802      533.871     78.35806     156.3425       313.09      1.486     6.12     859.3259     55.18721     119.1685        12     1.415     0.744 -73.04   0
        89    680.9872    901.9676 307.6361832  +6.3239308     7904.979      10687.9     10770.14     77.98404     156.3425     313.0277      1.417     3.22     861.5352     55.18721     1162.044        27     1.297     0.925 -66.42   0
        90    365.3860    903.9537 307.7671486  +6.3125563     1075.034     1343.994      1542.19     77.85896     156.4049      312.872      1.310     4.60     860.0793     55.18721     164.4836         9     1.083     0.612 -51.83   0
        91    818.4248    902.7087 307.5790951  +6.3282108     892.3975     1363.764     1270.428     78.60643     156.4049     312.9343      1.512     4.15     860.1125     55.18721     110.2488        11     0.953     0.841   8.80   0
        92     40.8387    900.5516 307.9020027  +6.3030730     1413.184     2003.411     1748.736     78.35806     156.6539     312.9343      1.480     3.54     853.0807     55.18721     223.3254        12     1.132     0.665 -48.99   0
        93    918.6496    898.1519 307.5376339  +6.3334326     3041.186     4501.422     4802.603     78.48235     156.4672       313.09      1.560     2.95     858.6376     55.18721     424.4752        25     1.300     1.029 -57.68   0
        94     53.9677    898.6835 307.8966151  +6.3042854     1136.986     1639.714     1713.029     78.48235     156.4049     313.0278      1.390     3.44     853.3239     55.18721     187.7727        12     0.989     0.888 -46.43   0
        95    363.9627    895.1509 307.7680350  +6.3161429     18769.95     25669.46     26787.11     78.23359     156.5294     312.9655      1.415     2.98     859.9371     55.18721     3062.726        39     1.332     1.004 -63.62   0
        96     98.4962    896.2648 307.8782103  +6.3067797     1439.732      2042.95     2152.138     78.48235     156.7161     313.1212      1.525     4.13     854.1964     55.18721     197.2573        14     1.255     0.743 -69.51   0
        97    414.5564    894.2716 307.7470591  +6.3182002     798.1259     1114.489     1006.068     78.35806     156.5917     313.1212      1.355     4.07      860.114     55.18721     130.8651         8     0.952     0.612 -73.68   0
        98    235.0136    894.6940 307.8215863  +6.3120097     1297.161     1906.895     1814.339     78.23359     156.3425     312.9343      1.449     2.65     858.7185     55.18721     227.2871        11     0.975     0.662 -69.87   0
        99    441.8462    886.0350 307.7360052  +6.3225143     1343.334     1705.659     1563.476     78.10891     156.5294     312.9655      1.400     3.51     860.2675     55.18721     200.2811        15     1.186     0.896 -76.02   0
       100    127.3050    885.9872 307.8665958  +6.3119902     1773.094     2115.728     2006.583     78.23359     156.3425     312.9343      1.323     3.10     854.7476     55.18721     295.2781        14     1.117     0.777 -55.82   0
       101    104.6712    883.3864 307.8760800  +6.3123040     653.6389     883.2585      1012.38     77.98404     156.4672     312.9655      1.600     4.48      854.151     55.18721     95.13391         8     1.304     0.438 -82.02   0
       102    695.1288    882.4355 307.6309650  +6.3324673     894.5844     1569.761     2029.248     78.35806     156.5917       313.09      2.803     3.53     861.0555     55.18721     147.7054         9     1.000     0.706 -55.92   0
       103    522.4318    882.6437 307.7026608  +6.3266106     817.9855     1063.971      813.828     78.10891     156.5917     312.9655      1.353     4.00     861.2546     55.18721     114.7621         9     0.961     0.781  49.46   0
       104    908.9712    880.0816 307.5422555  +6.3405711     2141.157     3173.106     2724.358     78.35806     156.4049     313.0589      1.535     3.59     858.3689     55.18721     284.1333        18     1.196     0.951 -71.96   0
       105    879.6921    879.4895 307.5544322  +6.3398399     2169.043     3308.805     3652.667     78.48235     157.0888     313.1523      1.627     3.41     859.1754     55.18721     288.7616        18     1.217     0.905 -67.71   0
       106    843.0959    878.8906 307.5696472  +6.3388674     3200.949     4514.182     5015.988     78.48235     157.0888       313.09      1.495     3.29     859.7627     55.18721     487.7125        21     1.167     0.968 -71.60   0
       107    110.6829    879.2233 307.8737243  +6.3142246     2882.378     3859.687     4048.229     78.35806     156.3425     313.0278      1.425     3.33     854.2198     55.18721     410.4965        18     1.239     0.809 -58.42   0
       108    358.9352    877.5747 307.7707122  +6.3232312     746.6519     887.4354     926.1265     78.10891     156.5917     312.9966      1.335     4.43     859.6696     55.18721     126.4033         9     1.136     0.677 -88.10   0
       109    473.5479    877.8082 307.7231189  +6.3269719     718.4683     1013.717     1890.953     77.98404     156.4672     312.8098      1.532     4.27     860.4684     55.18721     113.3799         9     1.031     0.698  64.33   0
       110    579.0707    870.3577 307.6795563  +6.3335769     385929.9     520716.6     539046.6     78.35806     156.5917     313.1523      1.429     3.57     861.4031     55.18721     59593.47       163     1.496     1.194 -67.83   4
       111    666.9623    873.3998 307.6429620  +6.3352574     1286.873      1595.48     1644.063     77.48253     156.3425     312.9032      1.358     3.31     861.1301     55.18721     177.9315        11     0.994     0.707 -71.41   0
       112    366.4490    871.3879 307.7678002  +6.3260372     14540.32     19622.68     20472.53     77.85896     156.5294     312.7786      1.416     2.84     859.5729     55.18721     2352.528        37     1.310     0.985 -65.26   0
       113    685.0850    867.6332 307.6356304  +6.3382434     3928.505     5431.582     5747.591     78.48235     156.4049     313.0589      1.453     2.93     860.9026     55.18721     618.7186        24     1.302     0.926 -72.37   0
       114    917.4283    866.4744 307.5391982  +6.3464709     5868.762     8550.608     8881.386     78.35806     156.5917     313.0278      1.615     3.16      857.728     55.18721     767.7217        30     1.338     1.096 -58.47   0
       115    756.5434    864.2017 307.6060753  +6.3420454     991.2548     1362.873     1023.203     77.85896     156.2802     312.8098      1.425     4.59      860.252     55.18721     154.4929        10     1.154     0.699 -62.56   0
       116    659.6928    861.6130 307.6463747  +6.3398811     3894.855     5358.689     5854.323     78.23359     156.3425     312.9032      1.467     3.09     860.9574     55.18721     550.1039        21     1.255     0.864 -68.83   0
       117    848.2731    860.8773 307.5680993  +6.3464773     1790.948     2470.841     2630.186     78.73032     156.8405     313.1212      1.501     3.38     859.5427     55.18721     241.8781        15     1.160     0.804 -79.76   0
       118    769.1855    862.1831 307.6008936  +6.3433007     484.9702     788.4948     562.5878     78.23359     156.2802     313.0278      1.378     3.65     860.1233     55.18721     78.28436         5     1.156     0.331 -10.37   0
       119    423.3415    872.9657 307.7441264  +6.3272909     8882.306     11880.33     12248.55     78.35806     156.5917     313.0589      1.415     2.86     859.7284     55.18721     1529.251        29     1.273     0.965 -60.49   0
       120    650.2056    860.7123 307.6503440  +6.3399361     1131.979     1563.558     2203.135     77.98404     156.2802     312.8409      1.335     3.68     860.9852     55.18721     183.7443         9     0.961     0.681 -74.02   3
       121    652.6830    856.1671 307.6494675  +6.3418954      2625.17     3718.168     4600.676     78.48235     156.4049     313.0278      1.468     3.61     860.8326     55.18721     378.9494        18     1.303     0.819 -66.71   2
       122    202.4084    861.3420 307.8362440  +6.3246858     684.5676     848.0158     504.2473     77.85896     156.5294     312.8098      1.358     2.59     856.9063     55.18721     140.8263         6     0.818     0.483 -43.47   0
       123    975.1560    859.5905 307.5154584  +6.3512357     859.8917     1325.525     1424.119     77.98404     156.4672     312.8409      1.637     3.21     856.7371     55.18721     137.5051         9     0.932     0.652  65.72   0
       124    936.1636    854.3166 307.5318248  +6.3521148      3435.24     5056.196     5468.526     78.48235     156.5294     313.0278      1.577     3.24     857.1268     55.18721     454.3461        22     1.209     0.996 -81.05   0
       125    346.3002    855.2153 307.7767085  +6.3320394     1117.306     1484.875     1462.476     78.48235     156.3425     312.8097      1.381     4.14     859.2003     55.18721     194.9876         8     0.975     0.550 -79.41   0
       126    394.4472    850.2484 307.7568850  +6.3357027     3036.409     3941.154     4438.886     78.48235     156.4672     313.1212      1.327     3.31     858.9733     55.18721      504.156        16     1.228     0.721 -60.03   0
       127    530.6053    840.0145 307.7006956  +6.3444844     3499.877     4556.063     4299.011     78.10891     156.2802     312.9343      1.317     2.81     859.9661     55.18721     591.4099        18     1.201     0.760 -62.89   0
       128    875.1744    839.3162 307.5576494  +6.3562761     1033.229     1408.198     1271.946     78.48235     156.3425     313.0278      1.467     3.33     858.5785     55.18721     195.2294        10     0.958     0.817  -2.42   0
       129    595.7187    837.7664 307.6737354  +6.3475894     762.7457     1022.248     812.8304     78.35806     156.5294     313.1212      1.208     3.24     860.2617     55.18721      151.278         5     0.880     0.441 -83.45   0
       130    577.4901    836.1569 307.6813580  +6.3476446     7082.792     9229.508     9885.299     78.48235     156.5294     313.1523      1.369     2.84     860.1085     55.18721     1237.396        27     1.272     0.918 -61.63   0
       131    495.2747    835.2066 307.7155261  +6.3452877     1906.841     2557.441     2857.041     78.10891      156.093     312.9343      1.428     3.33     859.2532     55.18721     323.5952        17     1.276     0.757 -69.00   0
       132    288.9269    836.2545 307.8011659  +6.3379450     856.3923     954.2935     1013.773     78.35806     156.4672     313.0278      1.237     3.84     858.3865     55.18721     157.9083         7     1.123     0.531 -70.32   0
       133    913.2482    834.3427 307.5420064  +6.3595983     1500.594     2215.904     2410.738     78.48235     156.5917     313.2145      1.567     4.08     857.4869     55.18721     210.5459        15     1.192     0.929  83.35   0
       134    584.2869    835.5925 307.6785548  +6.3481049     1428.145     1856.235     2056.135     78.10891     156.2802     312.8409      1.310     3.07     860.1354     55.18721     304.4791        10     0.967     0.647 -80.36   0
       135    136.6897    834.4449 307.8644334  +6.3335849     1666.786      2032.48     2059.506     78.48235     156.4672     313.1834      1.365     3.32     853.7095     55.18721     243.9001        13     1.027     0.790 -57.89   0
       136    712.8528    832.9471 307.6252613  +6.3534916     852.0413     1163.458     1079.708     78.73032     156.4672     313.1523      1.253     2.68     860.0777     55.18721     152.0982         8     0.817     0.629 -53.39   0
       137    548.1313    830.0465 307.6937527  +6.3491860     23047.09     30689.84     31888.06     78.48235     156.5294     313.0589      1.381     2.84     859.7281     55.18721     4050.113        43     1.321     1.015 -62.14   0
       138    389.2262    832.0196 307.7596644  +6.3430539     817.7034     1083.892     932.6202     77.98404     156.3425     312.9655      1.285     4.46     858.3936     55.18721      121.077         9     0.990     0.676  65.92   0
       139    961.7831    828.1889 307.5220588  +6.3637557      4003.86     5878.365     6114.584     78.23359     156.2802     312.9966      1.588     3.31     856.6758     55.18721     500.5432        24     1.281     1.011 -58.14   0
       140    194.6983    829.5809 307.8405128  +6.3375400     777.0776     922.5126     351.9409     78.48235     156.4672     312.8409      1.466     4.13     855.4734     55.18721     128.9537         7     1.068     0.457 -49.93   0
       141     81.7929    826.4831 307.8874933  +6.3350286     719.2886     985.6678     692.0177     78.10891     156.2802     312.9655      1.367     2.86     852.2701     55.18721     126.4691         7     0.812     0.624 -74.78   0
       142    512.4022    821.8737 307.7088616  +6.3513654      390.873     636.4432     643.9268     77.98404      156.093     312.9655      1.836     4.52     858.9475     55.18721      88.1062         5     1.161     0.500 -36.52   0
       143     58.3859    820.4960 307.8974129  +6.3367141     1690.261     2171.568     2383.816     78.23359     156.3425      312.872      1.300     3.26     851.9592     55.18721     244.3012        11     1.022     0.704 -70.87   0
       144    340.6767    818.7747 307.7802667  +6.3468960      3790.03     4866.351     4770.439     78.10891     156.5917     313.0589      1.331     2.96     858.1543     55.18721     598.4201        19     1.166     0.819 -60.78   0
       145    806.3459    814.5562 307.5870558  +6.3642044     62969.52     85244.95     88453.23     78.48235     156.5917       313.09      1.476     2.92     858.6287     55.18721     9880.347        65     1.399     1.099 -68.96   0
       146     40.5849    816.9371 307.9049233  +6.3375852      2409.54     3317.757     3308.146     77.98404     156.4672     312.9032      1.421     3.18     851.8109     55.18721     352.7608        15     1.143     0.772 -62.10   0
       147    744.8516    816.3045 307.6125313  +6.3614310     716.7544     1057.313     1316.121     78.35806     156.5294      313.339      1.475     4.49     859.6129     55.18721      105.925         8     1.100     0.521 -53.89   0
       148    449.5457    813.2714 307.7352485  +6.3528139     945.8535     971.3403     872.6141     78.35806     156.4672     313.0589      1.283     3.08     857.8824     55.18721     166.2217         9     0.972     0.668 -67.25   0
       149    263.1936    791.0247 307.8133697  +6.3557560     737350.8      1534867      1667180     77.98404     156.4049     312.9032      2.123     4.97     855.9966     55.18721     63995.08       599     2.754     2.028 -85.84   4
       150    373.1440    806.5999 307.7671948  +6.3530103     24308.32     32302.24     33019.35     77.73369     156.2178     312.7474      1.393     2.77     857.7292     55.18721     4242.925        39     1.306     0.978 -64.99   0
       151    231.8934    808.8100 307.8257679  +6.3473633     688.9329     994.7385     1377.072     78.10891     156.2178     312.9032      1.496     3.01     855.7327     55.18721      128.903         7     0.793     0.758  77.82   0
       152    661.9918    805.8723 307.6472855  +6.3629719     964.6056     1314.085     1428.632     77.98404     156.1554     312.9966      1.411     4.33     859.5494     55.18721     170.0508        11     1.248     0.749 -69.08   0
       153    435.0302    804.4170 307.7415724  +6.3559838     26197.21     34196.93     34934.78     78.10891     156.3425     313.0278      1.378     2.74     857.3771     55.18721     4253.739        42     1.300     0.975 -68.22   0
       154    422.2450    806.6859 307.7468049  +6.3546190      1779.95     2257.569      1706.02     78.48235     156.4672       313.09      1.205     2.64     857.3479     55.18721     375.6384        13     1.046     0.674 -54.80   0
       155    972.0620    803.1927 307.5186246  +6.3744184     2284.985     3488.468     3125.195     77.85896     156.4049     312.9032      1.586     3.91     856.4068     55.18721     277.3932        20     1.324     0.940 -71.85   0
       156    928.5390    801.2145 307.5367629  +6.3737857     7268.886     10447.69     11211.05     77.98404     156.5294      312.872      1.547     3.14     856.8661     55.18721     1003.528        28     1.315     1.038 -71.30   0
       157    901.5600    802.1675 307.5479338  +6.3724934     700.5576     897.9048      468.841     78.10891     156.4049     312.9343      1.479     3.64     857.2943     55.18721     122.1052         7     1.010     0.549 -16.36   0
       158    669.0374    800.2725 307.6445474  +6.3655192     7582.168     10108.79     10429.44     78.35806     156.5917     313.1523      1.373     2.93     859.4468     55.18721     1253.192        24     1.217     0.883 -67.73   0
       159    626.2495    799.6038 307.6623364  +6.3643660     512.5701     550.7446     721.9808     77.85896     156.4049     312.6851      1.163     4.17     859.0042     55.18721     100.3882         6     0.721     0.687  85.20   0
       160    457.6917    798.3696 307.7323659  +6.3592391     2066.469     2476.536     2326.584     78.60643     156.4049     313.0589      1.252     2.98     857.3738     55.18721      295.567        15     1.110     0.779 -74.67   0
       161    734.5925    809.2021 307.6170286  +6.3640210     24251.91     33674.41     35740.25     77.85896     156.2802      312.872      1.433     2.91     859.6512     55.18721     3749.249        47     1.381     1.052 -68.85   3
       162    182.8066    797.6793 307.8465227  +6.3503120     878.4869     930.2872     477.2608     78.10891      156.093      312.872      1.236     2.96     854.0687     55.18721     159.5259         9     0.913     0.630 -68.97   0
       163    896.8405    792.4077 307.5502193  +6.3763658      774.422     1258.161     1129.628     77.85896     156.3425     312.7786      1.482     3.29     857.2377     55.18721     141.2975         7     1.007     0.468 -48.30   0
       164    704.0658    790.5253 307.6303288  +6.3707132     2955.633      4018.34     3995.616     78.60642     156.5917     313.0589      1.393     2.82     859.1268     55.18721     485.9389        19     1.244     0.795 -77.61   0
       165    622.1070    792.1890 307.6643046  +6.3672890     954.7523     1369.544      1570.85     78.23359     156.2802      312.872      1.421     2.38      858.615     55.18721     173.4172         8     0.791     0.688 -74.39   0
       166    173.2058    791.1968 307.8507269  +6.3526661     1061.117     1269.129     1375.532     77.85896     156.2802     312.9343      1.244     2.70     853.5714     55.18721     200.5916         9     0.934     0.672 -52.50   0
       167    148.2966    791.3435 307.8610641  +6.3517695     1100.336      1551.18     1501.031     78.35806     156.5294     313.3078      1.354     3.79     852.9114     55.18721     194.1567         8     0.989     0.536 -73.12   0
       168    437.9402    787.1227 307.7409442  +6.3632215     63763.35     84308.15      87305.6     78.60642     156.6539     313.0589      1.372     2.86     856.7529     55.18721     10929.38        63     1.355     1.049 -64.61   0
       169    728.2791    805.6699 307.6197682  +6.3652686     101498.6       135700     140586.1     78.73032     156.8405     313.0589      1.431     2.88      859.614     55.18721     17444.96        71     1.394     1.078 -68.91   3
       170    980.6389    788.5709 307.5155510  +6.3807411     730.3964     1137.204     1835.808     77.98404     156.2802     312.9343      1.925     3.38      856.064     55.18721     109.1887         5     1.098     0.302 -69.26   0
       171     90.1585    788.8670 307.8852860  +6.3508397     570.0915      780.133     788.8325     78.48235     156.5294     313.1523      1.361     2.65       851.49     55.18721     109.4766         6     0.748     0.544 -52.66   0
       172    555.6809    786.0847 307.6920908  +6.3675890     8397.942     11093.96     10999.48     78.23359     156.9026     313.1523      1.343     2.78      857.745     55.18721     1295.142        25     1.226     0.866 -65.89   0
       173    800.9156    782.7083 307.5903749  +6.3771726     13228.91      18054.4     18696.57     78.23359     156.9647     313.1834      1.435     2.93     857.8991     55.18721     1983.132        35     1.324     0.996 -72.46   0
       174    472.4176    784.7534 307.7267081  +6.3653536     5402.847     6965.229       7835.6     77.98404     156.5294     312.8409      1.328     2.71      856.821     55.18721     993.2634        21     1.185     0.870 -72.53   0
       175    469.0366    778.0606 307.7283363  +6.3680037     2770.489     3599.877     4049.089     78.48235     156.6539     313.0589      1.361     2.93     856.4461     55.18721     477.0105        18     1.166     0.813 -60.44   0
       176     30.1542    778.8346 307.9105370  +6.3529655     1269.716      1472.24     1061.768     78.10891     156.5294     312.9343      1.253     2.87     851.5115     55.18721      224.248        10     0.931     0.689 -64.79   0
       177    822.5964    776.7672 307.5815708  +6.3803486     1286.573     1595.304     1516.712     77.73369     156.4672     312.8409      1.306     3.45     857.6661     55.18721     193.8483        13     1.119     0.796 -77.68   0
       178    931.5814    809.7012 307.5352164  +6.3703830     9332.675     13391.04     14163.07     78.48235     156.4672     312.8409      1.561     3.04     856.8905     55.18721     1300.222        36     1.434     1.070 -70.86   0
       179    166.7489    774.9065 307.8539556  +6.3591750     3698.909     5075.942     5554.373     78.35806     156.4049     313.2767      1.428     3.05     852.8091     55.18721     566.7158        20     1.295     0.869 -57.26   0
       180    158.6636    774.7361 307.8573184  +6.3589740     13657.05      18068.9     19033.16     78.48235     156.5917     313.1212      1.380     2.96     852.6027     55.18721     2195.841        31     1.265     0.943 -62.46   2
       181    150.9055    772.1628 307.8606261  +6.3597760     3491.574     4689.331     4704.509     78.60642     156.4672     313.2145      1.416     3.25     852.3441     55.18721     498.1779        21     1.194     1.030 -69.00   3
       182    946.4301    771.2786 307.5303329  +6.3867416     7099.444     10015.87     10809.98     78.35806     156.6539     313.0589      1.525     2.90     856.2689     55.18721     988.7469        33     1.326     1.084 -71.54   0
       183    995.7245    771.1402 307.5098682  +6.3884401     1658.892      2307.29      2829.74     78.73032     156.5917     313.0589      1.539     4.14     855.4808     55.18721     205.5574        18     1.215     0.994 -74.25   0
       184    701.9257    768.9068 307.6319406  +6.3795676     1929.873     2653.899     2469.068     78.35806     156.7161     313.0589      1.403     2.91     858.1966     55.18721     308.1871        12     1.042     0.700 -79.33   0
       185    223.9636    769.5164 307.8303811  +6.3633202     730.6133     1789.201     3283.742     78.48235     156.5294     313.0278      3.688     6.20       854.26     55.18721     104.5228        11     1.339     0.806 -51.60   2
       186    588.8126    768.0984 307.6789361  +6.3761227     2716.643     3586.393     3700.653     78.23359     156.3425      312.872      1.362     3.03     857.2604     55.18721     415.8013        16     1.164     0.766 -74.67   0
       187    436.5135    767.4113 307.7421978  +6.3713120     1491.048     2301.777     2120.395     78.10891     156.3425     312.9343      1.560     4.21     855.9794     55.18721     244.4039        17     1.429     0.843  66.54   0
       188    150.9544    765.8074 307.8608196  +6.3624015     2242.784     3057.179     2980.048     77.98404     156.4049     312.7474      1.445     3.35     852.1386     55.18721     342.5316        18     1.184     0.894 -63.49   0
       189    720.2541    766.3161 307.6244167  +6.3812491     509.1101     634.2023     105.0923     78.48235     156.5917     313.2456      1.155     3.49     858.2847     55.18721     111.0245         5     1.134     0.310 -36.41   0
       190    940.5575    763.1863 307.5330416  +6.3898872     3286.858     4527.102     5155.543     77.85896     156.4049     312.8409      1.460     3.10     856.2445     55.18721     459.0547        22     1.208     0.973 -52.32   0
       191   1000.8323    762.5681 307.5080331  +6.3921495     2148.785     3091.763     2982.427     77.98404     156.3425     312.7786      1.507     3.55     855.2224     55.18721     298.0947        18     1.245     0.873 -75.85   0
       192    970.1047    762.7929 307.5207852  +6.3910336      3242.63     4614.268     4738.356     78.23359     156.2802     312.9032      1.526     3.28     855.7505     55.18721     473.9852        23     1.213     1.010 -67.93   0
       193    692.8658    762.5170 307.6359164  +6.3819033     1777.565     2313.165     2585.657     78.73032     156.8405     313.1523      1.284     2.70     857.8285     55.18721     302.7583        12     1.006     0.740 -69.57   0
       194     11.6099    764.5392 307.9187179  +6.3582442      4327.85     4292.244     3524.249     77.85896     156.4672     312.8409      0.837     0.94     851.5309     55.18721      1799.27         8     0.704     0.448  31.91   0
       195    840.1996    760.5300 307.5748036  +6.3876396     1146.644         1449     1421.687     77.98404      156.093     312.9032      1.414     2.82     857.3006     55.18721     201.2683        10     0.960     0.647 -83.91   0
       196    915.7872    758.6342 307.5434794  +6.3909415       903.68     1225.865       1503.7     77.98404     156.3425     312.9655      1.461     3.78     856.5671     55.18721     129.8253         9     0.977     0.675 -84.64   0
       197    265.6423    757.7234 307.8134719  +6.3695870     2415.545     3607.815     4441.956     78.35806     156.5917     313.1212      1.631     3.23      855.123     55.18721     387.6504        20     1.231     0.941 -75.87   0
       198    958.3531    752.8187 307.5259979  +6.3947605     1032.075     1352.303     1328.909     77.98404     156.5294     312.9032      1.318     3.36     855.7989     55.18721     192.2937        11     1.015     0.762 -35.53   0
       199    285.3719    753.0108 307.8054382  +6.3721942      906.054     870.7056      657.234     78.10891     156.4049     312.9343      1.127     2.60     855.5143     55.18721     168.4639         7     0.722     0.660  75.66   0
       200    181.1281    752.2951 307.8487457  +6.3689930     903.0976     1076.569     802.0398     78.35806     156.6539       313.09      1.219     4.86     852.3781     55.18721       168.06        11     1.228     0.705 -52.74   0
       201    984.9893    750.4957 307.5150147  +6.3966065     2853.415       4049.3     4278.397     78.23359     156.2178      312.872      1.495     3.13     855.2362     55.18721     385.3138        22     1.252     0.961 -60.56   0
       202    932.2289    751.4962 307.5368902  +6.3944364     1221.266     1634.757     1296.798     78.60643     156.3425       313.09      1.483     3.36     856.2603     55.18721     196.3585        10     1.111     0.604 -59.51   0
       203    704.6802    749.7399 307.6314381  +6.3875731      1111.71      1588.05      2383.99     78.60643     156.5917     313.0589      1.981     4.24      857.451     55.18721     181.9001        11     1.105     0.726 -45.69   0
       204    425.3087    745.4055 307.7475885  +6.3800224      818.331     1074.663     404.6789     78.10891     156.2802     312.8409      1.370     3.84     855.2822     55.18721     142.8514         6     1.024     0.413 -55.61   0
       205    495.5848    744.5848 307.7184352  +6.3827132     861.3764     1030.724     1344.374     78.23359     156.2802     313.0278      1.374     4.40     854.8158     55.18721     123.2621         8     1.173     0.470 -82.15   0
       206    653.1299    743.6390 307.6530481  +6.3883705     846.4287     1223.405       1310.1     78.35806     156.5917     313.1523      1.487     3.06     856.5626     55.18721     176.8479         7     0.894     0.706 -59.54   0
       207    922.3199    743.0551 307.5412867  +6.3975915     509.2502     604.6087     441.9205     78.60642     156.5917     313.1212      1.382     4.89      856.309     55.18721     88.69464         5     1.181     0.574 -41.80   0
       208    828.1627    742.3154 307.5804105  +6.3947586     1342.298     1716.847     1779.063     78.48235     156.5917     313.0589      1.403     4.47     856.9634     55.18721     192.5554        12     1.044     0.856 -63.65   0
       209    914.3290    739.6461 307.5447188  +6.3987328     1655.116     2434.276     2887.124     78.48235     156.5917       313.09      1.538     4.03     856.3641     55.18721     282.4016        15     1.138     1.009 -63.58   0
       210    888.7009    735.1697 307.5555105  +6.3997270     1036.305     1338.399     1421.178     78.48235     156.3425     313.1523      1.423     4.37     856.5566     55.18721     152.2131         9     1.109     0.564  83.52   0
       211    674.4166    734.3616 307.6445194  +6.3929119     642.4038     762.5752     1133.016     78.10891     156.4672     312.8409      1.280     3.39     856.2203     55.18721     153.5451         5     1.196     0.415 -57.85   0
       212    871.2277    731.2177 307.5628984  +6.4007764     1795.164     2587.848     2478.455     78.10891     156.4049     312.9966      1.499     3.50     856.6625     55.18721     266.6725        16     1.242     0.814 -75.41   0
       213    134.4920    730.5282 307.8688418  +6.3764142     825.1007     1214.816     1085.524     78.35806     156.7783       313.09      1.887     3.97     850.9536     55.18721     123.6076         7     0.978     0.480 -80.45   3
       214    133.6680    727.2615 307.8692938  +6.3777352      845.867     1231.773     1086.202     78.48235     156.5294       313.09      1.169     3.78     850.8254     55.18721      158.027         6     0.916     0.455  89.25   3
       215     70.3561    730.1299 307.8954851  +6.3744245     2805.824      3837.52      4554.71     78.35806     156.5917     313.1212      1.465     2.83     850.9558     55.18721     501.6083        17     1.170     0.775 -59.72   0
       216    588.0103    725.0330 307.6807117  +6.3938765     696.8467     525.3889     65.62042     77.98404     156.3425     312.9343      1.090     2.24     855.5602     55.18721     168.6265         7     0.834     0.499 -52.65   0
       217    683.0265    718.5732 307.6414725  +6.3997181     7417.406     9912.382     10419.88     77.98404     156.4049     312.9655      1.431     2.98     856.2405     55.18721     1243.298        27     1.265     0.898 -71.95   0
       218    629.7134    718.0092 307.6636297  +6.3981701     1807.746     2467.495     2658.663     78.10891     156.2802     312.9343      1.405     3.04     855.8508     55.18721     250.9292        15     1.099     0.810 -76.55   0
       219    551.3493    718.5421 307.6961524  +6.3953307     792.2455     1220.176     973.4355     78.48235     156.5917       313.09      1.484     3.43     854.7737     55.18721     148.0122         7     0.915     0.538  63.02   0
       220    540.2917    718.3311 307.7007511  +6.3950481     937.5134     1105.685     678.1059     78.48235     156.7161       313.09      1.131     2.58     854.5833     55.18721     168.0176         8     0.899     0.567 -70.86   0
       221    656.9329    714.3189 307.6524503  +6.4006031     2634.573     3410.357     3875.216     78.60642     156.8405     313.1212      1.338     3.02      855.944     55.18721     405.4165        18     1.214     0.817 -70.13   0
       222    145.9515    714.4663 307.8646239  +6.3834302     4320.127      5751.59     5544.106     78.35806     156.5294       313.09      1.416     2.90     850.4852     55.18721     688.0616        21     1.174     0.862 -71.91   0
       223   1019.9661    713.7655 307.5017153  +6.4129361     2919.868     4288.309       4423.3     78.23359     156.3425     286.8376      1.550     3.45     853.6157     55.18721     398.1319        22     1.217     1.001 -84.42  16
       224    332.4102    714.5914 307.7871971  +6.3896328     800.5388     1062.919     464.7171     77.98404     156.4049     312.9966      1.330     3.53     853.6819     55.18721     156.6329         6     0.950     0.386 -69.45   0
       225    268.1619    714.2399 307.8138868  +6.3876242     833.3759     946.4899     730.3835     78.23359     156.5917     312.9655      1.226     3.14     853.0463     55.18721     140.0114         8     0.896     0.623 -85.14   0
       226    799.8891    710.7181 307.5932073  +6.4068616     23402.85     31180.56     32189.54     78.23359     156.7783     313.1523      1.389     2.95     856.2927     55.18721     3703.635        41     1.320     1.002 -71.28   0
       227    929.8373    710.3959 307.5392553  +6.4113263     3966.243     5438.965     5616.255     77.60821     156.3425     312.9032      1.433     2.92      855.515     55.18721     582.5081        23     1.222     0.930 -70.47   0
       228    498.9524    710.9749 307.7181636  +6.3967025     1451.684     1862.862     1602.889     78.10891     156.6539     312.9966      1.275     2.85     853.9498     55.18721     284.9437        11     1.014     0.666 -73.08   0
       229    527.2873    710.6323 307.7064091  +6.3977918     1122.584     1409.586     1351.291     78.60643     156.4049       313.09      1.282     3.89      854.262     55.18721     182.9021        10     1.068     0.631  78.94   0
       230    344.6802    710.2975 307.7822463  +6.3918168     739.2885     764.4801     732.9994     78.35806     156.9026     313.1523      1.061     3.56     853.4162     55.18721     136.2605         7     1.014     0.471 -58.06   0
       231    680.4543    703.4893 307.6430454  +6.4058599      8333.69     11342.43     11937.18     78.48235     156.4049     313.2145      1.444     2.77     856.0325     55.18721     1539.788        33     1.367     0.985 -61.12   0
       232    273.3150    704.3809 307.8120783  +6.3918675     7410.157     9550.657     10030.79     78.10891     156.3425     313.0278      1.327     2.69     852.4548     55.18721     1302.364        24     1.189     0.848 -68.44   0
       233    662.8560    704.3837 307.6503233  +6.4049029     1083.142     1682.819     2088.949     77.85896     156.5294     312.8409      1.473     4.70     855.8776     55.18721      198.694        10     1.252     0.550 -62.00   0
       234    375.8080    703.5308 307.7695481  +6.3956534     913.1696     1168.688     505.5015     77.98404     156.2802     312.9966      1.344     4.88        853.3     55.18721     132.1835        10     1.068     0.637 -60.97   0
       235    940.0565    696.0800 307.5354895  +6.4175775     1333.053      1684.98      1400.06     78.60642     156.5917       313.09      1.342     3.36     854.9608     55.18721     213.8187        10     1.006     0.681 -80.08   0
       236    752.0816    692.0107 307.6136854  +6.4129904     4188.925     5927.051     6546.147     78.10891     156.2802     312.9343      1.436     2.88     856.1885     55.18721     710.4028        23     1.266     0.947 -67.71   0
       237    707.3762    692.2454 307.6322421  +6.4114012     1152.164     1352.462     1467.474     78.10891     156.5917     312.9655      1.267     3.80     856.0959     55.18721     210.4542        10     1.079     0.726 -55.02   0
       238   1018.4980    688.4539 307.5031692  +6.4233380      9863.92      14055.3     14612.62     78.35806     156.5917     301.7726      1.575     3.05     852.9607     55.18721     1377.244        36     1.328     1.135 -76.92  16
       239     17.6144    690.7565 307.9187101  +6.3889075     751.6567     1040.326     1030.824     77.85896     156.4049     312.8409      1.227     4.36     849.2986     55.18721      153.857         7     1.064     0.508 -61.08   0
       240   1007.1610    688.9225 307.5078615  +6.4227671     704.6103     836.1254     909.4102     78.35806     156.6539       313.09      1.417     4.72     853.2425     55.18721     108.7641         7     1.010     0.626 -86.03   0
       241    956.9327    688.9639 307.5287187  +6.4210777     2800.085     4030.697     2914.592     78.35806     156.6539     313.1523      1.489     3.10     854.4012     55.18721      380.344        23     1.230     0.992 -56.78   0
       242     37.0219    688.3977 307.9107312  +6.3905337     2106.758      3324.92     4263.338     78.10891     156.2802     312.8409      1.882     4.47     849.1357     55.18721     347.3402        22     1.752     1.040 -10.56   0
       243    570.1634    686.6824 307.6894073  +6.4091138     541.7711     995.5757     858.5957     78.48235     156.5294     313.0589      1.782     5.52     854.2736     55.18721     119.5627         7     1.237     0.694  42.53   0
       244    454.3654    686.7787 307.7374896  +6.4052003      636.155      1043.87      1136.38     77.98404     156.4049     312.8409      1.428     1.95     853.2005     55.18721     140.3682         5     0.671     0.460 -73.21   0
       245     95.7312    683.4174 307.8865214  +6.3945625     30119.53     39971.84     41445.53     77.98404     156.4672     312.9966      1.372     2.87      848.863     55.18721     4476.112        43     1.320     0.969 -62.43   0
       246    557.0501    684.2826 307.6949331  +6.4096661     2307.806     2978.669     3130.787     78.48235     156.5917     313.1212      1.339     3.04     853.9691     55.18721     372.3705        15     1.149     0.736 -71.28   0
       247    946.5091    680.5538 307.5333281  +6.4242029     1168.687     1836.712     1380.924     78.48235     156.5294     313.2145      1.590     2.63     854.4415     55.18721     171.7454        11     0.906     0.752 -77.43   2
       248    525.6938    681.7100 307.7080402  +6.4096797     1689.094     2141.021     2059.355     78.48235     157.0888     313.1212      1.310     3.48      853.591     55.18721     257.4955        11     1.044     0.704 -69.70   0
       249    566.1743    678.0161 307.6913542  +6.4125585     1273.058     1538.275     1562.482     78.23359     156.4672     313.0277      1.336     3.27     853.9714     55.18721     232.5864        12     1.064     0.847  85.87   0
       250    741.7312    675.6266 307.6185315  +6.4194096     4185.951     5658.693     6039.236     78.10891     156.4672     312.9966      1.410     2.96     855.7937     55.18721     655.1448        20     1.213     0.833 -67.67   0
       251    763.7650    673.8116 307.6094422  +6.4208943     4969.018     6630.241     6879.469     77.98404     156.4049     312.9032      1.373     2.95     855.6312     55.18721      796.579        24     1.271     0.885 -78.11   0
       252    595.1742    671.8007 307.6795198  +6.4160941     3903.828     5204.991     5477.877     78.10891     156.2802     312.9032      1.349     2.53     854.3364     55.18721     802.2339        20     1.148     0.839 -65.03   0
       253    431.2247    672.4999 307.7475778  +6.4103209     1539.871      1978.76     2111.289     78.48235     156.3425     312.9343      1.291     3.18     852.4876     55.18721       293.51        12     1.099     0.689 -58.04   0
       254    255.8526    671.5006 307.8204343  +6.4048569     2031.121     2850.672     2950.169     78.35806     156.5917     313.3078      1.466     3.45     850.3057     55.18721     348.4795        14     1.065     0.857  70.99   0
       255    339.4308    670.7988 307.7857524  +6.4079486     1734.541     2311.208     2604.878     77.85896     156.4049     312.9032      1.357     4.14     850.9296     55.18721     319.4626        14     1.345     0.742 -51.53   0
       256   1002.1115    668.8011 307.5106297  +6.4309068      8991.47     12939.53     13314.23     77.73369     156.1554     312.8409      1.532     3.21     852.9027     55.18721     1331.199        32     1.315     1.058 -71.68   0
       257    556.2365    669.3370 307.6957717  +6.4158095     709.5349     935.9505     624.0114     78.48235     156.6539       313.09      1.512     3.87     853.6414     55.18721     112.5228         6     0.883     0.486 -41.11   0
       258    721.7955    667.7071 307.6270752  +6.4220139      1134.73      1583.59     1536.217     78.10891     156.2802     312.8097      1.447     3.29     855.6418     55.18721     196.7056        11     1.118     0.687 -57.75   0
       259    113.2805    665.6317 307.8798330  +6.4024950     1087.693      1506.97     1827.525     78.35806     156.5917     313.0589      1.341     4.66     848.6218     55.18721     181.7899         9     1.162     0.557 -72.28   0
       260    160.5443    662.3456 307.8603180  +6.4054387     29082.32     38126.79      39304.1     78.73032     156.5917       313.09      1.369     2.72     849.3184     55.18721     4746.884        48     1.321     1.021 -67.40   0
       261    828.9849    663.0666 307.5827173  +6.4275063     1334.431     1588.568     1583.858     77.98404     156.4672     312.9966      1.305     3.45      855.257     55.18721      206.408        12     1.058     0.761 -85.10   0
       262    447.3732    663.1736 307.7411849  +6.4147121     3316.867     4575.604     4657.287     77.98404     156.4049     312.9655      1.414     2.96     852.4964     55.18721     606.7946        17     1.277     0.737 -63.03   0
       263    379.9001    657.2583 307.7694020  +6.4148949     742.5533     1072.845     902.9512     78.23359     156.5917     313.2456      1.329     4.81     851.2665     55.18721     140.6771         9     1.334     0.491 -66.83   0
       264    996.9895    651.8037 307.5133238  +6.4377542     7484.811      11348.2     12112.34     78.10891     156.2802     312.9966      1.610     3.05     852.8698     55.18721     1091.142        37     1.419     1.145  81.82   0
       265    590.5498    647.0955 307.6822677  +6.4261397     57600.04     74211.83     76644.01     78.35806     156.5294     313.2456      1.316     2.65     853.8962     55.18721     10388.51        58     1.294     1.010 -66.24   0
       266    459.5486    649.3884 307.7365914  +6.4208111     485.2872     580.1517      383.069     77.85896     156.4672     312.8409      1.203     4.16     852.3743     55.18721     86.33795         5     0.993     0.497 -88.92   0
       267    955.1742    648.3928 307.5308031  +6.4377702     779.0632     994.7104     527.8828     77.98404     156.4672     312.9343      1.284     4.06     853.8434     55.18721     133.5366         6     1.017     0.463 -51.96   0
       268    549.7059    647.8206 307.6992047  +6.4244747     783.3314     966.6394     709.8915     78.35806     156.4049     312.9343      1.324     4.98     853.4417     55.18721     125.1392         8     1.181     0.596  78.23   0
       269    233.7856    648.7264 307.8303630  +6.4135194     755.1677     837.0084     460.0672     77.98404     156.3425     312.9655      1.179     4.10     849.6528     55.18721     121.7531         6     0.742     0.648 -66.54   0
       270      3.7947    647.4274 307.9259081  +6.4063315     510.3725     674.9984     584.8823     77.98404     153.0667     271.7991      1.560     4.58     848.4296     55.18721      88.0705         6     0.997     0.597  67.53  16
       271    815.2847    646.5977 307.5889571  +6.4338491     851.1078     1103.954     573.6003     77.85896     156.2178     312.8097      1.490     4.00     855.0358     55.18721     127.0166        10     1.112     0.645 -56.25   0
       272    520.6861    643.7424 307.7113923  +6.4251879     762.2508     1282.171     1300.565     78.48235     156.5917     313.2456      1.516     4.20     853.0797     55.18721     144.3115         7     1.372     0.368 -62.63   0
       273    198.0188    643.8174 307.8453801  +6.4143461     3274.874     4177.268     4128.424     78.23359     156.3425     313.0278      1.317     2.60     849.2138     55.18721     628.5617        19     1.144     0.829 -67.10   0
       274     41.3951    651.3809 307.9101621  +6.4059633     1435.463     1931.291     1913.782     78.10891     156.2178     312.9032      1.426     2.95     848.3334     55.18721     228.2756        13     1.068     0.746 -54.78   0
       275     90.8126    638.3137 307.8900821  +6.4130187     1612.836     2111.431     2128.487     78.10891     156.4672     312.9655      1.339     3.01     848.0609     55.18721     257.2453        15     1.071     0.863  71.71   0
       276    487.8023    630.8940 307.7254788  +6.4293925      75153.4     97921.64     100700.7     78.10891     156.2802     312.7786      1.330     2.87     852.4412     55.18721     12050.64        65     1.319     1.024 -64.75   0
       277    121.1136    631.6415 307.8777244  +6.4167912     506.6272     707.2962     626.7489     78.48235     156.5294     313.1212      1.419     3.51     848.2126     55.18721     85.65216         5     0.821     0.433 -17.25   0
       278    673.6825    627.7275 307.6483932  +6.4369140     998.5042      1388.57     1440.863     78.73032     156.9026     313.1212      1.359     3.22     854.9344     55.18721     188.3073         8     0.956     0.544 -75.12   0
       279    162.0114    625.9915 307.8609317  +6.4204971     2058.735     2623.766     2672.531     77.98404     156.3425     313.0277      1.309     2.81     848.4901     55.18721     368.1368        16     1.215     0.722 -87.28   0
       280    957.3239    623.8373 307.5307299  +6.4479803     678.4541     768.6138     604.9559     78.35806     156.6539     313.1212      1.040     3.30     853.5877     55.18721     131.0317         6     0.730     0.643  36.11   0
       281    633.8758    622.6625 307.6650937  +6.4376754     1117.343     1248.913     832.1811     78.73032     156.5917       313.09      1.208     3.43     854.1085     55.18721     186.7697        12     1.159     0.741 -62.06   0
       282    441.5256    623.7770 307.7449348  +6.4307819     1059.687     1385.576     1431.806     78.10891     156.4049     313.0278      1.364     2.94     851.5143     55.18721     201.6198        10     0.912     0.803 -72.02   0
       283    333.1642    620.3267 307.7900496  +6.4285768     2580.123     3518.034     3933.371     78.35806     156.5917       313.09      1.440     2.74     849.8754     55.18721     450.5536        17     1.322     0.763 -74.47   0
       284     34.0269    621.7260 307.9142204  +6.4179588     761.2783     960.2211     655.2964     78.23359     156.5294     313.0589      1.335     4.01     848.2366     55.18721     116.2357         7     1.099     0.445 -57.64   0
       285     40.9072    619.9684 307.9114226  +6.4189157     511.0797     706.8416     563.2969     78.60642     156.4049     313.1212      1.425     3.77     848.1841     55.18721     97.35645         5     1.213     0.337 -63.69   0
       286     31.2582    632.6254 307.9150030  +6.4133659     1962.827     2689.365     2866.565     78.10891     156.5917     312.9343      1.394     2.82     848.2947     55.18721     356.5279        13     1.068     0.718 -70.59   0
       287    759.8348    614.3112 307.6130641  +6.4453296     6296.555     8052.929     8251.188     78.60642     156.5294       313.09      1.319     2.86     854.6604     55.18721     998.5531        23     1.187     0.863 -66.65   0
       288    813.3976    609.6453 307.5909759  +6.4490429     16297.13     21313.11     21757.48     77.85896     156.2178     312.7474      1.342     2.72     854.4926     55.18721     3115.888        36     1.262     0.964 -64.97   0
       289    555.7700    609.5815 307.6979678  +6.4404654       1451.8     2172.321     2183.772     78.10891     156.4049     312.9966      1.410     2.93     853.2731     55.18721     233.0377         9     1.000     0.571 -65.13   0
       290     58.1583    608.8879 307.9046323  +6.4240702     829.9691     1225.418      1311.51     78.48235     156.5294     313.1212      1.512     4.45     848.0006     55.18721     141.3145        12     1.126     0.947  61.94   0
       291    637.2199    607.7265 307.6642051  +6.4439538      3537.34     4297.163     4125.988     78.10891     156.5294     313.0278      1.266     2.52     853.8684     55.18721     735.5596        19     1.143     0.835 -62.71   0
       292    954.5259    603.7787 307.5325614  +6.4561689     1378.551      1959.28     2572.299     78.10891     156.4672     313.0278      1.611     3.34     853.4302     55.18721      224.197        13     1.157     0.752 -65.58   0
       293    249.6899    601.5023 307.8253460  +6.4335499     1464.141     2054.449     2172.609     78.48235     157.0268       313.09      1.465     3.68     848.7288     55.18721     256.4277        11     1.203     0.641 -82.14   0
       294    395.7256    601.4102 307.7647049  +6.4384829     1007.727     1270.376     683.0315     78.10891     156.2178     312.9655      1.158     4.47     850.2134     55.18721     197.5527         8     1.211     0.523 -62.55   0
       295    213.2405    602.2639 307.8404565  +6.4320127     703.8966      793.927     719.6624     78.48235     156.5294     313.1834      1.217     3.10     848.2354     55.18721     120.0701         6     0.719     0.642 -60.16   0
       296    889.4460    592.8617 307.5599538  +6.4585081     3297.233     4289.652     4469.093     78.35806     156.4672     313.1212      1.360     2.70     853.8664     55.18721     582.1638        17     1.092     0.811 -69.40   0
       297    184.3191    592.8354 307.8527836  +6.4349347     859.0172     1473.041     2082.964     78.35806     156.6539       313.09      1.646     5.06     847.8596     55.18721     137.4261        11     1.227     0.807 -53.56   0
       298    848.0779    590.2117 307.5772227  +6.4582232     2971.767     4095.845     4270.942     78.10891     156.2178     312.9655      1.428     2.80     853.9641     55.18721     525.8815        20     1.150     1.057  -1.49   0
       299    761.8635    586.6856 307.6131455  +6.4568032     769.6238     1190.905     1363.978     78.60642     156.7161       313.09      1.510     4.93     853.9768     55.18721     162.0709         8     1.128     0.677 -71.08   0
       300    819.0662    586.3073 307.5894018  +6.4588678     2929.024     4039.243     4678.479     78.35806     156.7783       313.09      1.435     2.61     853.9991     55.18721     520.6389        17     1.121     0.800 -80.80   0
       301    276.1449    585.3603 307.8149026  +6.4411016     9263.978     12014.26     11945.03     78.48235     156.6539     313.0589      1.348     2.64      848.885     55.18721     1660.393        27     1.209     0.896 -65.52   0
       302    828.7784    581.5181 307.5855284  +6.4611691     188339.6     242765.5     251105.2     78.23359     156.2802     313.0278      1.351     2.81     853.8898     55.18721     29299.31       101     1.371     1.096 -68.47   0
       303    880.3461    584.2435 307.5640210  +6.4617631     600.7916     676.5258     522.6769     78.48235     156.5917       313.09      1.261     2.64     853.7364     55.18721      101.507         5     0.708     0.460  76.92   0
       304    210.3876    579.9230 307.8423925  +6.4411406     69366.28     92230.57     95535.05     78.10891     156.2178     312.9032      1.372     2.73     847.8566     55.18721     13060.24        65     1.367     1.046 -60.98   0
       305    134.3382    576.1641 307.8740998  +6.4401396     7232.824     9503.319     9201.283     78.48235     156.5917     313.0589      1.364     2.73     847.1851     55.18721     1302.076        27     1.228     0.907 -60.18   0
       306    999.6772    573.3257 307.5148260  +6.4702459     1529.699     2023.168     1867.122     78.73032     156.8405     313.1212      1.333     3.14     852.4774     55.18721     268.0801        14     1.125     0.782 -86.02   0
       307    248.5807    571.7993 307.8268051  +6.4457760     941.8219     1419.662     1411.506     78.10891     156.1554     312.7786      1.481     4.16     848.2678     55.18721     159.2809        10     1.255     0.639 -53.83   0
       308   1020.6283    571.9122 307.5061718  +6.4715269     696.5877      804.426     101.8019     78.60642      156.093     279.0181      1.289     4.43     852.2636     55.18721     110.7813         7     0.899     0.620 -63.40  16
       309    865.3828    568.8417 307.5707499  +6.4676233     5010.695     6678.571     6959.128     77.98404     156.4049      312.872      1.387     2.69     853.5746     55.18721     977.0131        21     1.195     0.861 -66.86   0
       310    473.9702    567.1741 307.7333599  +6.4552375     744.8834     953.9959     1147.892     77.98404     156.4049     312.9343      1.439     3.37     850.4025     55.18721     135.2031         8     0.966     0.572 -64.66   0
       311    185.6054    566.0537 307.8531503  +6.4460350     2361.412     3408.792     4844.454     77.98404     156.3425     312.7786      1.635     2.80     847.3075     55.18721     404.7051        19     1.192     0.947 -61.35   0
       312    550.1360    561.9307 307.7019045  +6.4599506     7814.783      10103.3     10294.48     78.48235     156.6539     313.1212      1.328     2.59     850.7737     55.18721     1486.568        26     1.194     0.887 -66.87   0
       313    260.5698    563.5797 307.8221026  +6.4495717     976.2682     1209.391     1220.269     77.98404     156.4049     312.9655      1.208     3.34     848.3236     55.18721     210.4111         8     1.081     0.495  89.69   0
       314    819.3685    562.1287 307.5900845  +6.4688607     6842.048     8944.759     9375.467     78.35806     156.5917     313.0589      1.351     2.67     853.5343     55.18721     1241.111        23     1.164     0.890 -68.29   0
       315    122.9531    563.0541 307.8792689  +6.4451698     1125.912     1457.623     1340.351     78.48235     156.5917     313.1212      1.327     2.71     846.8923     55.18721     200.5162         7     0.851     0.528 -47.85   0
       316    408.2257    558.5762 307.7609515  +6.4565863     1625.746     2126.832     1935.961     77.98404     156.4049     313.0278      1.303     2.69     849.4928     55.18721     312.9591        10     0.930     0.661 -82.11   0
       317    594.8157    554.8378 307.6835867  +6.4643730     2842.755     4232.372     4317.904     78.23359     156.4049     312.8409      1.538     3.30     851.1208     55.18721     556.8925        22     1.411     0.913 -46.06   0
       318    197.1161    555.0956 307.8487388  +6.4509455     8006.706     10945.06     11705.13     78.35806     156.9647     313.1834      1.398     2.73     847.2463     55.18721     1449.257        27     1.231     0.923 -67.59   0
       319    383.7748    566.9985 307.7708229  +6.4522900     20212.84     26738.06     27392.59     78.10891     156.2802      312.872      1.336     2.84     849.3146     55.18721     3196.241        39     1.295     0.942 -63.57   0
       320    292.3679    551.5384 307.8093021  +6.4556095     102928.1     134250.3     138159.8     78.23359     156.6539     313.0278      1.368     2.71     848.5259     55.18721     19077.24        75     1.357     1.058 -65.82   0
       321     68.6690    553.8547 307.9021210  +6.4471441     5894.113     8121.055     8257.018     78.48235     156.4672     313.0589      1.389     2.95     846.9296     55.18721     1009.226        27     1.254     0.946 -64.04   0
       322    835.8452    554.3099 307.5835028  +6.4726384     1708.625     2056.584     1925.571     78.48235     156.4672     313.2145      1.231     2.90     853.3661     55.18721     274.1899        13     1.062     0.727 -49.13   0
       323    581.7767    549.1387 307.6891928  +6.4662901     1115.051      1299.87      1933.84     78.10891     156.5294     312.9966      1.263     3.05     850.6469     55.18721     201.1008         9     0.961     0.648 -64.76   0
       324    275.9895    546.6092 307.8162695  +6.4570953     1941.421     2403.561     2401.832     78.10891     156.4049     313.0278      1.382     3.43     848.2632     55.18721     303.2938        13     1.133     0.699 -74.10   0
       325    991.9078    545.0742 307.5189955  +6.4816518     1825.937      2328.54     2240.667     78.48235     156.7161       313.09      1.411     3.00     852.5284     55.18721     325.7137        14     1.059     0.810  89.73   0
       326    815.5201    543.9070 307.5922918  +6.4762557     18843.28     24578.29     24867.34     78.23359     156.7783     313.1523      1.336     2.66     853.1658     55.18721     3507.336        35     1.267     0.925 -68.57   0
       327    519.1326    542.3224 307.7154375  +6.4670093      47055.1     67738.41     71327.75     78.60642     156.6539     313.0589      1.535     2.91     849.6567     55.18721     7679.039        67     1.434     1.271 -44.72   0
       328    669.4612    540.9971 307.6530495  +6.4725818     971.9175     1377.993     1373.182     77.85896     156.3425     312.8097      1.368     2.86     852.0491     55.18721      167.238         6     0.768     0.493 -82.84   0
       329    231.4156    538.6889 307.8350466  +6.4588702     2123.975     3077.028     3232.507     78.23359     156.3425     312.9343      1.506     3.59     847.3618     55.18721     369.5888        18     1.316     0.805 -58.80   0
       330     67.2471    538.9578 307.9032132  +6.4532466     1328.823      1809.79     2081.394     78.48235     156.5917     312.9966      1.471     2.83     846.7153     55.18721     297.0903        13     1.138     0.699 -57.51   0
       331    741.4362    536.5780 307.6233052  +6.4768097     1541.278     2169.465      2238.45     78.10891     156.3425      312.872      1.537     3.30     852.2936     55.18721      290.043        16     1.204     1.031 -84.83   0
       332    279.5852    539.1154 307.8150281  +6.4603098     478.6106     554.3273     362.3059     78.10891     156.3425     312.9966      1.096     3.40     848.0265     55.18721     94.58093         5     0.762     0.438 -68.84   0
       333    117.3594    538.7863 307.8824086  +6.4550011     705.9989     996.0443     1032.929     77.98404     156.4049     312.8409      1.190     2.08     846.4429     55.18721     141.0551         5     0.663     0.472 -79.17   0
       334    689.3145    537.3337 307.6449268  +6.4747574     1632.675     2190.837     2297.102     78.60643     156.8405     313.1523      1.384     2.59     852.0401     55.18721     327.3975        12     1.094     0.697 -61.44   0
       335    679.0573    537.3064 307.6491877  +6.4744261     3637.173     4691.608     4753.329     78.35806     156.5917     313.2456      1.354     2.74     851.9957     55.18721     673.4796        19     1.157     0.822 -57.57   0
       336     98.2147    534.9111 307.8904894  +6.4559578     736.1638     1148.449     1213.573     78.23359     156.4049     312.9655      1.526     4.06     846.4222     55.18721      155.715         6     1.018     0.505 -60.18   0
       337    416.6823    533.0982 307.7582946  +6.4673885     2048.327     2567.788     2200.635     78.48235     156.9647     313.1834      1.192     2.83     848.9341     55.18721      338.306        13     1.026     0.683 -81.13   0
       338    348.2969    531.3143 307.7867547  +6.4658340     4617.836     5820.773     6057.667     78.48235     156.9647     313.1523      1.290     2.60     847.8069     55.18721     828.2689        21     1.189     0.832 -68.25   0
       339    163.4657    529.9086 307.8635604  +6.4602146     30433.17     40113.57     40794.62     78.35806     156.7783       313.09      1.349     2.75     846.2607     55.18721     5669.714        45     1.311     0.982 -66.61   0
       340     94.5354    533.2484 307.8920733  +6.4565207     545.7827     687.4963     907.8356     78.35806     156.4672       313.09      1.319     3.47     846.4114     55.18721     100.5122         5     0.787     0.443 -69.34   0
       341    528.2704    530.6420 307.7120342  +6.4721375     2558.158     3287.006     3409.843     78.35806     156.5917     313.1523      1.338     2.83      849.267     55.18721     497.1583        14     1.087     0.760 -65.24   0
       342    891.3707    529.8403 307.5612595  +6.4845925     1951.691     2470.035     2304.377     78.10891     156.4049     312.9655      1.317     3.20     852.3399     55.18721     352.3922        13     1.139     0.720 -63.27   0
       343    128.5146    528.0978 307.8781358  +6.4597886     3177.198     4126.361     3764.962     78.48235     156.9647     313.1523      1.300     2.73     846.2679     55.18721     503.0679        17     1.096     0.780 -69.81   0
       344      8.4995    528.1152 307.9279746  +6.4557482     2359.763     3263.685     3183.701     78.48235     157.0888     313.1834      1.399     3.19      847.128     55.18721     407.3829        14     1.135     0.721 -66.89   0
       345    365.5262    526.4499 307.7797629  +6.4684198     1229.113     1672.084     1771.167     78.48235     156.6539     313.1212      1.387     3.89     847.8197     55.18721     194.6758        12     1.263     0.659 -71.72   0
       346    989.0950    524.4217 307.5208529  +6.4900851     5687.617     7867.971     7941.164     78.35806     156.4049     312.9343      1.477     3.00     851.3251     55.18721     890.8438        27     1.233     0.995 -76.22   0
       347    562.1660    516.8936 307.6984178  +6.4789475     1766.182     2405.686     2274.863     78.60642     156.4672     313.1834      1.317     2.97     849.1709     55.18721     332.2952        13     1.098     0.715 -41.85   0
       348     27.6905    514.2707 307.9204716  +6.4621092     29615.39     39319.72     40585.66     78.35806     156.8405       313.09      1.369     2.69     846.8571     55.18721     4395.019        47     1.353     1.005 -61.15   0
       349    460.4623    510.9771 307.7408549  +6.4779874     50411.39     65983.66     67636.51     78.10891     156.5917     312.9966      1.341     2.63     848.4166     55.18721     9812.369        57     1.338     0.988 -64.81   0
       350    436.9852    513.7808 307.7505110  +6.4760439     546.4349     645.8008     1022.006     78.23359     156.3425     312.9966      1.216     2.84     848.4137     55.18721     108.5549         5     0.782     0.488 -56.77   0
       351    668.4971    510.6625 307.6544654  +6.4850740     14401.81     18311.15      18502.2     78.23359     156.7161     313.1523      1.300     2.72      850.873     55.18721     2868.936        32     1.232     0.903 -64.03   0
       352     10.2667    508.4897 307.9279021  +6.4639100     229817.1     300859.7     310827.8     78.60643     156.7161     313.0589      1.396     2.70      847.026     55.18721     41074.96       115     1.406     1.135 -59.68   0
       353    225.6407    508.6109 307.8384562  +6.4710944     21966.01     30838.97      31889.9     77.85896     156.4049     312.8098      1.479     2.79     845.9666     55.18721     3267.583        43     1.311     1.120 -78.17   0
       354    308.1907    511.0953 307.8040899  +6.4728374     1119.058     1488.218     1421.482     78.23359     156.2178      312.872      1.270     2.23     846.9526     55.18721     220.2046         8     0.788     0.594 -62.35   0
       355    191.2584    509.5423 307.8527036  +6.4695560     1914.567     2490.617     2129.807     78.48235     156.5294     313.1212      1.344     3.14     845.9926     55.18721     333.5664        14     1.091     0.810 -49.63   0
       356   1002.1076    509.0462 307.5159614  +6.4968666     1231.107     1732.482     1783.555     78.48235     156.5294     313.2145      1.412     3.17     850.2766     55.18721     175.7536         9     0.799     0.760 -89.55   0
       357    931.0475    508.9181 307.5454794  +6.4945530     817.3507     1254.479     1373.981     78.48235     156.5917     313.1212      1.624     2.56     851.3088     55.18721     174.3513         6     0.748     0.628  70.46   0
       358    842.4794    508.5637 307.5822764  +6.4917472     1092.133     1401.119     1859.508     78.35806     156.6539       313.09      1.196     3.44     851.7092     55.18721     212.5652         8     1.009     0.602 -85.37   0
       359    590.3540    507.5555 307.6870238  +6.4837454      3291.54     4245.867      4011.06     78.48235     156.5917     313.0278      1.299     2.46     849.5663     55.18721     688.0665        19     1.152     0.828 -76.07   0
       360    964.1351    504.5925 307.5318814  +6.4974411     5277.434     7012.996     7019.791     77.98404     156.3425     312.9343      1.384     2.80     850.6402     55.18721     901.6038        24     1.243     0.877 -67.86   0
       361    637.2615    503.0192 307.6676942  +6.4871861     7595.489     9960.093     9851.106     78.10891     156.5294     312.9655      1.325     2.55     850.2212     55.18721      1547.06        23     1.165     0.869 -70.05   0
       362    124.7302    503.4687 307.8805364  +6.4698297       1333.1     1810.016     1577.094     78.48235     156.7161     313.0589      1.496     3.07     845.9288     55.18721     237.5975        13     1.112     0.752 -86.05   0
       363    236.6797    502.2167 307.8340867  +6.4741047     645.3818      969.572     1339.831     78.10891     156.3425     312.9655      1.317     2.84      845.816     55.18721     112.3367         5     0.730     0.446 -76.34   0
       364    986.6426    496.8376 307.5227920  +6.5013924     3808.748     5175.047     5170.413     78.23359     156.5917     312.9655      1.402     2.99     849.8168     55.18721     560.8244        21     1.179     0.968 -53.61   0
       365    549.4863    494.2567 307.7044426  +6.4878696     8882.914     11489.83     11347.96     78.48235     156.5917     313.2456      1.284     2.57     848.0565     55.18721     1588.123        28     1.216     0.917 -70.68   0
       366    425.2087    495.8264 307.7560044  +6.4830623     898.0969     1190.898      1166.45     78.10891     156.4049     312.9343      1.511     3.21     847.7676     55.18721     193.6605         7     0.990     0.596 -74.49   0
       367    395.4816    494.4296 307.7683973  +6.4826434     3213.187     4005.759     3967.015     78.35806     156.4049       313.09      1.291     2.88     847.1765     55.18721     517.8206        18     1.229     0.774 -71.76   0
       368    765.1194    494.3391 307.6148819  +6.4950396      616.142     878.6984     413.9721     78.60642     156.5917     313.0589      1.171     4.00      850.804     55.18721     100.9404         7     1.047     0.488 -70.63   0
       369    452.8590    494.8631 307.7445533  +6.4843859     494.8598     506.1097      264.306     78.60642     156.5294     313.1212      1.117     3.67     847.8342     55.18721     109.4945         5     0.792     0.522 -47.11   0
       370    119.8406    495.0368 307.8828508  +6.4731467     1155.503     1417.178     1335.986     78.23359     156.5917     312.9655      1.552     5.88     845.8206     55.18721      563.768        10     1.563     0.622  44.35   0
       371    905.8929    490.1800 307.5565528  +6.5014514     3684.137     4820.258      5178.15     78.35806     156.4049     312.9343      1.358     3.01     850.7437     55.18721     591.9103        20     1.253     0.820 -65.19   0
       372    558.9200    490.8874 307.7006376  +6.4895761     837.4484     907.2187     1030.696     78.23359     156.8405     313.2145      1.346     4.44     848.2269     55.18721     144.3454         9     1.148     0.693 -57.05   0
       373    253.9376    489.6487 307.8273421  +6.4798725     782.8956     929.7663     911.8767     78.35806     156.5294     313.1523      1.286     3.91     845.5391     55.18721     149.7192         6     1.136     0.385 -60.95   0
       374    952.7480    483.7770 307.5373058  +6.5056561     1417.492     1794.769      2150.46     77.98404     156.5917     312.9655      1.321     3.23     849.9199     55.18721     240.7222        11     1.106     0.612 -65.11   0
       375    913.3682    484.5061 307.5536375  +6.5040431     2440.442     3087.501     2930.758     78.60643     156.4049     313.1523      1.363     2.80     850.5547     55.18721     432.1616        15     1.097     0.783 -68.48   0
       376    132.2589    483.8250 307.8780710  +6.4781927     871.4698     1383.964     1129.323     78.10891     156.5917     312.9343      1.705     3.35     845.6652     55.18721       159.42        10     1.007     0.725 -59.81   0
       377    737.3467    480.4932 307.6268800  +6.4998292      3503.84     4316.826     4495.089     78.35806     156.5294     313.2767      1.258     2.74     849.8395     55.18721     722.0754        15     1.085     0.744 -64.79   0
       378    408.2360    478.7052 307.7636281  +6.4895627     4364.083     5578.452     5860.677     78.60643     156.4672     313.1834      1.305     2.47     846.8859     55.18721     926.4337        21     1.186     0.885 -64.90   0
       379     98.9205    479.5183 307.8920612  +6.4788508     2228.062     2867.087     3170.348     78.60642     156.8405     313.2456      1.349     2.54     845.5836     55.18721     431.0377        13     0.955     0.771 -78.31   0
       380    448.4256    479.0355 307.7469256  +6.4907721     1212.223     1418.298     1615.535     78.10891     156.4049      312.872      1.183     2.57     847.1964     55.18721     234.8198         8     0.792     0.667 -56.41   0
       381    635.9524    475.2603 307.6691676  +6.4986033     11798.54     15395.48     15497.34     78.48235     156.5917     313.1523      1.323     2.62     849.1161     55.18721     2041.197        29     1.237     0.884 -68.68   0
       382    798.6651    471.8242 307.6017022  +6.5054548     19066.03     24670.05     24882.61     78.10891     156.5917     313.0278      1.301     2.96     850.3406     55.18721     3424.343        37     1.256     0.939 -67.05   2
       383    802.4742    467.4226 307.6002673  +6.5073992     1719.723     2525.596     2671.103     78.10891     156.4049     313.0278      1.518     3.41     850.1334     55.18721     273.4877        14     1.133     0.815 -64.03   3
       384    318.3921    472.1411 307.8011620  +6.4892622     3146.148     4176.268     4141.323     77.85896     156.4672     312.8409      1.344     2.77     845.0527     55.18721     559.0814        17     1.161     0.774 -63.16   0
       385    441.8215    471.3916 307.7499249  +6.4937069      781.173     911.5005     1289.808     78.10891     156.4049      312.872      1.177     2.67     846.6067     55.18721     149.6019         7     0.933     0.504 -71.77   0
       386    401.3081    468.7988 307.7668379  +6.4934206     1774.981     2496.876     2670.513     77.85896     156.2178      312.872      1.427     2.42     845.9911     55.18721     406.7285        15     1.165     0.811 -71.41   0
       387    927.9464    469.2807 307.5480911  +6.5108151     508.0714     453.0752     739.3357     78.48235     156.5917     313.1523      1.161     3.72      849.863     55.18721     86.57788         5     0.819     0.486 -53.61   0
       388    827.6630    468.6461 307.5897644  +6.5077342     1585.147      1813.36     2063.302     78.35806     156.5294     313.1212      1.262     3.16     850.1025     55.18721     252.4512        12     1.012     0.725 -51.71   0
       389    983.7855    466.8148 307.5249807  +6.5136931     2260.692     3166.736      3527.36     78.23359     156.2802     313.0278      1.419     2.99     848.5195     55.18721     355.4216        18     1.215     0.940 -72.56   0
       390    732.0072    465.8786 307.6295867  +6.5056850     754.7693     779.9493     365.7649     78.10891      156.093      312.872      1.147     3.91     849.1434     55.18721     119.8508         7     0.873     0.645  63.32   0
       391    389.6442    465.1430 307.7718049  +6.4945393     749.1643     958.3342     1342.244     78.35806     156.5917       313.09      1.337     2.20     845.4429     55.18721     149.2556         5     0.696     0.453 -72.98   0
       392    136.0277    463.7525 307.8771815  +6.4866063     5184.906     6829.271     7682.682     78.10891     156.6539     313.0278      1.367     2.54     844.9531     55.18721     983.8947        22     1.125     0.892 -62.87   0
       393    774.0169    462.7150 307.6122442  +6.5083933     2624.832     3602.319     2987.222     78.10891     156.3425     313.0278      1.381     2.90     849.5632     55.18721     536.9004        18     1.238     0.800 -70.36   0
       394    293.7898    460.7363 307.8117629  +6.4931460     1638.686     2150.902     2078.734     77.98404     156.4049     312.9343      1.308     2.96     844.2969     55.18721     296.0309        10     1.017     0.642 -71.35   0
       395    372.0478    458.4921 307.7793364  +6.4966957     3856.908     5142.911     5812.513     78.48235     156.5294     313.2145      1.389     2.54     844.5283     55.18721     713.8033        20     1.167     0.835 -69.68   0
       396    727.9355    456.3130 307.6315979  +6.5094984      1840.83      2443.06     2929.748     78.48235     156.7783       313.09      1.377     2.78     848.6226     55.18721     314.7482        12     1.071     0.645 -68.94   0
       397   1001.6676    455.0773 307.5179450  +6.5191347      792.618     1505.894     1801.198     78.60642     156.6539     313.0589      1.713     4.34     847.7543     55.18721     141.8679         8     1.138     0.471  89.70   0
       398    259.8518    454.3604 307.8260722  +6.4946401     1073.855      1264.65     1117.823     78.35806     156.6539       313.09      1.239     2.85     843.8958     55.18721     182.6652         9     0.911     0.681 -81.57   0
       399    569.2620    449.3039 307.6977360  +6.5070906     1125.037     1362.522     1519.657     78.23359     156.6539     313.1523      1.266     2.95     845.9338     55.18721     209.6777         9     0.962     0.654 -85.00   0
       400    491.7405    447.3463 307.7299989  +6.5053055     1665.238     2172.168     2040.681     78.60643     156.5294       313.09      1.399     4.39     845.0983     55.18721     279.9637        16     1.277     0.956 -74.35   0
       401    717.6167    447.9587 307.6361634  +6.5126032     731.3253     915.8377     1034.503     77.98404     156.4049      312.872      1.321     3.60     848.1248     55.18721     137.3981         8     0.895     0.677 -40.99   0
       402    854.2208    446.3710 307.5794782  +6.5178167     1787.397     2173.497      2488.82     77.98404     156.4049     312.9966      1.242     2.82     849.0275     55.18721     337.8013        11     1.003     0.694 -69.44   0
       403    839.9131    445.2362 307.5854589  +6.5178082     2207.459     2885.994     3129.811     78.48235     156.4672       313.09      1.350     3.10     849.0219     55.18721     374.3978        16     1.228     0.725 -68.98   0
       404    639.4613    445.6790 307.6687009  +6.5109338     785.6923     999.4777      920.372     78.60643     156.6539       313.09      1.136     2.94     847.1898     55.18721     158.9221         7     0.917     0.495 -85.39   0
       405    737.1673    443.4976 307.6281924  +6.5150978     17963.27      22843.9      23544.5     78.48235     156.4672     313.2145      1.338     2.66     848.0754     55.18721     3452.076        33     1.226     0.933 -69.46   0
       406    658.2003    439.5611 307.6611228  +6.5140859      3000.73     4024.368     4173.849     77.48253     156.4049     312.8409      1.370     2.73     847.0038     55.18721     614.6608        18     1.225     0.798 -61.94   0
       407    633.3872    436.5268 307.6715303  +6.5145095     6299.964     8306.174     8930.381     77.98404     156.2802      312.872      1.343     2.66     846.5146     55.18721     1304.094        23     1.323     0.776 -70.27   3
       408    629.5983    433.9958 307.6731888  +6.5154279     17316.75     22481.81     22820.54     77.85896     156.1554     312.8409      1.325     2.88     846.2744     55.18721     3099.575        32     1.240     0.917 -66.71   3
       409    652.7565    438.5244 307.6634185  +6.5143320     531.1262     656.2794     1053.055     78.35806     156.6539     313.1212      1.192     3.74     846.8815     55.18721     96.54962         5     0.981     0.409 -81.54   0
       410    730.8213    438.2913 307.6310024  +6.5170355      701.982     990.5041     1308.818     78.35806     156.4049     312.9343      1.203     3.26     847.7632     55.18721     135.4857         5     0.845     0.454 -48.37   0
       411    962.3947    433.3957 307.5349810  +6.5267788     4509.436     5853.746      6160.26     77.85896     156.2802     312.9655      1.362     2.85     847.7104     55.18721     764.8716        20     1.185     0.832 -69.40   0
       412    614.9262    433.9426 307.6792845  +6.5149595     477.9863     488.2281     318.4501     78.48235     156.5917     313.0589      1.183     3.78     846.0914     55.18721     85.03564         5     0.650     0.630  -9.45   0
       413    401.5388    429.3799 307.7680655  +6.5097031     34382.71     44841.25      46156.4     78.10891     156.5917     312.9966      1.315     2.66     843.1208     55.18721     6216.421        40     1.272     0.956 -63.06   0
       414    438.4003    430.8979 307.7527047  +6.5103109     582.1948     736.6775     556.0552     77.98404     156.2178     312.7162      1.248     3.42     843.7183     55.18721     108.2406         5     0.762     0.443 -70.25   0
       415    918.0684    429.2109 307.5535322  +6.5270300     1758.674     2576.734     3553.742     77.98404     156.4049     312.9343      1.517     2.75     848.0777     55.18721     314.6836        12     1.019     0.713 -89.27   0
       416    147.5859    428.8459 307.8735561  +6.5014059     2729.076     3692.477     3760.538     77.85896     156.4049      312.872      1.383     3.15     843.5942     55.18721     484.6093        18     1.193     0.802 -59.09   0
       417      5.6196    429.2651 307.9325019  +6.4964618     401.9988     602.2017     794.1509     78.10891     156.5917     293.2555      2.259     3.46     843.5091     55.18721      92.7821         5     0.756     0.457 -74.34  16
       418    913.9900    425.2501 307.5553584  +6.5285294     744.6231     1440.839     1737.168     77.98404     156.4672     312.7786      2.294     5.60     847.9172     55.18721     136.9388         9     1.638     0.545  68.36   0
       419     80.8402    424.4175 307.9014255  +6.5009919     1772.624      2621.75     2944.942     78.10891     156.4049      312.872      1.648     3.09     843.2709     55.18721     302.4305        18     1.141     1.016  87.98   0
       420    931.2382    423.7650 307.5482438  +6.5297173     5724.437     7429.566     7587.547     78.23359     156.4672      312.872      1.360     2.84     847.7735     55.18721     1090.027        21     1.248     0.817 -66.33   0
       421    612.9491    424.8296 307.6804110  +6.5186559      804.106     793.6954     630.9937     78.10891     156.7161     312.9966      1.260     3.13     845.4324     55.18721     150.4226         8     0.955     0.588 -61.34   0
       422    259.0533    419.9416 307.8275610  +6.5088235     16189.57     21317.73     21774.66     78.60642     156.5917       313.09      1.384     2.72      842.232     55.18721     3007.068        37     1.286     0.966 -65.00   0
       423    986.9233    421.5898 307.5251869  +6.5324701     733.7807     688.7347     811.4525     78.10891     156.2178     312.9032      1.194     3.55     846.9675     55.18721     140.9142         7     0.950     0.582 -57.28   0
       424     94.6003    414.1169 307.8960577  +6.5057070     970.7094     1381.212     1788.359     77.73369      156.093     312.7474      1.390     3.48     842.9042     55.18721     156.6765         8     0.956     0.624 -78.37   0
       425    982.2590    412.4876 307.5274281  +6.5360729     1087.826     1367.297     1485.407     78.48235     156.6539     313.1834      1.284     3.21     846.7114     55.18721     205.7844        10     1.031     0.681  80.00   0
       426    753.9703    413.4165 307.6222197  +6.5280784     951.9067     1417.364      1254.73     78.10891     156.3425     313.0278      1.515     3.50     847.0167     55.18721     180.9905        10     1.008     0.700 -52.70   0
       427    722.1724    412.8347 307.6354466  +6.5272571     823.2466     856.3139     1136.035     77.98404     156.3425      312.872      1.100     2.94     846.4721     55.18721     186.0832         7     0.889     0.553 -33.03   0
       428    204.6625    409.8716 307.8504895  +6.5111559     916.2122     1176.159     1081.072     78.60642     156.5917     313.1523      1.304     3.96      842.743     55.18721     170.4003         9     1.130     0.545 -73.02   0
       429    371.8893    409.7049 307.7810405  +6.5168329     1573.951     1937.939     1817.377     78.48235     156.9647     313.1523      1.259     3.01     841.3616     55.18721     254.8302        12     1.018     0.795 -58.91   0
       430    159.2178    408.5389 307.8694086  +6.5101804     6128.017     8036.935     8041.259     78.10891     156.5294     312.9032      1.374     2.65     842.8619     55.18721      1125.82        25     1.216     0.923 -55.52   0
       431    399.5026    409.1145 307.7695916  +6.5180018     640.5489     715.4689     944.0991     78.48235     156.9647     313.1523      1.108     2.88     841.8425     55.18721     145.4105         5     0.756     0.447 -68.47   0
       432    264.2485    407.4046 307.8258247  +6.5141738     1517.625     1827.689     1718.004     77.85896     156.4049     312.7786      1.288     2.60     841.5287     55.18721     302.2166        12     1.007     0.743 -56.00   0
       433    652.5079    406.8753 307.6645817  +6.5273907     613.4633     543.8741      701.648     78.48235     156.7161       313.09      1.212     4.10     845.0329     55.18721     107.3127         7     1.018     0.471 -79.36   0
       434    456.7216    407.2419 307.7458890  +6.5206911     891.5079     971.1141     1240.011     78.35806     156.5917       313.09      1.111     2.82     842.3194     55.18721     148.6871         6     0.746     0.533 -50.44   0
       435    181.2866    404.3831 307.8603827  +6.5126372     2884.181     4320.193     4093.407     78.10891     156.3425     313.0278      1.589     3.79     842.5902     55.18721     488.2631        20     1.495     0.737 -68.13   0
       436    845.2334    405.0214 307.5845933  +6.5345894     1041.794     1430.929     1526.035     77.98404     156.4049     312.9032      1.314     2.57     847.6671     55.18721     201.2239         7     0.729     0.644 -75.14   0
       437    576.8884    403.3873 307.6961073  +6.5263032     1207.092     1265.815     804.2514     78.23359     156.3425     312.9655      1.123     2.29      843.384     55.18721     223.3784         9     0.822     0.640 -60.03   0
       438    404.8717    398.9599 307.7677025  +6.5223741     2507.582     3381.764     3415.501     78.35806     156.5917     313.1523      1.391     3.11     841.4648     55.18721     392.7949        18     1.292     0.768 -50.85   0
       439    292.8286    399.8604 307.8142081  +6.5182471     1071.687      1265.32     1122.821     78.10891     156.5917     313.0278      1.306     3.56     840.6187     55.18721     158.4394        10     0.942     0.696 -76.16   0
       440     23.7074    399.7486 307.9259846  +6.5092560     763.3641     1024.813     1454.563     78.35806     156.4672     313.2767      1.581     5.46     842.5515     55.18721       122.23         9     1.152     0.750 -37.51   0
       441    993.3253    398.4309 307.5233007  +6.5422451     1359.441     1980.878     2402.547     78.35806     156.6539       313.09      1.828     4.18     846.0924     55.18721     203.4806        12     1.180     0.789 -51.67   0
       442      5.5076    397.4823 307.9336196  +6.5095796     952.3493     1173.451     1085.207     78.23359     156.9026     292.1901      1.383     3.68     842.5488     55.18721      145.606         6     0.922     0.423 -71.05  16
       443    339.2601    396.2196 307.7950457  +6.5213069      633.082     1053.457     1626.295     78.10891     156.4672     312.9655      1.856     4.43     840.4646     55.18721     103.6808         7     1.269     0.439 -65.14   0
       444     54.9517    393.4822 307.9132194  +6.5128935     3576.903     5117.802     5376.108     78.48235     156.5917     313.1212      1.569     4.62     842.3686     55.18721     535.1155        25     1.446     0.937 -63.71   0
       445    458.6248    392.7053 307.7455863  +6.5267565      8699.33     11288.44     11553.47     78.60643     156.3425     312.9655      1.305     3.02     841.5764     55.18721     1536.123        26     1.217     0.864 -65.38   0
       446    791.2953    391.7260 307.6074418  +6.5382795     2365.663     3042.983     3440.654     78.23359     156.7783       313.09      1.299     2.67      847.192     55.18721     468.4686        14     1.069     0.757 -72.97   0
       447    799.2525    390.0716 307.6041920  +6.5392281     15134.91     19359.58      19948.8     78.35806     156.5294       313.09      1.299     2.64     847.2856     55.18721     2963.973        31     1.204     0.902 -67.61   0
       448    558.3237    391.5852 307.7042138  +6.5305551     563.0866     874.8798     845.8787     77.98404     156.3425     312.9343      1.446     2.97     842.4429     55.18721     151.2707         5     0.981     0.419  76.43   0
       449    362.6111    388.6868 307.7856001  +6.5251995      1520.61     1962.335     1837.739     78.10891     156.3425     312.9343      1.360     2.97     840.3486     55.18721     217.0094        12     0.941     0.789 -83.25   0
       450    973.7919    381.9230 307.5319654  +6.5484104       652.92     983.2324     1501.322     78.10891      156.093     312.9032      1.452     2.68     846.0038     55.18721     126.6973         6     0.867     0.446 -53.98   0
       451    924.4813    380.2124 307.5525050  +6.5474741     596.2169     892.3022      974.191     78.10891     156.2802     312.9343      1.265     4.29     847.0771     55.18721     110.0154         6     1.058     0.495  86.02   0
       452    207.4855    381.1101 307.8502845  +6.5231251     810.6162      1122.31     521.1927     78.23359     156.9026     313.2145      1.189     1.92     841.4453     55.18721     189.8292         6     0.708     0.500 -88.27   0
       453     12.9428    379.2565 307.9311460  +6.5173542     1277.727     2615.698         4079     78.60642     156.6539     313.1212      3.247     6.42     842.3571     55.18721     139.9005        21     1.546     0.959 -49.73   0
       454    413.3607    379.4603 307.7648312  +6.5307091     637.8871     738.3588     759.5621     78.48235     156.5917     313.1523      1.146     3.40     840.6325     55.18721     112.4949         7     1.086     0.480 -88.51   0
       455    546.7110    378.4240 307.7094784  +6.5356005     591.9913     806.3948     762.7031     78.48235     156.4049     312.9655      1.200     3.22     841.6177     55.18721     105.5784         5     0.740     0.433 -23.36   0
       456    479.0783    376.9073 307.7376210  +6.5339637     2809.915     3703.516     3963.141     78.23359     156.7783     313.1212      1.372     2.69     840.7712     55.18721     525.4257        16     1.151     0.751 -59.47   0
       457    935.3203    376.3180 307.5481328  +6.5494431     923.1149     1137.308     1184.212     78.60643     156.8405     313.2145      1.311     2.71     846.8463     55.18721     185.7267         7     0.929     0.444 -79.95   0
       458    864.6747    372.9865 307.5775887  +6.5484641     37813.13     52134.08     53890.12     77.98404     156.3425     312.9032      1.420     3.14     847.3491     55.18721      5614.41        50     1.431     0.966 -75.67   0
       459    506.7893    376.4326 307.7261270  +6.5350871     3580.613     4738.303     4411.519     77.98404     156.3425     312.9343      1.302     2.62     841.0325     55.18721     602.0508        16     1.107     0.738 -70.32   0
       460     82.1074    369.6055 307.9027453  +6.5236638     720.8014     963.4839     1240.773     78.10891     156.2802     312.9032      1.347     2.53     841.6461     55.18721     132.0194         7     0.811     0.590 -76.48   0
       461    356.7021    368.7470 307.7887241  +6.5332339     992.2822     1424.505     1251.652     78.35806     156.5917     313.3078      1.467     3.41     839.4728     55.18721     160.0557         7     0.858     0.584 -54.34   0
       462    636.3871    365.4254 307.6726659  +6.5439655      3344.03     4236.394     4284.938     78.23359     156.4049     313.0278      1.255     2.68     843.1236     55.18721     653.7922        17     1.114     0.768 -67.57   0
       463    603.5213    366.0163 307.6862975  +6.5426230     492.4662     528.0985     766.5501     78.10891     156.3425     312.9655      1.338     4.45     842.7361     55.18721     114.7595         5     1.129     0.500  89.97   0
       464     44.4506    365.8881 307.9185105  +6.5239328     1402.903     1929.228     1928.891     78.48235     156.4049     313.2145      1.320     2.82     841.9168     55.18721     235.9901        10     0.982     0.618 -55.24   0
       465    721.1183    359.0000 307.6376862  +6.5494488     93692.45     120909.6       124836     77.73369      156.093     312.7474      1.337     2.68     845.0175     55.18721     18167.93        71     1.312     1.017 -64.95   0
       466    879.2921    360.3491 307.5719393  +6.5541691     1520.272     1978.612     2716.066     78.35806     156.4672     313.2767      1.382     3.04     847.1217     55.18721     262.5551        15     1.024     0.951 -45.94   0
       467    100.1937    358.5189 307.8956069  +6.5288488     1576.612     2011.505     2487.451     78.10891     156.1554      312.872      1.256     2.56     841.1558     55.18721     336.1038        13     1.048     0.730 -68.05   0
       468    583.5129    355.6667 307.6949551  +6.5462271     3272.493     4281.087     4439.951     78.48235     156.7783     313.1212      1.362     2.92     841.8113     55.18721     583.9514        16     1.164     0.795 -62.30   0
       469    410.4819    356.4795 307.7667985  +6.5401007     591.5615     996.5927      838.953     78.60643     156.8405     313.2145      1.313     3.32     839.4892     55.18721     121.3847         6     0.887     0.439 -71.90   0
       470    962.7133    356.0060 307.5374326  +6.5587420     890.6429     1244.378     1117.348     77.98404     156.2802     312.8097      1.232     3.25      845.657     55.18721     167.2032         6     0.868     0.450 -56.76   0
       471    120.8245    354.5643 307.8871713  +6.5311746     7197.668     9607.035     9707.134     78.10891     156.4049      312.872      1.375     2.94      840.984     55.18721     1113.323        28     1.285     0.924 -62.05   0
       472    566.8140    351.9021 307.7020175  +6.5472230     8641.843     11133.64     11675.41     78.35806     156.3425      312.872      1.298     2.89     841.1926     55.18721     1468.475        22     1.215     0.820 -65.68   0
       473    295.7435    349.6228 307.8146859  +6.5390860     3068.789     4181.251      3879.71     78.10891     156.5294     312.9032      1.347     2.86     838.7067     55.18721     509.8964        18     1.208     0.765 -63.58   0
       474    429.7449    347.0866 307.7591127  +6.5446238     30694.96     40210.91     41453.81     78.48235     156.5294     313.2456      1.328     2.76     839.1649     55.18721     4722.221        48     1.312     0.991 -68.67   0
       475    608.4514    346.1879 307.6849141  +6.5509744     816.4982     936.8495     197.4245     77.85896     156.4672     312.8098      1.341     3.63     842.1335     55.18721     156.0844         7     0.987     0.489  83.97   0
       476    537.5856    345.7756 307.7143634  +6.5487747     1467.174     1987.596     1988.866     78.23359     156.4049     313.0278      1.312     2.90     840.1719     55.18721     327.8953        11     1.089     0.666 -68.73   0
       477    696.0219    345.3098 307.6485689  +6.5542631     655.7084      788.812     804.4348     78.48235     156.4049     312.9655      1.114     2.84     843.6548     55.18721     138.4347         6     0.877     0.481 -89.28   0
       478    409.6080    345.3777 307.7675342  +6.5446549     1410.049     1842.487     2713.758     78.10891     156.4049     312.9032      1.435     2.85     839.0076     55.18721     257.4686        12     0.993     0.796 -87.79   0
       479    509.0207    342.3525 307.7263432  +6.5492323     1437.058     2010.698     1944.284     78.10891     156.5917     312.9343      1.263     2.57     839.5068     55.18721     311.5531        12     1.106     0.612 -58.16   0
       480    824.5521    339.6769 307.5953683  +6.5608787     979.1712      1268.41      1298.86     78.35806     156.6539     313.0589      1.306     3.59     846.1949     55.18721      176.776        10     1.179     0.556 -77.23   0
       481    660.5820    339.4279 307.6634868  +6.5555076     706.8226     730.1843     1037.108     78.10891     156.4049     312.9966      1.202     3.88     842.5807     55.18721      121.495         6     0.877     0.491 -86.38   0
       482    518.8309    337.4905 307.7224314  +6.5515679      10315.8     13385.39     13757.21     78.60643     156.4049     313.0589      1.332     2.82     839.4568     55.18721     1700.251        30     1.256     0.896 -67.52   0
       483    406.6325    339.4724 307.7689684  +6.5469934     922.7283      1356.13     2032.606     78.35806     156.5917     313.1212      1.694     4.96     838.7321     55.18721     149.4672        10     1.222     0.636 -57.40   0
       484    735.2350    336.3381 307.6325809  +6.5592766      863.262     1049.631     1003.891     78.35806     156.5917     313.0589      1.349     4.54     844.6035     55.18721     168.3572        11     1.255     0.621 -76.37   0
       485    943.4037    336.0145 307.5461211  +6.5663528     1022.207      1495.63     1123.844     78.10891     156.2802     312.9655      1.496     4.16     845.4995     55.18721     182.6564        13     1.288     0.726 -62.36   0
       486    787.8895    336.1656 307.6107149  +6.5611053     3678.023      4748.03     4745.604     78.60642     156.5294       313.09      1.299     2.88     845.6049     55.18721     604.1657        19     1.197     0.779 -65.58   0
       487    232.3349    335.7417 307.8414895  +6.5426897     404.9259     630.8635     647.6815     78.60643     156.5294     313.1212      0.864     2.86     839.1866     55.18721     95.36121         5     0.737     0.441 -73.49   0
       488    345.0760    334.2124 307.7947132  +6.5471023     1294.396     1663.879     1444.507     78.10891     156.2802     312.9032      1.401     3.56     838.1653     55.18721     239.6948        12     1.158     0.646 -68.91   0
       489    457.6559    327.6439 307.7481720  +6.5535857     654.8376     602.7062     220.4436     78.48235     156.5917     313.1212      1.139     5.00     838.4859     55.18721     108.5114         8     1.219     0.580 -73.31   0
       490    280.7074    327.9978 307.8216582  +6.5475098     798.1493     1080.505     1275.535     77.98404     156.2802     312.8097      1.454     3.34     838.0918     55.18721      121.884         7     0.733     0.670  53.27   0
       491    180.6628    327.9882 307.8632124  +6.5441564     1363.285     1688.216     1803.585     77.98404     156.4049      312.872      1.272     2.81     839.6995     55.18721     228.2576         9     0.858     0.663 -35.80   0
       492    627.5539    327.1724 307.6776165  +6.5594639     559.9835     728.8932     1032.912     77.98404     156.6539     312.9966      1.093     2.13     841.8453     55.18721     120.9391         5     0.689     0.455 -67.30   0
       493      3.7263    325.3369 307.9367913  +6.5393049     642.9028     874.7762     746.6461     78.73032     152.6203     270.9731      1.472     5.35     841.4255     55.18721     104.1086         9     1.231     0.657 -38.68  16
       494    408.6922    321.6609 307.7687109  +6.5544160     8918.344     11609.15     11910.52     78.35806     156.5917     313.1834      1.316     2.94     838.0315     55.18721     1488.472        24     1.202     0.865 -64.49   0
       495    264.3698    322.2256 307.8286382  +6.5493448     2623.225         3459     3571.806     77.98404     156.4049     312.9343      1.300     2.74     838.1536     55.18721     449.0675        16     1.128     0.760 -66.57   0
       496    762.2130    321.5368 307.6218699  +6.5662883     1201.212     1663.298     1604.948     77.98404     156.4049     312.9032      1.372     4.05     844.4703     55.18721     212.5073        12     1.274     0.728 -51.91   0
       497    696.8381    322.4212 307.6489962  +6.5637404     523.2192     557.4743     661.3992     78.10891     156.3425      312.872      1.176     3.44     842.9915     55.18721      95.0542         5     0.748     0.456 -18.55   0
       498    776.5848    317.5273 307.6160342  +6.5684233     64357.89     82211.12     84802.59     77.98404     156.4049     312.9966      1.303     2.84     844.5668     55.18721     12074.05        60     1.324     0.982 -68.34   0
       499    448.1430    316.9374 307.7524827  +6.5576875     2805.146     3365.671      2883.75     78.60642     156.5294     313.1212      1.292     2.64     838.0222     55.18721     565.0892        15     1.038     0.787 -61.97   0
       500   1011.2699    314.6715 307.5186423  +6.5774251     1970.109     2678.969     2929.545     78.48235     156.7161     313.0278      1.386     2.60     842.1802     55.18721     350.2304        17     1.174     0.852 -69.76   0
       501    952.3172    313.7984 307.5431604  +6.5758223     2709.532     3405.742     3480.676     77.73369     156.1554     312.8097      1.291     2.54      844.199     55.18721     562.4294        18     1.131     0.794 -72.76   0
       502    594.4745    314.2512 307.6917900  +6.5636928     1574.825     2076.766     1804.206     78.48235     156.6539     313.1212      1.278     3.21      840.599     55.18721     265.0333        11     1.104     0.670 -75.84   0
       503    485.0455    313.4497 307.7372714  +6.5603629     1231.956      1521.01     1801.723     78.48235     156.4672     313.1212      1.254     2.28     838.1041     55.18721       231.73        10     0.916     0.617 -60.17   0
       504    434.6932    312.7004 307.7582116  +6.5589864     2338.795     2942.714     3074.493     78.48235     157.0888     312.9966      1.286     2.99     837.7892     55.18721     436.4069        16     1.114     0.784 -83.82   0
       505    314.6051    312.2193 307.8081087  +6.5551608     746.2819      742.913     275.6324     78.10891     156.2178     312.9032      1.285     3.44      837.421     55.18721     118.6267         5     0.781     0.439 -70.56   0
       506    855.9921    307.1972 307.5833943  +6.5753373     1221.588     1626.545     1739.694     77.85896     156.2802     312.9343      1.348     4.08     844.7659     55.18721     186.5656        12     1.265     0.715 -86.30   0
       507    484.8884    307.6275 307.7375320  +6.5627614     963.5877     1169.832     1272.616     78.60642     156.3425     312.9966      1.210     2.69     837.9302     55.18721     210.4061         8     0.966     0.551 -55.01   0
       508    987.6857    305.5557 307.5287435  +6.5804035      624.717     762.5765     429.9617     78.48235     156.4672     313.0589      1.353     5.16     842.5679     55.18721     111.6463         7     1.152     0.653  83.52   0
       509    465.2735    304.3142 307.7457908  +6.5634727     1349.427     1810.708     2581.268     78.60643     156.9026       313.09      1.283     2.54     837.6439     55.18721     268.4752        10     0.940     0.651 -57.78   0
       510    211.2568    303.9373 307.8513143  +6.5551130     2819.349     3941.313     4292.362     78.60642     156.5294     313.1212      1.451     2.89     838.3348     55.18721     525.8436        17     1.154     0.821 -64.78   0
       511    775.0358    302.0888 307.6171941  +6.5747458     7306.222     9395.387     9428.151     78.48235     156.5294       313.09      1.327     2.75     843.7854     55.18721     1358.137        21     1.165     0.821 -66.68   0
       512    366.1270    301.7485 307.7870599  +6.5612110     715.9537     901.9293     891.9484     78.48235     156.6539     313.1212      1.297     4.71     837.1075     55.18721     100.7571         8     0.947     0.665  85.01   0
       513    246.5341    302.1292 307.8367222  +6.5570434     855.7578     911.1568     238.9071     78.48235     156.6539       313.09      1.124     3.45     837.6877     55.18721     135.4069         6     0.779     0.495 -83.76   0
       514    107.3239    301.2994 307.8945724  +6.5527116     1248.656       1691.7     1883.808     77.98404     156.7161       313.09      1.329     2.54     839.6963     55.18721     234.9549         8     0.840     0.630  74.95   0
       515    791.5670    299.9724 307.6103979  +6.5761713     3070.733     4175.134     3706.344     77.98404     156.3425      312.872      1.329     2.97     844.0232     55.18721     587.0474        17     1.169     0.770 -61.14   0
       516    493.6185    299.0383 307.7341939  +6.5665998     639.1035     817.0765     766.9104     78.10891     156.4672      312.872      1.264     4.26     837.6735     55.18721      124.892         7     1.063     0.487 -42.15   0
       517    382.3945    295.1674 307.7805239  +6.5644732     1189.479     1741.309     1969.751     77.85896     156.4049     312.9032      1.477     3.81     836.8715     55.18721     172.2427         8     1.007     0.575  69.97   3
       518    379.6028    294.8118 307.7816954  +6.5645265     1693.926     2247.055     2646.078     78.10891     156.2802     312.9343      1.304     3.31     836.8697     55.18721     292.9331        12     1.121     0.719 -78.72   2
       519    333.3414    296.2536 307.8008628  +6.5623807     530.3207     717.2863     433.2588     78.60643     156.5917       313.09      1.292     3.48     836.8796     55.18721     99.64673         5     0.774     0.451  76.67   0
       520     94.5019    295.4174 307.9000961  +6.5547091     1558.719     1972.206     1252.093     78.48235     156.4049      312.872      1.237     2.90     839.6828     55.18721     243.7417        11     1.020     0.676 -60.30   0
       521    507.6191    290.7904 307.7286550  +6.5704737     2633.348     3622.887     3662.334     78.10891     156.2802     312.9655      1.419     2.97     837.4395     55.18721     479.4711        19     1.235     0.777 -71.13   0
       522    270.1776    286.4594 307.8274284  +6.5643060     7066.656     9237.723     9672.886     78.10891     156.5294     312.9655      1.348     2.67     836.8629     55.18721     1273.089        25     1.251     0.872 -64.69   0
       523    278.7157    287.4054 307.8238501  +6.5642019     706.9496     968.6852     1388.915     77.98404     156.2802     312.8409      1.357     3.55     836.7571     55.18721     126.0473         6     0.718     0.646 -84.97   0
       524    937.7178    285.2946 307.5501771  +6.5871044     671.0087     823.0221     410.1625     78.23359     156.9026     313.2145      1.111     3.23     843.3804     55.18721      163.855         5     0.763     0.431 -78.10   0
       525    834.8368    284.4323 307.5929433  +6.5840309     624.5105      1027.27     1233.946     78.10891     156.3425     312.8409      1.596     4.46     843.5643     55.18721     99.39771         7     0.893     0.632 -73.27   0
       526      1.4981    278.9698 307.9392799  +6.5583725     40184.86     51692.37     53669.87     70.36315     126.7337     238.2452      1.242     3.39     840.3499     55.18721      9546.27        45     1.476     0.800 -85.43  24
       527    961.4640    281.5188 307.5404388  +6.5894545     547.2214     835.2568     993.9166     78.60643     156.6539       313.09      1.719     3.96     842.4625     55.18721      120.772         6     1.192     0.549 -48.40   0
       528    789.5573    279.7503 307.6119092  +6.5844534     973.0427     1325.197     1067.272     78.60643     156.5294       313.09      1.224     3.71     843.1091     55.18721     163.3534         7     0.951     0.486 -82.65   0
       529    141.5453    280.2377 307.8810674  +6.5625567     539.9946     647.8399     931.3145     78.48235     156.6539     313.1212      1.228     2.77     838.7471     55.18721     97.49408         5     0.712     0.461 -69.69   0
       530    404.3413    277.3105 307.7720073  +6.5725809     2162.296     2907.158     2967.213     78.35806     156.5917     313.2145      1.315     2.52     836.4346     55.18721     427.8645        16     1.117     0.807 -81.88   0
       531    246.7275    279.3326 307.8374085  +6.5664616     749.1272     1062.443     1014.214     78.60643     156.7161       313.09      1.357     3.01     837.0412     55.18721     145.4305         6     0.809     0.725  26.34   0
       532    991.1514    276.1073 307.5282870  +6.5926775     1242.724     1478.729     1732.177     78.35806     156.4672     313.2145      1.196     2.97     841.2668     55.18721     237.4851        10     1.042     0.572 -81.86   0
       533    326.6700    273.1012 307.8044119  +6.5717157     1374.645     1940.823     2076.361     78.35806     156.7161       313.09      1.428     3.54     836.4811     55.18721     244.2435        12     1.168     0.645 -56.39   0
       534    174.0034    273.1187 307.8678250  +6.5665859     1993.563      2429.59     2134.435     77.85896     156.1554     312.8097      1.267     2.81     838.0184     55.18721     389.7056        13     1.112     0.657 -74.31   0
       535    583.6857    268.7097 307.6977980  +6.5821347     2517.826     3181.591     2561.679     78.23359     157.0268     313.2145      1.241     2.78      838.642     55.18721     448.7755        14     1.079     0.690 -70.99   0
       536    927.6973    267.8390 307.5549228  +6.5939776     1923.866     2691.019     2551.736     78.48235     156.4672     313.2767      1.360     3.05     842.8204     55.18721     337.4554        12     1.065     0.707 -64.66   0
       537    747.4410    266.2257 307.6298570  +6.5886316     6072.388     7775.547     8060.367     78.10891     156.4672     312.9032      1.281     2.57     841.9043     55.18721     1136.301        22     1.174     0.823 -64.17   0
       538    688.2051    266.2780 307.6544621  +6.5866319     2591.977     3121.114     3224.321     78.10891      156.093      312.872      1.226     2.40     840.9714     55.18721     506.6486        14     1.068     0.688 -75.77   0
       539    852.4329    266.2182 307.5862428  +6.5921379     539.7962     733.0106     915.5281     78.10891     156.4049     312.9655      1.739     4.80     842.7136     55.18721     97.72797         6     1.124     0.582 -64.25   0
       540    985.4063    266.2853 307.5310015  +6.5965414     695.3002     1023.256     658.6273     77.98404     156.2802      312.872      1.323     1.83      841.125     55.18721      188.529         5     0.672     0.464 -70.50   0
       541    878.3742    262.7374 307.5755827  +6.5944399     481.1924     350.0034    -40.22019     78.10891     156.5294     312.9966      1.148     3.40     842.5641     55.18721     81.58386         5     0.755     0.442 -71.23   0
       542    402.8990    260.3884 307.7731747  +6.5795191     869.8928     1355.892     1698.671     78.23359     156.3425      312.872      1.582     2.60     836.1429     55.18721     160.3418         8     0.889     0.616 -74.96   0
       543    943.4942    258.4185 307.5486752  +6.5983934     1285.468     1502.024     1170.252     78.35806     156.3425     312.9655      1.254     2.92     841.9458     55.18721     233.8932        13     1.021     0.840 -35.30   0
       544    836.3954    252.1947 307.5933738  +6.5973929     409.8285     580.2263     208.3416     77.85896     156.2802     312.9655      1.417     3.42     842.0406     55.18721     68.35474         5     0.749     0.452  71.85   0
       545    780.0621    249.8952 307.6168523  +6.5964628     1798.481     2286.368     2323.801     78.23359     156.6539     313.1212      1.298     2.88     841.7685     55.18721      349.739        14     1.175     0.736 -73.46   0
       546    246.9792    251.4477 307.8382418  +6.5779825     2881.164      3931.14     3551.034     78.10891     156.5917     312.9032      1.431     2.94     836.5671     55.18721     492.6415        17     1.149     0.844 -63.36   0
       547    889.7242    250.3347 307.5712823  +6.5999390     1974.078     2366.645     2216.587     78.60643     156.5917     313.0278      1.261     3.23     841.8979     55.18721     349.0524        13     1.111     0.678 -64.30   0
       548    704.3896    249.6338 307.6482963  +6.5940444     429.5638     484.9499     226.2161     77.98404     156.4049     312.9343      1.216     4.16     840.6448     55.18721     70.99066         5     1.031     0.479  -3.17   0
       549    268.3632    245.4710 307.8295603  +6.5811675     655.1053     846.5292     676.5191     78.35806     156.5917     313.1523      1.303     3.09     836.3698     55.18721     114.5816         6     0.850     0.480 -87.39   0
       550    480.8572    241.4059 307.7414285  +6.5899670     27158.99     35465.64     36780.86     77.98404     156.4672     312.8098      1.342     2.77     836.2538     55.18721     4315.401        40     1.306     0.935 -67.08   0
       551    341.8936    243.5567 307.7990810  +6.5844238     745.7902     1246.386     913.2452     78.48235     156.5917     313.2145      1.656     3.68     836.1575     55.18721     110.8902         9     0.937     0.658 -71.63   0
       552    806.8924    240.5143 307.6060204  +6.6012313     15683.42     20745.99     21904.45     78.23359     157.0268     313.1834      1.386     3.17     841.5952     55.18721     2663.948        40     1.343     1.100 -40.84   0
       553    303.5620    243.1829 307.8150161  +6.5832929     453.7339     550.1293     194.4866     78.10891     156.4672     312.8409      1.021     3.43     836.2259     55.18721     87.03247         5     0.757     0.448 -69.61   0
       554    745.2843    236.3471 307.6317529  +6.6008956     782.9647     879.0015     735.0207     78.48235     156.5294     313.2456      1.404     4.73     840.9447     55.18721     124.7556         9     1.135     0.589  75.83   0
       555    486.5235    235.8863 307.7392599  +6.5924356     1681.623     2112.684     2564.947     78.48235     156.9026     313.1523      1.158     3.05     836.2358     55.18721     304.5992        10     1.067     0.565 -59.16   0
       556    169.0168    234.8401 307.8711847  +6.5822219     2715.678     3867.323     3911.606     78.10891     156.4049     312.9032      1.376     2.53     836.9197     55.18721     544.4292        18     1.226     0.781 -74.65   0
       557    143.7025    233.7491 307.8817365  +6.5818221     1270.687     1670.784     1945.446     78.35806     156.5294     313.2767      1.424     2.78      837.472     55.18721     221.0259        10     0.953     0.644 -79.29   0
       558    800.1301    232.6460 307.6090928  +6.6042542      699.428     1219.615      1098.48     78.48235     156.5294       313.09      1.831     6.15     841.2569     55.18721     88.43658        10     1.228     0.867 -18.06   0
       559    195.4387    232.9884 307.8602718  +6.5838736     667.5465     739.3265     348.8903     77.98404     156.4049     312.8097      1.207     3.50     836.6029     55.18721     128.3851         6     0.811     0.653  55.81   0
       560    943.2802    231.0139 307.5496795  +6.6097009     1496.474     2103.199     1666.121     78.10891     156.3425     312.9032      1.392     2.73     840.6841     55.18721     312.8239        15     1.121     0.817  89.48   0
       561      6.9361    228.0695 307.9387371  +6.5795695     5939.366     7920.395     7723.146     78.48235     156.6539     305.1129      1.394     2.93     839.8667     55.18721      1028.83        25     1.296     0.891 -61.79  16
       562    640.6791    229.2534 307.6754449  +6.6003302     520.8627     703.7092     694.8502     78.48235     156.5917     313.1212      1.105     3.41      838.383     55.18721     101.7079         5     1.101     0.306  35.81   0
       563    604.9579    227.0647 307.6903573  +6.6000398     5672.428     7487.176     7840.352     78.48235     156.5294     313.1212      1.371     2.95     837.5085     55.18721     991.8204        23     1.190     0.885 -65.90   0
       564    453.2131    228.9465 307.7533300  +6.5941855     2594.552     2600.433     2194.219     77.85896     156.5294     312.8409      0.819     1.89     835.7872     55.18721      918.194         8     0.841     0.491 -54.57   0
       565    325.0820    227.8393 307.8065927  +6.5903492      1290.03     1796.681     1249.029     78.48235     156.6539     313.0277      1.304     3.47     836.0319     55.18721     225.9611        12     1.142     0.707 -74.79   0
       566    567.5549    227.1866 307.7058908  +6.5987387      2504.69      3272.55     3500.982     77.85896     156.4049     312.8409      1.268     2.67     837.1917     55.18721      438.621        14     1.119     0.699 -64.36   0
       567    409.4550    226.2757 307.7715969  +6.5938226     1920.572     2315.475     2451.196     78.35806     156.5917     313.0278      1.259     2.70     835.5119     55.18721     346.3793        14     1.028     0.764 -72.55   0
       568    965.8320    224.1652 307.5405395  +6.6132799      3010.74     4054.813     3712.974     78.10891     156.3425     312.8409      1.358     2.98     839.9907     55.18721     511.1162        18     1.136     0.851 -66.15   0
       569    911.9441    223.6706 307.5629427  +6.6116886     13251.08     17408.53     17685.87     78.48235     156.5294     313.0589      1.365     2.86     840.5554     55.18721     2313.646        30     1.248     0.923 -69.91   0
       570    339.4014    224.3239 307.8007626  +6.5922807     930.8854     1341.253     1066.254     77.73369     156.0305     312.9343      1.330     3.10     835.9417     55.18721     187.4744         7     0.937     0.465 -79.09   0
       571    587.0095    223.7689 307.6979238  +6.6008004      1096.56     1333.322     858.0242     77.98404     156.4049     312.9343      1.380     3.37     837.2668     55.18721     209.2067         9     1.042     0.724 -34.60   0
       572    231.1334    224.0894 307.8457442  +6.5887458     744.4952     823.5336     566.4639     78.60642     156.7783     313.0277      1.244     2.80     836.1198     55.18721      136.757         7     0.829     0.559  45.41   0
       573    998.6486    221.5184 307.5269949  +6.6154656     11304.52     14899.27     15189.71     78.48235     156.5917     313.1212      1.397     2.98     839.3817     55.18721     2003.515        31     1.277     0.946 -68.19   0
       574     38.0642    220.3486 307.9260677  +6.5838040     30156.71     40303.65     41505.75     78.48235     156.5294     313.0589      1.388     2.73     839.5034     55.18721     5172.143        45     1.335     1.011 -67.39   0
       575    709.9718    221.4527 307.6469209  +6.6058659     3227.729     4124.212      4390.41     78.23359     156.7161     312.9966      1.333     2.65     839.7108     55.18721     593.4375        15     1.089     0.750 -65.54   0
       576    284.3563    221.4281 307.8237254  +6.5916303     1299.983     1596.319     1313.794     78.10891     156.6539     312.9966      1.180     2.88     836.0237     55.18721     239.3845        10     0.990     0.661 -56.03   0
       577    518.5580    216.4218 307.7266056  +6.6015439     2251.118     2873.417     2453.091     78.10891     156.4049     312.9032      1.218     3.06      836.173     55.18721      453.323        14     1.157     0.658 -59.99   0
       578    850.5038    213.1108 307.5888196  +6.6140001     2305.072     3094.074     3022.009     78.48235     156.9647     313.1212      1.288     2.65     840.1566     55.18721      426.052        16     1.300     0.684 -66.77   0
       579    436.3574    213.7825 307.7608410  +6.5998817     520.4657     823.8406     1107.692     77.98404     156.4049      312.872      1.486     3.41     835.3734     55.18721     89.36096         5     0.772     0.437 -71.94   0
       580    902.7435    212.1072 307.5671513  +6.6161562     2358.369     3036.622     2630.875     78.35806     156.5917     313.2767      1.352     3.21     839.8784     55.18721     349.5254        16     1.134     0.806 -76.10   0
       581    530.5925    212.3281 307.7217437  +6.6036367     2994.549     3951.439     3617.708     77.98404      156.093     312.9966      1.338     2.96     836.1641     55.18721     510.2782        17     1.179     0.781 -58.70   0
       582    762.1249    209.6420 307.6256507  +6.6124835     47936.88     61484.56     63605.49     78.35806     156.6539     313.1212      1.350     2.63     839.8314     55.18721     9717.684        47     1.292     0.944 -66.85   0
       583    365.1924    209.0849 307.7905611  +6.5994368     6854.989     12109.69     12916.82     78.10891     156.2802     312.9343      1.862     5.92     835.5442     55.18721     1107.612        35     1.949     0.842 -74.66   0
       584    995.9468    208.4236 307.5285545  +6.6207822     3258.062     4418.402     4839.006     77.98404     156.5917     312.9032      1.438     3.11     838.6255     55.18721     509.3043        20     1.220     0.860 -76.21   0
       585    930.0681    206.6903 307.5559807  +6.6193033      8832.07      11515.8      11723.8     78.60642     156.7161     313.0589      1.371     2.75     839.3438     55.18721     1682.644        27     1.250     0.894 -64.30   0
       586    473.5384    205.8691 307.7456614  +6.6043939     5948.811      7890.62     8781.577     78.60642     156.5917     313.1212      1.360     2.87     835.3002     55.18721      1120.13        25     1.216     0.947 -71.74   0
       587    340.0058    204.7618 307.8011689  +6.6003774     520.4126      591.607     684.9295     77.60821     156.3425     312.8409      1.296     4.18     835.5678     55.18721     114.6376         5     1.102     0.451 -69.13   0
       588    247.8814    202.5104 307.8395131  +6.5982169     810.8967     1117.345     915.0897     78.23359     156.7783     313.1523      1.429     3.16     835.7513     55.18721     159.6077         8     1.045     0.631 -48.41   0
       589    130.8250    197.1577 307.8883177  +6.5964963     5787.402     7702.053     7693.491     78.10891     156.5294      312.872      1.364     2.86     836.8946     55.18721     924.3813        22     1.206     0.866 -67.70   0
       590    950.3414    196.0987 307.5479123  +6.6243518     1062.711     1605.091     2119.056     78.23359     156.5917     313.2145      1.655     3.57     838.3826     55.18721     195.0422        10     1.011     0.774 -40.75   0
       591    301.2028    193.8635 307.8176541  +6.6035756     40352.41     53372.86     54683.05     77.85896     156.4049      312.872      1.375     2.68     835.4114     55.18721     7677.733        48     1.325     0.979 -67.73   0
       592    627.2667    195.8437 307.6821362  +6.6136757     726.7497     28.07604    -210.5816     78.48235     156.5294     313.1212      1.053     2.31     837.4684     55.18721     173.8728         7     0.803     0.580  59.96   0
       593    276.5479    194.9185 307.8278603  +6.6023131     7797.649     10340.34     10501.46     78.48235     156.5917     313.1212      1.334     2.74     835.4991     55.18721     1415.444        23     1.195     0.869 -68.27   0
       594    730.3796    193.3696 307.6393832  +6.6181421     1127.989     1536.112     1844.407     77.98404     156.4049     312.9966      1.302     2.89     838.7896     55.18721     219.1912         8     1.005     0.483 -86.81   0
       595    425.2830    189.3494 307.7662618  +6.6095982     60099.95     78521.48     80821.61     78.48235     156.5917     313.1523      1.356     2.67     834.9426     55.18721      10970.2        54     1.318     1.000 -65.93   0
       596    181.2017    190.6979 307.8676090  +6.6008553     4727.979     6229.832      6437.63     77.98404     156.3425     312.7786      1.350     2.59     835.5689     55.18721     917.8024        23     1.214     0.870 -58.39   0
       597    627.5525    191.1968 307.6821731  +6.6156038     478.3611     676.6133     216.6049     77.85896     156.3425     312.7162      1.327     3.49     837.4095     55.18721     101.7158         5     0.769     0.456 -71.34   0
       598    442.4973    189.8417 307.7590942  +6.6099716     1565.099     1983.027     1798.366     78.48235     156.4672     313.3078      1.285     3.03      834.911     55.18721     269.9874        13     1.078     0.737 -61.61   0
       599    764.5773    185.5316 307.6254387  +6.6225199     39572.81     50439.79     51847.64     78.10891     156.5294     313.0589      1.293     2.81     838.4338     55.18721     7782.373        45     1.293     0.940 -66.88   0
       600    595.6498    188.3013 307.6955233  +6.6157327     683.4404     835.4512     1054.319     78.48235     156.5294     313.2767      1.159     3.21     836.7729     55.18721     137.6077         7     0.966     0.464  82.39   0
       601    329.2755    187.0639 307.8062211  +6.6073243     21871.17     28907.65     29697.72     78.73032     156.5917     313.0589      1.353     2.73     835.2294     55.18721     4097.616        38     1.314     0.946 -65.22   0
       602    712.3495    187.4814 307.6470706  +6.6199710     1286.498     1787.368     1637.168     78.48235     156.6539       313.09      1.370     2.57     838.2672     55.18721     228.6197         9     0.940     0.592  84.69   0
       603    336.8849    186.4011 307.8030824  +6.6078531     2477.774     3985.158     4217.292     77.73369     156.1554     312.7786      1.734     5.75     835.2003     55.18721     414.9523        22     1.777     0.751 -75.44   0
       604    812.9075    185.9211 307.6053476  +6.6239719      1448.39     1687.441     2056.646     78.23359     156.7783     313.1523      1.294     3.09     838.4738     55.18721     263.9548        11     1.095     0.613 -72.40   0
       605     51.6174    185.9385 307.9215976  +6.5984659     640.2322      711.082     333.1353     78.10891     156.5294     312.9032      1.148     2.82     839.3308     55.18721     169.3196         7     0.841     0.710 -34.90   0
       606     81.3572    182.8031 307.9093497  +6.6007602     10750.48     14220.63      14046.8     77.85896     156.1554     312.7786      1.364     2.62     838.4333     55.18721     2078.661        28     1.243     0.905 -64.52   0
       607    115.0903    181.0417 307.8953965  +6.6026211     1687.997     2126.406     2501.575     78.48235     156.5917     313.1212      1.266     2.31     837.1379     55.18721     351.0901        11     0.950     0.685 -76.34   0
       608   1022.8558    179.9795 307.5183249  +6.6334220     1392.319     1852.374     2082.909     76.21432     135.8637     248.3792      1.445     3.44     836.8486     55.18721     242.3677        13     1.196     0.719 -73.51  24
       609    815.6007    180.6397 307.6044054  +6.6262423     476.8957     502.3594     808.1068     77.60821     156.3425     312.7786      1.156     3.46     838.2141     55.18721     91.19983         5     0.999     0.347 -68.34   1
       610    990.5366    179.0383 307.5317832  +6.6327344     644.5204     927.4259     970.3596     78.48235     156.5294     313.1523      1.655     3.43     836.9999     55.18721     128.8317         7     0.930     0.577 -34.07   0
       611    748.8633    173.9857 307.6323533  +6.6267623     650.5167     734.7716     864.0414     77.98404     156.4672     312.9343      1.246     3.77     837.8279     55.18721      143.655         6     0.992     0.596 -80.95   0
       612    598.1349    170.2764 307.6950952  +6.6232576     788.6927     854.4302     1287.063     78.60642     156.5917     313.0589      1.114     2.79     836.5753     55.18721     171.6735         5     0.892     0.348 -45.38   0
       613     14.7795    168.0146 307.9375039  +6.6046268     1080.968     1265.511     944.9875     78.23359     156.2802     312.9966      1.236     4.35     840.7444     55.18721     191.4929         9     1.081     0.674 -78.17   0
       614   1023.5427    166.0185 307.5185055  +6.6392089     2052.466     2333.461     2319.668     69.66715     126.2714     237.3846      1.166     3.20     836.1176     55.18721     396.0334        12     1.215     0.562 -87.94  24
       615    607.0109    163.9734 307.6916191  +6.6261567     1285.082     1417.685     1361.752     78.10891     156.4049     312.9655      1.224     2.84     836.9073     55.18721     225.5255        11     0.993     0.677 -72.59   0
       616    293.2048    163.3956 307.8220009  +6.6158863     771.4689     1181.588     2037.574     77.85896     156.2178     312.9655      1.863     4.24     834.7521     55.18721     122.9989         9     1.064     0.650 -44.32   0
       617    615.3735    161.8635 307.6882157  +6.6273074     2324.152     2809.235     2791.755     78.10891     156.5917     313.0278      1.274     2.82     836.9879     55.18721     464.4445        16     1.154     0.759 -66.07   0
       618    359.2491    162.0926 307.7946088  +6.6186388     1237.474     1539.464     1464.753     78.35806     156.4672     313.2145      1.267     2.96     834.7174     55.18721     229.7996         9     1.012     0.573 -77.92   0
       619     45.2988    158.8682 307.9251347  +6.6094293     5183.861     7083.842     7322.094     78.48235     156.7161     313.1212      1.414     3.10     839.5844     55.18721     966.8431        26     1.619     0.798 -71.78   0
       620    300.1317    160.0994 307.8192342  +6.6174794     36253.91     48205.09     50177.46     78.48235     156.7161     313.0589      1.362     2.74     834.7088     55.18721     6664.823        45     1.315     0.991 -66.89   0
       621    731.8235    156.7019 307.6400108  +6.6333293      9788.84     12445.26     12594.92     78.60642     156.3425     312.9343      1.312     3.05     836.9698     55.18721     1653.789        26     1.251     0.847 -67.86   0
       622    209.0860    157.8625 307.8571309  +6.6153478     1081.192     1481.843     1639.458     78.60642     156.7783       313.09      1.386     3.07     834.9819     55.18721     228.6505        10     1.064     0.594 -69.22   0
       623    285.7508    154.9946 307.8253799  +6.6191046     919.1604     1263.276     1625.834     77.85896     156.4049     312.7474      1.614     4.68     834.7278     55.18721     133.7475         9     1.203     0.530 -64.77   0
       624    142.4919    153.7943 307.8849315  +6.6147909     5930.999     7857.276     7534.811     78.10891     156.2802     312.8409      1.346     2.86     835.1436     55.18721     1087.359        24     1.287     0.835 -72.03   0
       625    670.5460    150.7157 307.6656685  +6.6337539     1068.661     1456.235     1107.231     78.48235     156.5917     313.2456      1.244     4.02     836.4251     55.18721     222.5932        12     1.289     0.750 -89.40   0
       626    604.5304    151.5417 307.6930663  +6.6312064     977.9058     1434.696     1851.006     78.60643     156.5917     313.0589      1.604     4.17     836.1698     55.18721      181.215        10     1.224     0.616 -68.50   0
       627    481.3104    151.3034 307.7442640  +6.6271822     1593.848     2219.624     2410.498     78.48235     157.0268       313.09      1.419     2.91     833.6732     55.18721     283.6732        12     1.056     0.686 -60.24   0
       628    413.2258    149.7227 307.7726013  +6.6255546     4570.699     6774.858     6483.276     78.23359     156.5294     313.0589      1.595     3.85     834.5204     55.18721     728.8052        28     1.466     0.970 -82.26   0
       629    589.6055    149.0590 307.6993499  +6.6317323     754.5121     1097.506     763.6555     77.98404     156.4672      312.872      1.614     4.87     835.3745     55.18721     110.2152         9     1.217     0.553 -74.88   0
       630    377.5626    148.7561 307.7874491  +6.6247586     3798.152     4813.342     4722.728     78.23359     156.5917     312.9343      1.284     2.91     834.6269     55.18721     659.4573        18     1.186     0.777 -69.53   0
       631    131.9354    148.6977 307.8894884  +6.6165404      2161.63     2847.022     2341.344     78.48235     156.6539     313.1212      1.373     2.92     835.3798     55.18721     356.0386        15     1.166     0.746 -60.40   0
       632    960.4775    148.1803 307.5453018  +6.6444737      482.971     576.6006     684.2321     78.10891     156.3425     313.0589      1.335     4.51     835.6406     55.18721     114.2042         6     1.168     0.495 -46.38   0
       633    767.9303    146.8295 307.6253409  +6.6386107     670.3016     1140.544     1484.483     78.23359     156.5917     313.0277      1.642     1.87     836.2266     55.18721     163.5187         5     0.712     0.464 -52.43   0
       634    693.6992    146.5224 307.6561902  +6.6362587      920.834     1169.783     1495.468     78.10891     156.7783     313.1212      1.341     3.83     836.2736     55.18721      184.777         8     1.082     0.514 -64.91   0
       635   1023.7665    143.1034 307.5191775  +6.6486775      1037.25     1185.864     856.7245     67.10184     122.8284     234.2019      1.032     2.95     835.4655     55.18721     293.1712         6     0.871     0.414 -83.44  24
       636    750.6398    142.9144 307.6326553  +6.6396499     713.0129      761.624     833.6225     78.48235     156.5294       313.09      1.310     4.72     836.1014     55.18721     114.0228         8     1.039     0.609  69.54   0
       637    229.4778    137.6198 307.8493410  +6.6243896      6693.46     8887.632     8826.373     78.10891     156.3425     313.0589      1.362     2.85     834.8134     55.18721     1249.301        25     1.258     0.867 -68.96   0
       638    112.2343    137.5739 307.8980470  +6.6204708     2501.175     3601.063     3757.785     77.85896     156.4049      312.872      1.493     3.01     835.7035     55.18721     434.3575        19     1.270     0.854 -75.76   0
       639    691.3068    136.4485 307.6575215  +6.6403380     7410.861     9372.325     9157.555     78.35806     156.4672     313.2145      1.311     2.58       835.65     55.18721     1523.025        25     1.258     0.823 -68.11   0
       640    839.4110    136.1425 307.5960018  +6.6454082     1261.857     1583.685      1388.43     77.85896     156.5917     312.8098      1.293     3.07     835.9885     55.18721     244.1771        13     1.174     0.680 -64.60   0
       641    643.4399    133.7017 307.6774996  +6.6398726      11212.6     14705.97     15366.41     78.48235     156.4672     313.3078      1.332     2.91     835.2895     55.18721     2259.861        29     1.272     0.860 -66.65   1
       642    278.1531    134.1252 307.8292379  +6.6274658     1003.714     1358.776      1390.85     78.35806     156.6539       313.09      1.379     4.30     834.7161     55.18721     166.1674        11     1.107     0.749 -62.84   0
       643    581.3304    132.8701 307.7033304  +6.6381394     670.3089     892.4669     1218.791     78.48235     156.7161     313.0589      1.348     3.39     834.2181     55.18721     113.7917         5     0.771     0.431 -72.96   0
       644     42.1321    132.6519 307.9273337  +6.6201462     1204.001     1473.348     1022.095     78.35806     156.4672     313.0589      1.452     3.94     839.0512     55.18721     208.0748         9     1.095     0.541 -64.04   0
       645    370.5966    129.4221 307.7909926  +6.6325074      4301.16     6229.336     6164.184     78.10891     156.2802      312.872      1.541     3.85     834.6003     55.18721     821.2352        27     1.578     0.851 -63.15   0
       646    552.3611    128.6713 307.7155063  +6.6389039     2110.057     2777.148     2754.081     78.35806     156.5917     313.1523      1.354     3.27     833.3151     55.18721     403.1747        15     1.251     0.689 -69.28   0
       647   1016.8099    128.2094 307.5225649  +6.6545952     884.2389     1301.342     1265.447     78.10891     156.4049     312.2796      1.380     3.92     835.1249     55.18721     149.0545         8     1.042     0.640  75.51  16
       648    647.0465    125.2365 307.6762849  +6.6434881     64038.46     83069.61     85408.17     78.23359     156.5917     312.9966      1.347     2.77     834.7637     55.18721     11584.15        56     1.326     0.975 -66.49   0
       649    712.9675    125.8573 307.6488773  +6.6454343     520.9585     673.3055     1188.928     78.35806     156.6539     313.0589      1.158     3.38     835.1293     55.18721      98.2843         5     0.793     0.504 -59.28   0
       650    326.0746    118.9486 307.8098403  +6.6353388     4362.703      5774.76     5908.538     78.48235     156.6539       313.09      1.368     2.75     834.7088     55.18721     807.4165        19     1.139     0.834 -62.22   0
       651    725.8741    113.4129 307.6439318  +6.6510032     1141.174     1481.503     917.8455     77.98404     156.2802     312.9032      1.237     2.87     834.3983     55.18721     218.3252         9     1.032     0.523 -63.85   0
       652     23.7071    101.9967 307.9360211  +6.6321823     725602.4      1379865      1479523     78.10891     156.2802     312.8097      2.005     4.20      839.538     55.18721     61426.39       442     2.101     1.802 -68.11   4
       653    697.5025    112.3931 307.6557531  +6.6504766     1534.104     1965.636     2024.601     78.23359     156.2178      312.872      1.273     2.20     834.3153     55.18721     337.7544        13     1.067     0.740 -45.61   0
       654    711.3887    109.1701 307.6500920  +6.6522712     3866.179     5133.569     5408.318     77.98404     156.4049     312.9343      1.273     2.67     834.1557     55.18721     744.1396        18     1.166     0.752 -69.03   0
       655    589.5020    109.4632 307.7007204  +6.6480765     523.1419      730.267     1068.609     78.35806     156.7161     313.1212      1.961     3.95     833.0967     55.18721     107.7244         6     1.413     0.315 -53.94   0
       656    453.1426    100.2182 307.7576807  +6.6473300     5111.273      6648.14     7082.409     77.98404     156.5294     312.8409      1.368     2.78     833.2596     55.18721     933.8682        20     1.197     0.808 -65.43   0
       657    925.6398     95.6440 307.5615308  +6.6650037     4659.943     6111.548     6069.994     78.23359     156.5917     312.9655      1.365     3.08     833.8015     55.18721     799.8355        23     1.272     0.859 -75.22   0
       658    907.7340     96.3784 307.5689456  +6.6641037     2554.917     3361.918      3298.95     78.10891     156.5917     313.0278      1.375     3.07     833.6306     55.18721     439.7458        17     1.161     0.824 -70.34   0
       659    605.7321     95.9702 307.6944299  +6.6541900     832.8301     1101.708     793.5487     78.23359     156.5917     313.0589      1.285     3.46     832.3978     55.18721     144.5098         7     0.867     0.572 -64.88   0
       660    617.8799     94.1272 307.6894448  +6.6553571     2236.824     2959.312     2780.253     78.73031     156.8405     313.1212      1.388     3.23     832.5047     55.18721     334.8819        15     1.148     0.740 -69.66   0
       661    637.7573     93.7816 307.6811982  +6.6561643     599.9291     872.2336     1070.007     77.98404     156.4672      312.872      1.568     4.37     832.8076     55.18721     98.33112         7     1.091     0.497 -65.63   0
       662    263.6161     93.5589 307.8366413  +6.6437260     1134.294     1660.771     2227.043     77.98404     156.3425      312.872      1.450     2.86     834.4802     55.18721     217.9486        10     1.015     0.646 -53.96   0
       663    106.9997     93.7025 307.9016994  +6.6384071     582.3509     914.2853     387.9222     77.98404     156.2178     312.6851      1.493     4.43      833.713     55.18721     92.44843         6     0.897     0.622 -38.87   0
       664    416.4000     92.1123 307.7732174  +6.6494459     2232.322      2838.59     2359.463     77.73369      156.093     312.7474      1.242     2.62     834.0547     55.18721     429.2892        15     1.146     0.702 -66.12   0
       665    164.3794     89.0443 307.8780193  +6.6422582     3832.384     5166.578     4656.562     77.98404     156.4672     312.9343      1.387     2.99     832.3765     55.18721     662.7475        20     1.195     0.852 -72.82   0
       666     46.3186     86.8228 307.9271394  +6.6392073     14528.38     19468.06     20329.27     78.23359     156.2802     313.0278      1.399     2.70      836.727     55.18721     2782.548        35     1.287     0.977 -71.50   0
       667    312.6835     87.4711 307.8164616  +6.6478854     1596.859     2297.704     3285.489     78.73032     156.8405     313.1212      1.575     3.08     835.0505     55.18721     222.3783        12     1.022     0.767 -85.47   0
       668    586.0737     86.5643 307.7029124  +6.6574160     708.5715     905.2241     1106.334     78.35806     156.5917     313.0589      1.619     3.34     832.2214     55.18721     141.0863         9     1.118     0.594 -75.40   0
       669    573.2368     86.4256 307.7082503  +6.6570439     1005.347     1300.795       1497.2     78.10891     156.4049      312.872      1.395     3.01     832.1761     55.18721     190.8608         8     0.961     0.527 -70.37   0
       670    781.0703     85.9595 307.6219189  +6.6641806     790.6423     1108.199     1907.165     78.35806     156.5917     313.1523      1.430     2.62     833.1887     55.18721     144.5226         6     0.760     0.641 -88.22   0
       671    914.5956     82.8056 307.5665484  +6.6699362     666.9652     656.5033     966.4683     77.85896     156.2802     312.9655      1.214     3.45     833.2336     55.18721     108.3403         5     0.741     0.464  73.94   0
       672    847.9923     81.3467 307.5942691  +6.6683179     7137.236     9396.698     9822.569     77.98404     156.4049     312.8098      1.353     2.84     832.8614     55.18721     1332.167        24     1.250     0.844 -70.62   0
       673    793.1133     81.6307 307.6170602  +6.6663697     3973.911     5163.698     5387.851     78.60642     156.3425     313.0278      1.366     2.75     833.0439     55.18721      811.976        21     1.293     0.802 -70.40   0
       674    438.3039     82.2947 307.7644472  +6.6542329     1289.183     1674.859     1325.276     78.48235     157.2128     312.9655      1.366     3.05     833.4891     55.18721     239.8997        12     1.117     0.699 -72.44   0
       675    938.8135     81.2978 307.5565368  +6.6713658     515.7706     683.2861     811.8041     78.35806     156.3425     312.8409      1.119     3.82     833.2693     55.18721     124.2592         5     0.880     0.476 -48.01   0
       676    779.8754     80.7473 307.6225897  +6.6662926     828.0269     1072.834     1910.675     78.48235     156.6539       313.09      1.408     4.30     832.9318     55.18721      188.344         7     0.944     0.558 -86.86   0
       677    555.5370     79.7201 307.7158286  +6.6592203     1414.814      1702.51     2279.078     78.60643     156.6539       313.09      1.238     3.20      831.994     55.18721     240.1909        11     1.032     0.770 -86.64   0
       678     86.6276     78.6914 307.9106682  +6.6439196       3943.5     5225.683     5331.615     78.60643     156.3425     312.9655      1.327     2.88     833.6741     55.18721     658.5836        20     1.184     0.822 -59.96   0
       679     71.0438     79.6829 307.9171087  +6.6429863     1238.286     1537.057     1256.798     78.48235     156.5917     313.0589      1.311     2.48     834.5995     55.18721     237.1578        11     0.948     0.693 -75.80   0
       680    674.9456     78.8491 307.6662482  +6.6635722     615.0752     831.2449     863.5038     78.48235     156.5917     313.1523      1.329     2.16     832.6703     55.18721     135.6196         5     0.624     0.540 -85.19   0
       681    447.5489     78.2984 307.7607405  +6.6561925     1034.627     1413.622     1968.054     78.35806     156.5917     313.3078      1.199     3.08     833.1987     55.18721     192.8239         9     1.072     0.496 -87.92   0
       682    610.3705     75.3513 307.6931940  +6.6628579     1479.246     2081.556     1909.366     78.10891     156.6539     312.9966      1.413     2.84     832.0895     55.18721      312.368        12     1.057     0.683 -84.47   0
       683     29.0261     74.0817 307.9347527  +6.6438857     3076.473     4555.975     5269.863     78.35806     156.4049       313.09      1.511     2.93     836.0702     55.18721     517.2392        20     1.339     0.821 -70.66   0
       684    787.7509     69.1013 307.6197074  +6.6713637     2364.719     3105.925     2976.992     78.48235     156.5294     313.2767      1.336     3.28     832.3553     55.18721     371.0726        14     1.165     0.673 -69.51   0
       685    428.2958     69.6029 307.7690313  +6.6591376     1301.107     1739.201     1478.693     78.23359     156.2802     312.7786      1.377     2.74     833.7231     55.18721     246.6129        11     1.031     0.656 -57.12   0
       686    101.2903     70.1147 307.9048659  +6.6479534     877.8576     1052.423     824.3284     78.23359     156.9026     313.2145      1.294     2.47     832.6155     55.18721     180.2801         7     0.833     0.536 -62.94   0
       687    125.2131     68.1023 307.8949954  +6.6495882     1117.577     1569.187     1612.097     78.35806     156.3425     312.8409      1.338     3.70     832.2304     55.18721     192.5564        11     1.132     0.679 -64.84   0
       688    114.3726     62.9916 307.8996711  +6.6513338      10940.5     14681.85     15495.77     78.10891     156.4049     312.9343      1.386     2.78     832.1312     55.18721     2005.362        33     1.311     0.923 -64.19   0
       689    443.4439     62.8116 307.7629660  +6.6624488     3156.896     4084.293     4026.628     77.98404     156.4672     312.8098      1.318     2.95     833.2485     55.18721     629.2067        18     1.173     0.827 -66.60   0
       690    264.4758     62.5431 307.8373274  +6.6565597     882.5847     1314.927     1484.283     78.48235     156.5294     313.0278      1.726     5.47     834.5314     55.18721     133.0493        10     1.316     0.706  73.50   0
       691    657.1577     54.9525 307.6744392  +6.6728438     21577.36     28352.71      29297.5     78.48235     156.5294     312.9966      1.369     2.74     831.6497     55.18721     4111.147        36     1.316     0.896 -69.35   0
       692    281.0677     56.9646 307.8306220  +6.6594196     1735.611     2376.724     3375.656     78.35806     156.6539     313.1834      1.502     2.80     835.5847     55.18721      285.688        15     1.124     0.924 -84.71   0
       693    687.0241     55.7820 307.6620027  +6.6734993     634.6047     871.7413     926.2402     78.10891     156.4672     313.0278      1.509     4.23     831.6338     55.18721     101.7383         7     1.136     0.449 -57.67   0
       694    556.9899     50.9795 307.7161890  +6.6711347      6274.08     8216.661     8267.192     78.10891     156.2802     312.9343      1.369     2.96      831.287     55.18721     1105.875        25     1.236     0.882 -60.32   0
       695    712.7305     49.7094 307.6515257  +6.6768652     683.9999     743.5652     1367.679     78.48235     156.7161       313.09      1.174     3.03     831.3311     55.18721     161.2381         6     0.889     0.442  87.38   0
       696    643.5132     45.4760 307.6804256  +6.6763003     3566.918     5666.463     6163.263     78.48235     156.9026     313.1523      1.797     4.18     831.3748     55.18721     782.8471        28     1.942     0.928  78.58   0
       697     24.2513     49.4116 307.9375680  +6.6539100      1301.75     1837.475     1714.159     77.85896     156.4672     312.8409      1.387     2.87     832.8787     55.18721     263.3592        11     1.070     0.619 -85.64   0
       698    462.4858     46.6202 307.7555985  +6.6697713     27245.88     35834.08     36628.85     78.10891     156.3425     313.0278      1.378     2.92     832.5101     55.18721     5160.586        44     1.336     0.962 -67.13   0
       699    283.0647     47.0350 307.8301263  +6.6635860     11052.59     14952.97      15862.9     78.35806     156.5917     313.1212      1.390     2.79     835.9711     55.18721     2017.155        35     1.305     0.996 -63.98   0
       700    940.3135     46.6584 307.5570710  +6.6857174     2174.869      2873.86     3173.925     78.48235     156.5917     313.2145      1.348     2.93     831.8537     55.18721     410.5909        14     1.113     0.690 -69.13   0
       701    528.2193     48.0087 307.7282419  +6.6713986     569.8203     865.7238     612.4259     78.23359     156.3425     312.9032      1.293     3.84     831.3112     55.18721     85.42169         5     0.834     0.506 -39.98   0
       702    342.8986     47.3517 307.8052575  +6.6654621     1165.849     1690.557     1585.577     78.48235     156.5294     313.2767      1.457     3.29     836.4174     55.18721     192.3884        11     1.035     0.676 -73.23   0
       703     48.3657     46.7644 307.9276394  +6.6558140     2712.822     3674.433     3466.517     78.23359     156.3425     312.8409      1.354     2.92     832.2202     55.18721     520.7488        18     1.298     0.754 -64.18   0
       704    575.5405     46.5590 307.7086300  +6.6735804     715.3944     786.9072     957.5913     78.48235     156.5917     313.1523      1.222     3.73     831.3621     55.18721     138.7579         5     0.950     0.466 -77.72   0
       705    275.1209     51.3805 307.8332804  +6.6615254     2380.016     3144.735     4080.458     77.98404     156.2802     313.0589      1.369     2.87     835.3122     55.18721      394.199        13     1.120     0.681 -62.66   0
       706    270.9539     43.6641 307.8352712  +6.6645713     3786.964     5307.739      6191.79     78.48235     156.5294     313.1212      1.470     3.08     835.1108     55.18721     649.7885        20     1.207     0.855 -64.74   0
       707    324.1470     41.7143 307.8132375  +6.6671607     1178.524     1545.689     1486.953     78.48235     156.5294     313.2456      1.382     2.65     836.5882     55.18721     230.3129        12     0.976     0.767 -65.74   0
       708    960.8621     37.0223 307.5488552  +6.6903805     1182.346     1820.018     2376.817     78.10891     156.5917     312.9966      1.493     3.21     831.1226     55.18721       203.38        10     1.036     0.647 -71.17   0
       709    712.3475     36.1444 307.6521391  +6.6824529     2268.731      2891.64     2918.333     78.48235     156.5917     313.0589      1.346     2.82     830.6954     55.18721      413.559        17     1.110     0.873 -73.98   0
       710    117.3564     36.1135 307.8993369  +6.6625306      831.847      985.329     1162.317     78.48235     156.4672       313.09      1.281     5.05     830.9076     55.18721     134.1974         9     1.154     0.635 -62.73   0
       711    223.4782     32.4775 307.8553714  +6.6675963     990.0419     1464.768     1955.059     78.73032     156.8405     313.2145      1.277     2.57     830.9217     55.18721     173.8993         8     0.939     0.499  87.86   0
       712    277.8717     31.4072 307.8328094  +6.6698637     1020.438     1373.808     1547.732     77.98404     156.1554     313.0278      1.292     2.47      835.917     55.18721     192.2681         7     0.810     0.581 -75.21   0
       713    200.5861     29.0898 307.8649959  +6.6682263     12801.03     16960.69     17467.65     78.23359     156.4049     312.9343      1.349     2.91     830.8113     55.18721     2159.114        33     1.324     0.916 -66.61   0
       714     13.7257     29.3741 307.9426164  +6.6618282     1164.872     1553.733     1324.932     78.10891     156.4672     313.0589      1.352     3.08     830.0922     55.18721     167.3526        10     1.002     0.669 -77.53   0
       715    946.1935     26.7142 307.5552943  +6.6941476     4818.494     6508.665     7085.144     77.98404     156.2802     312.8409      1.443     3.01     830.9095     55.18721     854.7465        23     1.327     0.835 -68.81   0
       716    544.8625     27.2306 307.7220242  +6.6805340     3476.945     4678.354     5213.087     78.23359     156.6539     313.0589      1.379     3.01     830.5462     55.18721     541.7764        18     1.124     0.871 -67.60   0
       717    385.2230   1020.8937 307.7549897  +6.2649399     1852.417     2831.733     2771.908     78.48235     154.9021     275.8212      1.595     3.92     863.3552     55.18721     328.1196        16     1.341     0.727 -61.39  16
       718     88.6547     25.6779 307.9116124  +6.6658741     486.0609     648.8148     244.2484     78.60643     156.5917     313.1212      1.153     3.48     830.2474     55.18721        88.25         6     0.856     0.497 -44.69   0
       719   1011.0122     23.0246 307.5284856  +6.6978300     2212.962      3091.56     2700.422     78.10891     156.4049     313.0277      1.474     3.68     829.4391     55.18721     361.6776        16     1.328     0.715 -73.77   0
       720    806.0408     22.5846 307.6136648  +6.6911793     505.9683     626.4594     1121.924     77.98404     156.4049      312.872      1.822     4.21     830.0827     55.18721     109.3661         5     0.938     0.691 -67.50   0
       721    233.3179   1019.6341 307.8180924  +6.2603697     577.2693     810.8595     821.3148     78.48235     156.5917     290.4504      1.551     4.20     860.9409     55.18721      73.8822         6     1.126     0.447  82.82  16
       722    772.0168   1010.6284 307.5947567  +6.2821053     8180.461     12593.49     13260.25     78.10891     156.3425     312.9966      1.641     3.34     862.8016     55.18721     1008.228        36     1.406     1.152 -72.81   0
       723    352.4750     18.3892 307.8022523  +6.6777404     1181.482     1580.897     1275.315     78.10891     156.2178     312.9032      1.273     3.81     837.4083     55.18721     202.2387        11     1.195     0.651 -81.06   0
       724    567.4121   1011.1371 307.6796823  +6.2750632     4689.288     6846.347     7430.918     77.98404     156.4049      312.872      1.575     3.26     863.3082     55.18721     609.2117        28     1.387     0.970 -67.89   0
       725    406.0694     17.1017 307.7800289  +6.6800683     899.5247     1050.331     614.7167     78.35806     156.7161       313.09      1.228     3.38     834.6262     55.18721     145.7273         8     0.850     0.637 -51.77   0
       726    537.6594   1012.5233 307.6919876  +6.2734962     1161.243     1799.712       1970.7     78.60643     156.6539     313.0589      1.646     4.72     863.3439     55.18721     144.6293        13     1.170     0.769 -55.64   0
       727    317.7461   1009.8268 307.7833730  +6.2672489     16080.16     23932.76     25968.87     78.23359     156.7161     313.0278      1.609     3.27       862.23     55.18721     2388.772        54     1.752     1.143 -46.11   0
       728     13.9770   1011.2247 307.9094278  +6.2564785      762.534     1098.025     1187.975     77.98404     156.4672     313.0589      1.522     4.34     854.2419     55.18721     147.2453         9     1.169     0.778  84.63   0
       729    442.0594   1010.3965 307.7317467  +6.2711765     1091.964     1295.141     842.0674     77.85896     156.4672     312.8409      1.315     3.42     863.5415     55.18721     178.4992        10     1.001     0.643 -63.34   0
       730    833.0982   1009.8116 307.5694254  +6.2844795      1133.54     1714.982      1696.65     78.23359     156.3425      312.872      1.620     4.35     861.5719     55.18721     146.5443        11     1.029     0.800 -58.98   0
       731    288.8545   1007.5394 307.7954437  +6.2672251     1114.728     1461.069     1859.399     78.60642     156.5294     313.0589      1.364     3.19     862.0311     55.18721     175.6172        11     0.983     0.764 -56.14   0
       732    933.3147   1004.0198 307.5280123  +6.2902102     8219.695     13846.34     14560.03     78.10891     156.3425     313.0278      1.784     3.79     859.9028     55.18721       1003.1        41     1.524     1.276 -66.87   0
       733    564.6429   1003.4334 307.6810899  +6.2781512     9112.151     13048.53     14573.32     78.23359     156.5917     312.9032      1.562     3.25     863.2077     55.18721     1172.806        35     1.400     1.055 -68.16   0
       734    747.0857     25.4448 307.6380642  +6.6880305     2367.345     2929.346     2900.351     78.48235     156.4672     313.0589      1.352     3.08     830.1372     55.18721     425.3273        15     1.209     0.774 -55.37   0
       735    906.9811   1000.1454 307.5390745  +6.2909327     11774.04     20005.35     21082.79     77.98404     156.5917     312.9032      1.798     3.71     859.9918     55.18721     1444.882        49     1.523     1.361 -55.22   0
       736    619.5679   1000.6325 307.6583813  +6.2811431     1527.718     2337.678     2824.603     77.98404     156.3425     312.8409      1.851     3.83     863.0507     55.18721     204.2763        19     1.328     0.918 -44.91   0
       737    551.2621    999.2133 307.6867862  +6.2794463     4711.022     7172.181     7994.795     77.98404     156.4049      312.872      1.657     3.56     863.1575     55.18721     668.5667        32     1.359     1.230   3.15   0
       738    660.6141    998.4370 307.6414142  +6.2834206     1488.085     2142.243     2142.714     77.98404     156.4049     312.8409      1.609     4.26     862.5411     55.18721     176.5246        15     1.237     0.801 -67.41   0
       739     85.6952    998.2632 307.8800926  +6.2642390      976.479     1380.593      1580.63     78.35806     156.7161     313.1212      1.550     3.75     857.0355     55.18721     189.3156        11     1.206     0.740 -64.01   0
       740    504.2140    995.7690 307.7064337  +6.2792952     2444.022     3471.346     3954.053     78.10891     156.3425     313.0278      1.493     3.06     863.1247     55.18721     388.4495        19     1.227     0.889 -71.10   0
       741     47.1713    992.9624 307.8962631  +6.2651335     432.8542     717.6884     376.7811     77.98404     156.3425     312.9655      1.272     3.61     855.2728     55.18721     95.03314         5     1.363     0.276 -78.92   0
       742    938.6770    987.7287 307.5263296  +6.2971151     43266.34     70131.88     74405.75     78.73032     156.8405       313.09      1.768     3.60      859.744     55.18721     5315.664        71     1.593     1.343 -74.69   0
       743     11.3922    987.5687 307.9112973  +6.2661581     3291.696     5056.629     5279.263     77.98404     156.4049      312.872      1.634     3.52     853.7379     55.18721     466.6975        24     1.379     0.957 -57.22   0
