#   1 NUMBER                 Running object number                                     
#   2 X_IMAGE                Object position along x                                    [pixel]
#   3 Y_IMAGE                Object position along y                                    [pixel]
#   4 ALPHA_J2000            Right ascension of barycenter (J2000)                      [deg]
#   5 DELTA_J2000            Declination of barycenter (J2000)                          [deg]
#   6 FLUX_APER              Flux vector within fixed circular aperture(s)              [count]
#   9 FLUXERR_APER           RMS error vector for aperture flux(es)                     [count]
#  12 FLUX_RADIUS            Fraction-of-light radii                                    [pixel]
#  13 FWHM_IMAGE             FWHM assuming a gaussian core                              [pixel]
#  14 BACKGROUND             Background at centroid position                            [count]
#  15 THRESHOLD              Detection threshold above background                       [count]
#  16 FLUX_MAX               Peak flux above background                                 [count]
#  17 ISOAREA_IMAGE          Isophotal area above Analysis threshold                    [pixel**2]
#  18 A_IMAGE                Profile RMS along major axis                               [pixel]
#  19 B_IMAGE                Profile RMS along minor axis                               [pixel]
#  20 THETA_IMAGE            Position angle (CCW/x)                                     [deg]
#  21 FLAGS                  Extraction flags                                          
         1    176.8879     23.9049 307.8650640  +6.6682248     11539.54     16889.62     17461.81      77.5377     155.0754     309.3831      1.537     3.00     815.5206     54.52295     1701.291        38     1.388     1.103 -50.76   0
         2    987.3010     17.8980 307.5285608  +6.6978828     2202.412     3441.465     3885.731      77.5377     155.0754     309.1678      1.748     3.40     799.4587     54.52295     332.5826        22     1.367     0.914 -59.54   0
         3    706.6775     14.4875 307.6452717  +6.6899060     8153.345     11172.41     11567.42      77.5377      155.014     309.4138      1.488     2.83     804.1267     54.52295     1159.134        30     1.205     1.054 -54.73   0
         4    626.9366     13.6840 307.6784296  +6.6875659     4005.848     5675.507     6038.395     77.66029     154.7684     309.2908      1.475     3.05     804.3696     54.52295     625.3215        22     1.262     0.899 -44.35   0
         5    329.0694     13.4318 307.8021934  +6.6776700      1108.86     1666.172     1972.971     77.41492     154.7069     309.3216      1.681     3.44     815.1801     54.52295      165.006        12     1.028     0.770 -54.44   0
         6    382.5161     11.8074 307.7800430  +6.6801373     773.2744     989.0585     814.2247     77.16876     154.3992     309.1678      1.412     4.84     812.4047     54.52295     96.09155         9     1.094     0.775 -33.60   0
         7    427.0852      9.8776 307.7615911  +6.6824315     6798.687     9898.164     10339.07      77.5377      155.014     309.4138      1.527     3.00     809.0235     54.52295     992.7822        31     1.318     1.076 -52.93   0
         8     28.0444      9.4354 307.9273898  +6.6691826     9328.865     13230.19     13211.44     77.29194     154.6454     309.1985      1.499     2.95     818.4538     54.52295     1316.135        33     1.303     1.080 -54.92   0
         9    674.0994      8.8612 307.6589967  +6.6911377     938.4353     1306.936     1090.376     77.29194     154.6454     309.4445      1.425     3.55      804.363     54.52295     166.8367         9     1.110     0.625 -35.05   0
        10    502.6873      6.7025 307.7302876  +6.6862810     941.5225     1386.625      1608.46      77.5377     155.1367      299.668      1.635     4.56     805.5605     54.52295     120.4225        10     0.887     0.855 -89.76  16
        11    323.5996      4.8246 307.8047565  +6.6810399     13900.21        20038     20920.44     77.16876     154.3992     281.0255      1.552     2.96     815.2971     54.52295     1991.908        42     1.371     1.126 -57.90  24
        12    418.6056      5.5404 307.7652605  +6.6839374      971.074     1443.037     2115.486     77.04539     154.5839      288.772      1.872     4.57     809.4232     54.52295      123.779        11     0.955     0.915 -81.22  16
        13     97.2680      5.1413 307.8987767  +6.6732896     2695.222     3769.995      3765.62     77.66029     154.6454     284.6579      1.438     2.97     815.8053     54.52295     433.3044        20     1.132     0.977 -50.26  16
        14     88.4260      3.9630 307.9024899  +6.6734780      1594.73     2245.529     2199.219     77.16876     152.2899     270.7151      1.453     3.13     816.0992     54.52295     244.4692        14     1.078     0.805 -45.96  16
        15    792.0380      3.4721 307.6101758  +6.6973119     811.7559      1005.54     660.4289     77.41492     148.7508     264.5661      1.346     2.76     803.6136     54.52295     145.3266        10     0.972     0.631 -61.77  16
        16    389.8903      2.8278 307.7772823  +6.6840927     2658.573     3534.873     3476.726     77.66029     142.4125     255.6423      1.433     3.27     811.8741     54.52295     412.0648        19     1.197     0.893 -43.11  24
        17    458.6189      2.6090 307.7487349  +6.6864917     672.8368     1086.786     1090.827     77.29194      139.715     252.2333      1.680     4.58     807.3264     54.52295     113.6798         7     0.955     0.623 -67.76  24
        18    650.4315      1.0897 307.6690918  +6.6935535     542.8089     896.2716     879.0538     64.25386     119.2147     228.7366      1.248     3.87      804.069     54.52295     138.2879         7     1.510     0.284   1.33  24
        19    595.8602    995.3534 307.6583080  +6.2811850      1506.96     2105.146     2020.538     77.41492     154.7069     309.4138      1.492     3.51     839.1951     54.52295     215.7131        13     1.058     0.820 -44.73   0
        20    954.7578   1020.3672 307.5084699  +6.2828601     6276.648      10682.8     11155.28     77.29194     154.7069     278.8506      1.835     3.61     833.1145     54.52295     709.8352        40     1.486     1.284 -45.61  24
        21    527.0126    993.9565 307.6869371  +6.2794542     4447.547     6647.296     6978.767     77.04539     154.5839     309.0754      1.550     3.08     839.6296     54.52295     633.8993        27     1.281     1.075 -48.89   0
        22    636.8685    993.3906 307.6413492  +6.2833692     1466.329     2320.529     2161.935     77.04539     154.5223     309.1985      1.607     3.88     838.7885     54.52295     200.9333        16     1.287     0.827 -33.78   0
        23     61.8895    992.5115 307.8800744  +6.2644211     959.3423     1274.051     1499.003     77.29194      155.198     309.4138      1.474     3.98     837.1196     54.52295     121.9284        11     1.037     0.798 -43.04   0
        24    792.3091    991.8242 307.5768693  +6.2892180     629.2927     825.1804     694.5347     77.66029     154.5223     309.1678      1.398     2.73     835.0692     54.52295     114.1716         6     0.711     0.641  31.28   0
        25    480.4739    990.4741 307.7063747  +6.2793314     2436.572     3363.987     3633.144     77.78268     154.9527     309.4138      1.470     3.40     839.6374     54.52295     341.1569        18     1.293     0.804 -50.08   0
        26    388.6176    988.9532 307.7445596  +6.2768769     590.5997     830.6907     1085.558     77.04539     154.6454     309.0754      1.562     2.96     839.5494     54.52295     93.33533         6     0.825     0.686  83.47   0
        27    914.7488    982.6052 307.5263457  +6.2971167     42975.55     68848.46     73403.13     76.92182     154.5839     308.9831      1.738     3.33     833.6332     54.52295     5250.574        79     1.581     1.382 -50.48   0
        28    320.6697    984.4698 307.7729186  +6.2764461     659.0604     903.6767      732.052      77.5377     154.8298     309.2908      1.630     4.49     839.3008     54.52295      97.8974         7     0.885     0.648 -73.21   0
        29    222.0259    980.7590 307.8139945  +6.2746628     1826.358     2713.768     2710.538     77.16876     154.5223      309.137      1.508     3.64     837.6674     54.52295     239.3256        19     1.245     0.940 -53.33   0
        30    621.0382    979.1002 307.6484017  +6.2887396      899.166     956.9631     596.7709      77.5377     154.5839     309.5367      1.299     4.09     838.6386     54.52295     139.9882         9     1.089     0.614 -67.25   0
        31    110.6085    979.8205 307.8602789  +6.2713016     602.4897     838.2356     863.1536     77.16876     154.4608     309.1062      1.313     3.84     836.9205     54.52295     126.3074         6     1.107     0.535 -20.76   0
        32    760.8060    974.3154 307.5905360  +6.2953939     6915.196     10643.58     11674.39     77.04539     154.3992      309.137      1.678     3.25     835.8777     54.52295      988.038        42     1.641     1.153 -66.95   0
        33    812.5665    976.4458 307.5689752  +6.2962453     2503.451     3497.389     3778.446     77.16876     154.7069     309.2293      1.533     3.20     834.5864     54.52295     320.7559        20     1.161     0.982 -49.98   0
        34    547.8659    973.6399 307.6789633  +6.2885423      1034.55     1652.011     2152.824      77.5377     154.6454     309.4138      1.595     3.91     839.2075     54.52295     142.8116        11     1.057     0.799 -23.88   0
        35    230.2470    973.2095 307.8108364  +6.2780564     1677.703     2272.643     2683.961     77.04539     154.6454     308.9831      1.434     3.23     837.6222     54.52295      232.025        16     1.166     0.824 -68.81   0
        36    194.2577    972.7097 307.8257937  +6.2770524     896.1945     1536.125     1699.051     77.41492     154.7069     309.4445      1.873     6.71       837.36     54.52295     131.6439        13     1.320     1.044   1.97   0
        37     55.1611    971.2442 307.8835864  +6.2729756     2789.729     4388.329     4198.169     77.29194     154.7069     309.2293      1.626     3.46     836.5455     54.52295     370.2853        25     1.475     0.968 -54.23   0
        38    949.0840    969.4088 307.5125328  +6.3037124     6542.569     10859.24     11195.73     77.16876     154.3992     309.1678      1.777     3.58     832.1355     54.52295     843.7253        41     1.499     1.280 -21.76   0
        39    204.9955    965.4219 307.8215820  +6.2804227     703.2662     1223.694     920.9619     77.16876     154.4608     309.1062      1.804     3.81     837.2567     54.52295     116.7254         7     0.948     0.572 -53.67   0
        40    631.1107    963.7920 307.6447345  +6.2953979     705.1604     1181.016     1223.859     77.04539     154.3992     309.0446      1.468     5.08      838.154     54.52295     107.2191         8     1.105     0.730 -68.92   0
        41    922.8104    961.0253 307.5237220  +6.3062967     831.6205     1726.235     1956.981     77.16876     154.5223     309.1985      2.045     2.93      832.798     54.52295     333.9401        18     1.173     1.036 -60.32   0
        42    782.3987    957.4307 307.5821381  +6.3030882     1482.482      1894.95     2054.853     76.92182     154.5223      309.137      1.512     3.96     835.0673     54.52295     212.1689        16     1.253     0.875 -86.91   0
        43    643.5119    956.9142 307.6398171  +6.2986532     4933.957     7163.722     7615.896     77.29194     154.9527     309.4445      1.527     3.12     837.7535     54.52295     685.2338        25     1.255     0.991 -48.68   0
        44    255.7361    957.1259 307.8007975  +6.2855543     4804.507      6847.24     7265.142     77.66029     154.7069     309.2908      1.536     3.19     837.8409     54.52295      687.562        27     1.315     0.986 -37.02   0
        45    993.1081    956.5710 307.4946850  +6.3104830     690.8213     1251.678     1712.625     77.66029     154.4608     309.2293      2.032     5.02      830.264     54.52295     108.4419         7     1.291     0.553 -70.32   0
        46     24.2160    954.5596 307.8969966  +6.2788221     2181.467     3259.261     3286.816     77.04539     154.5223     309.1062      1.577     3.32     836.0609     54.52295     287.9305        18     1.208     0.873 -38.17   0
        47    466.0763    955.1072 307.7135426  +6.2934517      1244.59     1783.747     1763.195     77.29194     154.8913     309.3216      1.525     2.98     838.9533     54.52295     209.9934        10     0.900     0.732 -10.53   0
        48    875.4637    953.5077 307.5436313  +6.3078191     1036.186      1584.62     1777.339      77.5377     154.8913     309.3831      1.716     3.36     833.7807     54.52295     130.2973        12     0.914     0.879 -82.19   0
        49    967.3402    951.2416 307.5055619  +6.3118235     756.7841     992.1221     1070.541      77.5377     154.7069     309.3831      1.453     3.77     831.0692     54.52295     101.3617         7     0.844     0.615 -58.34   0
        50    947.4106    950.5859 307.5138583  +6.3114288     675.5686     728.0796     871.1479     77.16876     154.4608     309.2293      1.355     4.99     831.7211     54.52295     90.40503         8     0.975     0.723 -40.11   0
        51    291.6229    950.7392 307.7861147  +6.2893976     1000.722      1342.08      1825.23     77.16876     154.6454     309.2293      1.430     3.37     838.4283     54.52295     172.1662         9     1.031     0.621 -42.97   0
        52    999.6877    949.1467 307.4922019  +6.3137682      888.954     1761.314     2045.802      77.5377     154.5839     309.4445      2.506     6.76     829.9855     54.52295     122.6289        13     1.464     0.876 -60.56   0
        53    568.1065    949.5000 307.6713722  +6.2991883      1848.46      2481.01     2181.742      77.5377      155.198     309.2293      1.446     3.20     838.6022     54.52295      264.614        17     1.094     0.933 -46.59   0
        54    607.1310    946.0640 307.6552860  +6.3019147     1217.642     1602.278     1265.317      77.5377     154.7684     309.3523      1.371     2.89     838.1956     54.52295     194.2315        10     0.884     0.737 -79.92   0
        55     57.0024    946.4382 307.8836605  +6.2832799     884.6543     1294.382     2158.186     76.67409     154.4608     309.1062      1.682     4.57     835.8985     54.52295     117.4402        10     1.069     0.767 -49.70   0
        56    287.2271    943.3878 307.7881875  +6.2922853      1703.02     2490.486     3365.411     77.16876     154.5223       309.26      1.605     3.36     838.2031     54.52295      236.038        15     1.143     0.857 -52.78   0
        57    555.3598    941.7717 307.6769242  +6.3019521     845.4976     971.3406     527.6318     77.16876     154.4608     309.1985      1.253     3.07     838.5676     54.52295     138.7999         7     0.874     0.563 -34.72   0
        58    753.9991    939.7214 307.5945234  +6.3094506      986.978     1500.168     1730.722     76.79806     154.1525     309.1062      1.683     5.18     835.5453     54.52295     127.1604        11     1.002     0.977 -82.39   0
        59    129.7386    938.8203 307.8537224  +6.2888743     539.0142     967.9743     1094.103     77.16876     154.7069     309.2293      1.735     4.58     836.2541     54.52295     88.61896         6     1.004     0.593 -25.64   0
        60    891.8636    936.2036 307.5374026  +6.3155123     7077.168     11057.27     11517.44     76.92182     154.4608     309.1062      1.651     3.25     832.9838     54.52295     923.8962        35     1.402     1.142 -51.01   0
        61    427.5549    933.2690 307.7302705  +6.3011763     2319.724     3239.199     3599.955      77.5377     154.6454     309.3216      1.532     2.95     838.6395     54.52295     348.1242        16     1.125     0.868 -59.30   0
        62    329.3247    931.6364 307.7711068  +6.2985520     10597.37     15063.81     16237.95     77.41492     154.7684     309.3523      1.538     2.97     838.0474     54.52295     1535.393        34     1.320     1.054 -52.73   0
        63    249.4695    930.5873 307.8042945  +6.2963014     7707.239     11077.59     11289.92     77.04539     154.5223     309.1985      1.551     3.00     837.1307     54.52295     1082.877        35     1.442     1.018 -50.79   0
        64    577.3730    925.2476 307.6683407  +6.3095129     1402.553     1812.955     1381.267     77.16876     154.7684       309.26      1.323     2.87     838.0189     54.52295      236.918        12     1.069     0.676 -48.16   0
        65    761.9065    924.8419 307.5917400  +6.3158591      708.127     1267.318     1499.223     77.66029     154.6454     309.4445      1.591     3.96     835.1285     54.52295     111.5774         6     0.973     0.462 -37.04   0
        66    907.3997    921.5809 307.5314425  +6.3220692     1089.971     1675.525     1819.046     77.16876     154.2759     309.0139      1.668     2.99     832.2119     54.52295     168.0439        10     0.839     0.810  22.39   0
        67    863.2863    920.6463 307.5497892  +6.3209813     674.2606     1202.155     1232.516      77.5377     154.5839     309.3216      1.833     4.10     833.6224     54.52295     97.71545         6     0.716     0.671  75.73   0
        68    139.7264    921.0151 307.8501776  +6.2965622     601.7354     690.2331     306.6915     77.04539     154.4608     309.2293      1.272     4.97     836.0787     54.52295     97.63446         8     1.047     0.668  55.56   0
        69    211.5748    920.2546 307.8203753  +6.2992935     672.4595     554.3152     917.8027     77.16876     154.7684     309.1678      1.364     5.37     836.5318     54.52295     90.20312         9     1.064     0.764 -11.64   0
        70    974.7502    917.4360 307.5036179  +6.3260298      773.286     1273.774       815.85     77.41492     154.7069       309.26      1.795     5.36     830.1771     54.52295     107.2289         9     1.092     0.742 -44.05   0
        71    836.7917    915.5732 307.5609596  +6.3221905     626.7206     746.2658     644.8309     77.16876     154.5223     309.1678      1.305     4.40     833.8195     54.52295     97.38959         7     0.912     0.604  75.19   0
        72    743.8214    914.4876 307.5995963  +6.3195295     1807.151     2667.399     3185.865      77.5377     154.4608     309.1985      1.538     3.68     835.2377     54.52295     235.6766        16     1.120     0.991 -36.12   0
        73    567.9077    914.5019 307.6726320  +6.3136327     641.6872     623.8457     296.1277      77.5377      155.198       309.26      1.160     2.33     837.8049     54.52295     122.8927         6     0.745     0.495  -7.38   0
        74    975.1124    910.2267 307.5037091  +6.3290188     1210.168     1787.693     2149.499     77.66029     154.4608     309.2293      1.642     4.57     830.0022     54.52295     151.3519        16     1.273     0.976 -65.83   0
        75    608.1021    911.0269 307.6560609  +6.3164145     872.7974     1206.823     744.0795     77.66029     154.4608     309.2908      1.459     5.39     837.2705     54.52295     144.4498        10     1.119     0.812 -69.60   0
        76    619.6265    910.5729 307.6512915  +6.3169881     895.6829     1109.975        791.4     77.04539     154.5223     309.1678      1.408     3.72     837.0452     54.52295     132.6968        10     1.037     0.740 -48.33   0
        77    529.0451    910.0919 307.6889152  +6.3141509     1290.944     1827.915      1877.66      77.5377     154.6454     309.4445      1.445     3.17     837.9826     54.52295     186.5706        13     1.031     0.820 -79.84   0
        78    662.3744    907.8354 307.6336353  +6.3195501     2786.707     4389.872     4729.821     77.16876     154.5223     309.1062      1.675     4.46     836.1695     54.52295     374.8022        23     1.278     1.031 -77.18   0
        79   1013.7209    906.6860 307.4877974  +6.3317694       507.63     652.8989     642.2747     77.41492      155.014     309.4138      1.366     5.40     828.7166     54.52295     77.22162         7     1.141     0.720  38.39   0
        80    953.1151    905.6217 307.5129966  +6.3301859     696.4918     1078.397     1116.367     77.41492     154.3992       309.26      1.679     5.52     830.5935     54.52295     83.43787         8     1.100     0.780  82.27   0
        81     59.1466    903.5430 307.8842205  +6.3010632     3222.651      4901.26     5159.775     77.66029     154.7069     309.3216      1.654     3.31     834.7324     54.52295     449.7048        25     1.388     0.937 -56.51   0
        82    823.5774    903.9429 307.5668363  +6.3265511     831.7635     1522.389     1391.264     77.16876     154.7069      309.137      1.912     5.51     833.7919     54.52295     107.0885         9     1.076     0.796 -56.05   0
        83    202.5257    902.7211 307.8247240  +6.3062288     2326.618     3211.276     2699.792     77.78268     154.9527     309.3831      1.490     3.24     836.4208     54.52295      300.698        16     1.120     0.838 -58.13   0
        84    940.3389    902.5506 307.5184041  +6.3310274     736.0273     1327.391     929.8675      77.5377     154.6454     309.3831      1.760     4.90     830.9664     54.52295     102.4156         9     1.354     0.502 -55.63   0
        85     76.4192    903.3196 307.8770574  +6.3017372     2157.456      3072.73     3440.905     77.16876     154.3992       309.26      1.564     2.92     834.9275     54.52295     325.5344        20     1.125     1.032 -56.17   0
        86    236.4027    899.4373 307.8107704  +6.3087240     886.8937     1076.838     856.7615     76.67409     154.5223      309.137      1.274     3.48     836.7706     54.52295     143.4564         8     0.981     0.647 -55.85   0
        87    657.0040    896.8424 307.6362345  +6.3239094     7536.799     11012.15     11521.15     76.92182     154.3992     309.0446      1.515     3.12      836.045     54.52295     1067.341        34     1.388     1.041 -45.33   0
        88    341.3562    898.6459 307.7672241  +6.3125781     998.7789     1466.643     1671.772      77.5377     154.7069       309.26      1.618     5.26     837.7296     54.52295     136.4081        12     1.265     0.758 -43.74   0
        89    794.2495    897.6445 307.5792245  +6.3281712     688.2147     1006.477     596.9703      77.5377     154.5839     309.3216      1.621     4.57     834.1752     54.52295      95.1626         7     0.852     0.697  68.64   0
        90     17.0886    894.9694 307.9019707  +6.3031863     1272.366     1791.362     1936.403     77.66029     154.5223       309.26      1.408     4.67     833.7914     54.52295     190.6909        14     1.198     1.010 -23.91   0
        91    894.8764    893.1871 307.5375940  +6.3333752     2808.214     4104.265      4477.09     77.16876     154.3375      309.137      1.563     3.16     832.1238     54.52295     402.8996        22     1.167     1.039 -39.92   0
        92     30.4687    893.5147 307.8964652  +6.3042377     1199.746     1684.705     1829.755     77.66029     154.9527     309.3523      1.534     4.55     833.9612     54.52295     143.1638        16     1.203     0.968 -13.69   0
        93    340.0560    889.9194 307.7680580  +6.3161376     17775.63     25086.36      26415.7     77.66029     154.7069     309.3523      1.477     2.88     837.6534     54.52295     2809.865        45     1.393     1.087 -42.96   0
        94     74.6645    890.8988 307.8782056  +6.3068066     1419.529     2008.557      1667.15      77.5377     154.7684     309.3523      1.482     3.42     834.6336     54.52295     214.9761        13     1.080     0.808 -40.62   0
        95    210.9905    889.2069 307.8216659  +6.3120935     1380.959     1957.317     1592.077     77.04539     154.5223     309.1678      1.465     3.82     836.4353     54.52295     198.0436        14     1.219     0.765 -51.70   0
        96    390.6606    888.9175 307.7470821  +6.3182508     783.4474     998.4627     719.0632     77.66029     154.7069     309.3523      1.337     4.10     837.9178     54.52295     116.0353         7     0.888     0.539 -58.12   0
        97    103.3866    880.8400 307.8666215  +6.3119271     1790.018     2628.871     2500.669     77.04539     154.5223     309.0754      1.571     3.83     834.9573     54.52295     267.2457        16     1.188     0.928 -64.52   0
        98    669.5252    881.8582 307.6315394  +6.3305159     570.5031     969.4698     966.4954      77.5377     154.7069     309.2908      1.798     4.42     835.6012     54.52295     87.98291         7     0.897     0.620   9.39   0
        99    417.8314    880.7964 307.7360750  +6.3225162     1234.073     1581.101     1358.292     77.04539     154.5223     309.1062      1.325     4.17     837.9997     54.52295     171.9299        10     1.120     0.637 -39.85   0
       100    498.4131    877.4634 307.7027311  +6.3265962      801.286     934.5773     996.3202     77.04539     154.5223      309.137      1.205     3.06     837.6705     54.52295     139.9245         8     1.014     0.492 -88.14   0
       101    671.3807    876.9542 307.6309338  +6.3326030     952.4832      1427.06     1802.703     77.16876     154.5839      309.137      1.570     4.52     835.5107     54.52295     140.2303         9     1.102     0.650 -30.58   0
       102    885.1459    874.8965 307.5422474  +6.3406026     1937.067      2920.81     3645.243     77.41492     154.7069     309.5675      1.607     3.37     832.0276     54.52295     281.2041        17     1.193     0.881 -36.25   0
       103     86.7084    874.2142 307.8737695  +6.3141012     2713.983     4060.991     4582.121     77.29194     154.4608     309.1062      1.616     3.24     834.5222     54.52295     402.8585        22     1.219     1.036 -42.14   0
       104    855.7668    874.3531 307.5544640  +6.3398452     2050.298     2892.937     3206.503     77.29194     154.7069       309.26      1.531     3.37     832.6188     54.52295     274.8759        17     1.071     1.024 -86.16   0
       105    819.1516    873.7275 307.5696878  +6.3388796     3102.602     4481.044     4637.785      77.5377     154.7684     309.3523      1.501     3.22      833.433     54.52295     472.2164        22     1.221     0.989 -53.64   0
       106    334.9821    872.4131 307.7707548  +6.3231956     781.2164      1034.99     1162.046     77.29194     154.3992     309.2293      1.410     4.39     837.5013     54.52295     135.4313         8     1.210     0.559 -57.28   0
       107    555.1641    865.1595 307.6795828  +6.3335795     366577.2     517834.4     544064.2     77.29194     154.7069     309.1678      1.496     3.01     836.5205     54.52295     54997.71       182     1.602     1.335 -51.67   4
       108    643.0686    868.3137 307.6429792  +6.3352226     1219.865     1539.351     1378.253     77.66029     154.9527     309.3523      1.331     4.06     835.5724     54.52295     176.7169        11     1.155     0.628 -54.03   0
       109    399.3946    867.6996 307.7441709  +6.3273050     8284.946     11756.47     11308.77     77.29194     154.3375     308.9831      1.491     2.99     837.7325     54.52295     1239.494        34     1.338     1.045 -42.87   0
       110    342.5972    866.0918 307.7678063  +6.3260615     13567.46     19454.33     20343.49     77.04539     154.3992     309.0754      1.515     3.02     837.4512     54.52295     1980.887        42     1.457     1.073 -52.44   0
       111    660.9685    862.4565 307.6357441  +6.3382406     3830.715     5603.138     5633.756     77.41492     154.7069       309.26      1.521     3.13     835.3166     54.52295     543.2352        24     1.285     0.949 -49.50   0
       112    893.4988    861.4520 307.5392301  +6.3464332     5534.059      8073.45     9411.141     77.41492     154.7069     309.5367      1.631     3.01     831.5845     54.52295     710.6839        31     1.271     1.101 -46.23   0
       113    732.6006    859.0308 307.6061174  +6.3420530     857.1544     1240.678     1294.984     76.92182     154.5223      309.137      1.606     4.05     834.1655     54.52295     156.1547        11     1.110     0.832  21.28   0
       114    635.8749    856.5209 307.6463625  +6.3398510     3812.713     5186.075     5121.771     77.78268     154.9527     309.3831      1.458     2.98      835.343     54.52295     556.9726        24     1.318     0.920 -52.07   0
       115    824.2937    855.8910 307.5681513  +6.3464165     1701.604     2616.167     2388.149      77.5377      155.198     309.3216      1.641     3.76     832.9846     54.52295     228.4732        17     1.130     0.991 -56.00   0
       116    626.1404    855.5299 307.6504375  +6.3399342     1107.593     1480.638     1560.315     77.66029     154.7069     309.3523      1.540     3.92     835.3729     54.52295     160.3475        13     1.165     0.773 -35.50   3
       117    628.7733    850.9742 307.6494976  +6.3419035     2377.061     3423.992     3955.967     77.04539     154.5223     309.1678      1.520     3.37     835.2258     54.52295     325.8103        20     1.279     0.887 -45.60   3
       118    449.1496    872.1446 307.7233637  +6.3271397     646.1205     1036.182     1591.469      77.5377     154.7069     309.3523      1.706     3.82     837.8761     54.52295     121.1419         6     0.950     0.471 -34.24   0
       119    951.1584    854.2353 307.5155310  +6.3513390     813.2513     1190.971     1256.142     77.29194     154.7069     309.1678      1.615     4.07     829.7151     54.52295     113.7118         8     0.817     0.682 -42.25   0
       120    912.6544    849.5626 307.5316751  +6.3519825     2998.256     5477.181     5398.121     77.41492     154.7069     309.3523      1.889     7.89     830.8687     54.52295     879.6814        24     1.620     1.074  25.00   0
       121    322.5698    849.8317 307.7766696  +6.3321025     1109.279     1621.344      1676.22     77.04539     154.4608     309.0754      1.569     4.48     837.0506     54.52295     151.5725        13     1.251     0.757 -64.86   0
       122    370.4793    845.0552 307.7569393  +6.3356841     2976.981     3992.317      4342.61     77.66029     154.7069     309.3523      1.433     2.85     836.7703     54.52295     430.5461        17     1.092     0.827 -62.12   0
       123    339.2343    836.7782 307.7701909  +6.3380522     530.8031       533.03     362.2227     77.04539     154.5223     309.0754      1.281     3.15     836.5642     54.52295     89.91937         5     0.820     0.635 -54.85   0
       124    506.7307    834.8027 307.7007138  +6.3444902     3263.405     4681.328     4908.269     76.92182     154.3375      309.137      1.518     3.18      835.978     54.52295     429.1166        23     1.314     0.940 -42.87   0
       125    851.5278    833.9518 307.5575794  +6.3563860     1107.717     1418.538     1512.728      77.5377     154.7684     309.3523      1.442     3.78     831.9066     54.52295     161.7705        11     1.109     0.735 -57.81   0
       126    571.8687    832.4333 307.6737480  +6.3476525      889.468      1108.86     1028.898     77.41492     154.7069     309.3523      1.425     5.24     835.2092     54.52295     111.5715        11     1.091     0.710 -70.72   0
       127    553.5437    830.9265 307.6814074  +6.3476604     6645.659     9200.768     9760.981     77.41492     154.5839     309.2908      1.484     3.09      835.378     54.52295     932.9475        31     1.339     0.998 -47.23   0
       128    265.2895    831.5831 307.8010671  +6.3377123     746.9557     1042.899     750.9032     77.29194     154.4608     309.2293      1.646     5.47     836.5378     54.52295     89.96423         9     0.936     0.903  54.52   0
       129    560.3010    830.4336 307.6786183  +6.3480905     1380.195     1900.197     2132.263      77.5377     154.5839     309.4753      1.476     3.97     835.2776     54.52295     218.7993        16     1.243     0.835 -31.89   1
       130    471.3370    830.1367 307.7155663  +6.3452295     1653.984     2246.851     2308.538      77.5377     154.7069     309.3523      1.433     3.83     836.0028     54.52295     224.6858        15     1.212     0.798 -52.33   0
       131    889.2043    829.2778 307.5420921  +6.3595750     1442.491      2041.45     1858.071     77.16876     154.2142      309.137      1.451     3.08     830.8874     54.52295     202.8119        15     1.077     0.851 -47.35   0
       132    112.9460    829.1266 307.8644003  +6.3336012      1497.54     1977.825     1846.206     77.41492     154.5839     309.3216      1.364     3.23     833.9969     54.52295      230.537        14     1.121     0.776 -57.69   0
       133    689.4155    828.1375 307.6250860  +6.3533639     684.7866     1096.172     1391.638     77.04539     154.6454      309.137      2.280     3.99     834.2923     54.52295     124.3191         6     0.944     0.481 -49.67   0
       134    524.2653    824.8598 307.6937681  +6.3491837     21371.64     30217.99      30923.3     77.66029     154.6454     309.3523      1.484     2.85     835.4099     54.52295     3291.948        47     1.402     1.084 -45.46   0
       135    365.4463    826.2040 307.7596644  +6.3432988     842.4755     1017.817     552.1694     76.92182     154.4608     309.0139      1.384     3.64     836.0414     54.52295     128.8196        11     1.054     0.792 -30.40   0
       136    937.9069    823.2133 307.5220730  +6.3637061     4112.415     6082.334     5810.742     77.29194     154.4608      309.137      1.513     3.07     829.3152     54.52295      625.293        25     1.240     0.998 -49.68   0
       137    170.7808    824.3889 307.8405485  +6.3375040      589.047     694.4116    -11.49261     77.16876     154.4608     309.2293      1.215     5.16     835.0854     54.52295     108.2923         8     1.212     0.620 -32.75   0
       138     57.6513    820.8354 307.8876375  +6.3351624     563.1803     610.4122    -71.39046     77.41492     154.7069     309.2293      1.277     4.65     833.0657     54.52295     97.46967         7     0.969     0.686  37.70   0
       139    692.1487    817.2589 307.6243167  +6.3579473     672.2621     1069.948     1438.561      77.5377     154.7069     309.3216      1.838     3.45     834.0376     54.52295     89.81451         5     0.996     0.346 -43.32   0
       140     34.6228    815.2029 307.8973889  +6.3367121     1557.386     2471.104     2603.582     77.16876     154.3992      309.137      1.664     3.55       832.84     54.52295     235.1539        18     1.178     0.996 -18.71   0
       141    578.9423    814.9946 307.6713976  +6.3550902     507.8589      789.337     381.8658     77.04539     154.5839     309.0446      1.362     3.73     834.5974     54.52295     92.67828         5     1.025     0.389 -32.00   0
       142    316.8596    813.5513 307.7802639  +6.3468910     3698.077     5264.054      5468.11      77.5377     154.7069     309.3831      1.553     3.06     836.2094     54.52295     507.5195        21     1.240     0.871 -45.83   0
       143    782.4248    809.4407 307.5870949  +6.3641965     60373.93     84326.09     88728.51     77.16876     154.5839     309.1062      1.513     2.90     832.6816     54.52295     8326.355        77     1.453     1.213 -45.86   0
       144     16.7392    811.5430 307.9049374  +6.3376206     2438.822     3494.084     3610.138     77.66029     154.6454     309.3523      1.581     3.47     832.7325     54.52295     287.4678        20     1.224     0.964 -46.68   0
       145    721.0522    811.4638 307.6125101  +6.3613077     655.5009     941.2795     994.0895      77.5377     154.6454     309.2908      1.415     4.66     833.5894     54.52295      118.076         7     0.883     0.790 -50.61   0
       146    239.6223    807.2642 307.8125446  +6.3468906     5629.079     8480.396     10634.75     77.16876     154.7069     309.1985      1.734     3.05     835.6061     54.52295     802.5535        32     1.303     1.159 -39.57   0
       147    426.2313    807.9662 307.7350411  +6.3528702     979.1343     1517.916     1437.838     77.04539     154.4608     309.1062      1.575     5.33     835.1759     54.52295     135.2544        12     1.027     1.001  58.48   0
       148    710.6254    804.0730 307.6170879  +6.3640105     23302.26     33498.25     36309.23     77.16876     154.5839       309.26      1.516     2.88     833.5821     54.52295      3476.11        51     1.439     1.125 -48.59   3
       149    704.3375    800.5283 307.6198178  +6.3652636     96860.79     134591.4     141863.8     77.66029     154.7069     309.3831      1.520     2.91     833.6019     54.52295     13875.34        84     1.478     1.211 -49.29   3
       150    907.6553    804.6420 307.5352569  +6.3703641     9178.322     13131.83     14038.84     77.41492     154.6454     309.3523      1.548     2.97     829.6771     54.52295     1235.665        34     1.339     1.068 -51.81   0
       151    349.2516    801.3607 307.7672259  +6.3530127     22527.76     31946.65     33292.35     77.41492     154.7069     309.3216      1.518     3.02     835.2255     54.52295     3167.925        50     1.409     1.115 -50.11   0
       152    411.1425    799.1688 307.7416024  +6.3559962     23979.38     34081.95     36002.36     77.41492     154.7069       309.26      1.494     3.00     834.8493     54.52295     3615.133        54     1.425     1.168 -46.11   0
       153    398.5034    801.4460 307.7467735  +6.3546316     1642.534     2444.369      2326.06      77.5377     154.6454     309.4753      1.558     4.46     834.9835     54.52295     244.3498        14     1.196     0.838 -45.82   0
       154    637.9648    800.8243 307.6473672  +6.3629189      933.595     1259.514     1489.016     77.04539     154.5223     309.1062      1.400     3.34     833.9206     54.52295     138.4987         8     0.831     0.656 -45.80   0
       155    239.2184    785.6486 307.8134418  +6.3558021     759274.1      1713268      1904213     77.04539     154.7684      309.137      2.244     4.72     834.9433     54.52295     63782.68       624     2.446     2.171 -58.89   4
       156    904.5762    796.1633 307.5368197  +6.3737622     7211.471     10437.36     10913.42     77.16876     154.4608     309.1062      1.534     3.02       829.53     54.52295     998.4418        33     1.326     1.124 -42.08   0
       157    877.0810    797.2393 307.5482005  +6.3723992     869.0809     1132.386     1251.463      77.5377     154.7684       309.26      1.366     2.54     830.4922     54.52295     141.0795         7     0.685     0.672 -57.40   0
       158    645.1592    795.1829 307.6445696  +6.3654893     6995.889     10055.15     10488.44     77.04539     154.5223      309.137      1.487     2.96      833.631     54.52295     1018.363        31     1.339     0.993 -46.29   0
       159    433.8099    793.1797 307.7323925  +6.3592300     1811.781     2752.926     3096.222     77.16876     154.3992     309.1678      1.642     3.61      834.418     54.52295     256.2198        15     1.250     0.779 -42.00   0
       160    159.1081    792.4011 307.8464753  +6.3503189     728.3674     1115.095      561.479     76.92182     154.3375     309.0754      1.417     3.52     834.2847     54.52295     140.7775         7     0.944     0.608 -48.38   0
       161    940.3743    788.0563 307.5222269  +6.3783055     2120.763     2170.153     2103.736     77.16876     154.7069      309.137      0.632     0.93     828.3345     54.52295     1107.672         5     0.495     0.354  17.62   0
       162    598.3628    787.1168 307.6642717  +6.3672521     1096.391     1694.279     1833.763      77.5377     154.6454       309.26      1.613     4.82     833.4196     54.52295     136.9679        13     1.107     0.887 -56.26   0
       163    873.0699    787.1739 307.5502037  +6.3764214       667.97     772.6569     540.8712     77.16876     154.5839       309.26      1.269     2.95     830.2992     54.52295     118.0443         5     0.771     0.502 -59.82   0
       164    680.2026    785.5021 307.6303441  +6.3706602     2495.536     3432.338     3610.986     77.29194     154.4608     309.0139      1.500     3.10     833.0472     54.52295      366.624        21     1.403     0.808 -49.02   0
       165    149.3191    786.2378 307.8507478  +6.3525343     1106.092      1572.02     1387.865      77.5377     154.7684       309.26      1.476     3.19     833.8706     54.52295     177.4385        12     1.101     0.723 -43.59   0
       166    124.8254    785.8636 307.8609300  +6.3518643     1063.801     1620.685     1427.317     77.16876     154.7069       309.26      1.624     3.54      833.331     54.52295     164.2968        13     1.104     0.789 -19.21   0
       167    414.0602    781.8476 307.7409746  +6.3632462     58424.72     82659.67     87183.69      77.5377     154.7069     309.3831      1.499     2.92     834.0444     54.52295     9091.913        74     1.489     1.174 -46.17   0
       168    956.7408    783.6064 307.5155801  +6.3806894      782.494     892.7875     895.0629     76.92182     154.5839     309.0754      1.331     5.38     827.9321     54.52295      102.314         8     1.029     0.793 -67.71   0
       169    531.7756    780.8678 307.6921303  +6.3676003     7738.815     10859.99     10740.71     77.16876     154.5839     309.2293      1.480     2.98     833.4656     54.52295      1199.91        31     1.315     0.996 -50.07   0
       170    448.6077    779.4790 307.7267098  +6.3653838     4868.016     6904.734     7849.191     77.16876     154.2142      309.137      1.565     3.13     833.6479     54.52295     683.4542        28     1.370     0.976 -52.56   2
       171    445.0505    772.9281 307.7284075  +6.3679693       2517.5     3515.308     4385.911      77.5377     154.7069     309.3523      1.455     2.76     833.3962     54.52295     419.2111        22     1.260     0.967 -29.09   2
       172    777.0027    777.4943 307.5904188  +6.3772063     12564.16     17733.07     18277.69     77.16876     154.3992     309.0446      1.491     2.82     831.5372     54.52295     1851.714        41     1.349     1.126 -53.89   0
       173    948.2970    798.1743 307.5185980  +6.3743922     2183.924     3213.718     3401.394     77.66029     154.4608     309.2293      1.617     3.35     828.3543     54.52295     297.4943        17     1.233     0.807 -50.51   0
       174      6.5689    773.6548 307.9104417  +6.3529216     1130.821     1686.534      1408.19     77.41492     154.7684     298.4593      1.468     3.51     832.4935     54.52295     189.0742        12     1.116     0.701 -32.64  16
       175    798.5872    771.9068 307.5816438  +6.3802354     1277.281     1747.816     1609.517     77.29194     154.4608      309.137      1.551     3.39     831.0023     54.52295     206.3136        12     1.014     0.819 -43.76   0
       176    134.7630    769.4880 307.8573573  +6.3589603     12787.75     18136.02     19117.17      77.5377     154.5839     309.3216      1.535     2.93     833.1467     54.52295     1835.068        41     1.407     1.072 -50.59   0
       177    142.9550    769.7925 307.8539458  +6.3591103     3237.819     4724.821     5139.934     77.04539     154.5223     309.0139      1.488     3.00     833.3107     54.52295     493.9001        26     1.319     0.978 -46.48   0
       178    922.5335    766.1987 307.5303679  +6.3867351     6797.729     9660.354     10145.66     76.92182     154.3375     309.1062      1.495     3.00     828.2286     54.52295     902.4459        30     1.337     0.997 -35.89   0
       179    127.0681    766.8436 307.8606416  +6.3597931     3124.416     4814.751     5565.158      77.5377     154.6454     309.3523      1.696     3.61      832.966     54.52295     440.6422        26     1.266     1.182 -33.10   1
       180    971.8202    766.2503 307.5099001  +6.3883596     1538.661     1945.198     2521.798     77.04539     154.7684     309.1985      1.400     2.92     827.4241     54.52295     235.8544        15     1.083     0.809 -29.89   0
       181    677.7756    763.8437 307.6320798  +6.3795219     1844.189     2538.479     2653.455     77.04539     154.6454     309.1985      1.423     2.86     831.8845     54.52295     309.9614        13     0.950     0.837 -37.23   0
       182    564.7882    762.9717 307.6790249  +6.3760966     2664.562     3773.721     3361.375     77.04539     154.5223     309.2293      1.460     3.04     832.5176     54.52295      422.941        20     1.197     0.914 -47.48   0
       183    412.8472    762.3214 307.7421362  +6.3712680     1239.124     1795.046     2162.298      77.5377     154.7684     309.2908      1.600     4.54     833.1171     54.52295     166.3279        13     1.205     0.724 -85.68   0
       184    127.0606    760.4121 307.8608621  +6.3624484     2108.632     2948.361     3337.145     76.92182     154.5839     309.0446      1.461     3.03     832.8149     54.52295     314.1616        16     1.122     0.821 -29.34   0
       185    946.1388    757.6470 307.5208526  +6.3910546     3192.133     4728.805     5052.702     77.41492     154.6454     309.3831      1.555     3.29     827.6629     54.52295     403.6555        22     1.219     0.968 -55.21   0
       186    916.7955    758.1337 307.5330210  +6.3898736     3221.038     4528.073     4616.554     77.04539     154.4608      309.137      1.457     2.91     828.1984     54.52295     475.4229        19     1.133     0.952 -47.29   0
       187    977.0909    757.2734 307.5080123  +6.3922423     1796.125      2678.14     3002.774      77.5377     154.9527     309.3523      1.660     4.12     827.2488     54.52295     262.3847        18     1.329     0.965 -62.56   0
       188    669.1470    757.5641 307.6358738  +6.3818259     1637.778      2272.81     2293.171     77.41492     154.7069     309.3523      1.470     3.34     831.6276     54.52295     238.5554        14     1.077     0.809 -38.06   0
       189    816.5878    755.5086 307.5747196  +6.3876084     1077.768     1430.092     1226.366     77.29194     154.4608     309.1062      1.474     3.73     830.0981     54.52295     157.4018        12     1.056     0.786 -39.34   0
       190    241.6316    752.3531 307.8135637  +6.3696310     1929.553     2789.213     3988.751     77.16876     154.7069     309.2293      1.682     3.30     833.7764     54.52295     323.3804        16     1.232     0.783 -64.04   0
       191    891.2955    753.0037 307.5437818  +6.3911399     824.4621     929.8603     1109.906     77.29194     154.3992     309.0446      1.312     4.64     828.7331     54.52295      129.654         9     0.972     0.697 -69.32   0
       192    678.7144    749.5409 307.6321707  +6.3854592     698.7476     1199.895     1720.912      77.5377     154.7069     309.4138      1.790     4.61     831.1287     54.52295     93.15735         9     1.087     0.618 -29.53   2
       193    680.6190    744.7488 307.6315409  +6.3875017     1066.696     1820.113     1899.906     77.04539     154.7684     309.1062      1.678     4.35     830.8524     54.52295      172.696        11     1.186     0.766 -80.30   2
       194    934.3175    747.8435 307.5260900  +6.3947078     1017.227     1547.188      1716.24      77.5377     154.7069     309.2908      1.593     3.52     827.6071     54.52295     172.6919        12     1.112     0.765 -48.10   0
       195    261.9532    747.8044 307.8052794  +6.3721925     718.2868     988.3581      928.215     76.92182     154.4608     309.0139      1.484     3.79     833.7036     54.52295     144.4497         6     1.023     0.447 -26.74   0
       196    157.2780    747.1531 307.8487636  +6.3689401     757.3878     1006.703     817.5179      77.5377     154.7684     309.2908      1.275     4.30     832.8445     54.52295     125.8607         7     1.021     0.515 -68.14   0
       197    908.2459    746.6011 307.5369579  +6.3943500     1228.372     1507.892     1551.109     76.92182     154.3992     308.8907      1.278     3.21     828.1459     54.52295     190.2769        12     1.038     0.734 -52.37   0
       198    961.0826    745.4413 307.5150563  +6.3965935     2769.037     4046.518     4734.847      77.5377     154.7069       309.26      1.640     3.26      827.274     54.52295     355.1764        19     1.177     0.913 -32.63   0
       199    471.9580    740.0912 307.7183409  +6.3824309     816.2194     1103.679     1105.797      77.5377     154.7069     309.3831      1.474     5.46     831.6442     54.52295     106.5164        10     0.967     0.871  24.07   0
       200   1002.8835    738.7988 307.4979209  +6.4007318     1771.128     2561.469     2729.276     76.79806     154.2759     309.0446      1.535     3.54     826.8235     54.52295     247.5747        17     1.168     0.949 -22.96   0
       201    401.7879    739.5829 307.7474946  +6.3802855     674.3671      903.931     726.2739     77.29194     154.3992     309.2293      1.355     4.02     832.1869     54.52295      107.177         6     1.032     0.448 -55.71   0
       202    628.6694    738.8110 307.6533120  +6.3882136     812.3303     1375.034     1509.705     77.04539     154.5223     309.1678      1.753     3.51     831.1382     54.52295     131.1651         9     0.886     0.716 -25.52   0
       203    804.3641    737.2782 307.5804074  +6.3947273     1268.219     1830.635     2227.567     77.41492     154.7684     309.3216      1.522     3.74      829.469     54.52295     186.8997        13     1.168     0.779 -54.41   0
       204    890.3768    734.6608 307.5447785  +6.3986833     1650.053     2288.203     2615.507     77.16876     154.6454     309.2293      1.461     3.26     828.2523     54.52295     249.9467        14     0.981     0.956  85.78   0
       205    865.0530    729.7839 307.5554578  +6.3998508     812.9111     1205.354     1132.814     77.04539     154.7684     309.0446      1.610     3.93     828.6879     54.52295     122.0708         8     1.029     0.531 -51.14   0
       206    650.6385    729.4022 307.6445059  +6.3928345     793.2661     1103.232     1092.334     76.67409     154.4608     309.1062      1.446     3.87     830.5782     54.52295     113.3016         8     0.902     0.690 -55.62   0
       207    847.2819    726.0898 307.5629613  +6.4007821     1695.085     2527.996     2637.307     77.29194     154.8913     309.3831      1.589     3.50     828.7889     54.52295     233.3881        16     1.140     0.931 -40.97   0
       208    110.2639    723.2296 307.8690927  +6.3772353     1020.555      1983.08     2610.486     77.29194     154.7069       309.26      2.120     7.32     831.9207     54.52295     132.6694        20     1.764     1.096  83.71   0
       209     46.4678    724.7673 307.8955294  +6.3744515     2681.721     3854.183     3675.112     77.41492     154.7069     309.3216      1.544     3.18     831.7875     54.52295     407.7252        22     1.176     1.052 -56.99   0
       210    459.1152    724.0317 307.7242145  +6.3886310     458.7026     624.2549     819.8627      77.5377     154.5223     309.2293      1.405     3.55      831.354     54.52295     125.7678         5     1.489     0.244 -47.12   0
       211    865.3722    722.8047 307.5555594  +6.4027433     424.4911     664.3638     1056.183     77.04539     154.5223     309.1678      2.551     4.34     828.5316     54.52295     75.77454         5     1.124     0.478 -85.93   0
       212    659.1300    713.4440 307.6415163  +6.3997082     7028.041     9733.305     9925.335      77.5377     154.7069     309.3523      1.468     3.05     830.1031     54.52295     1039.337        32     1.337     0.987 -44.01   0
       213    606.0693    712.7571 307.6635727  +6.3982143      1681.78     2609.156     2719.981     77.41492     154.7069     309.3831      1.641     3.15     830.9012     54.52295     222.5493        16     1.121     0.839 -43.01   0
       214    527.4232    713.2943 307.6962120  +6.3953561     696.7217     868.3842     1124.663      77.5377     154.5223     309.1985      1.471     4.64     830.8411     54.52295     117.6494         8     0.987     0.620 -21.69   0
       215    516.8603    713.1094 307.7006044  +6.3950782     822.4462     1092.282     910.1719     77.41492     154.7684     309.3831      1.368     3.91     830.9144     54.52295     136.5689         8     0.917     0.681 -81.02   0
       216    122.0752    709.2155 307.8646622  +6.3834194     4079.878     5733.168     5566.841     77.04539     154.4608     309.1985      1.462     3.07     831.6942     54.52295     583.6789        24     1.276     0.947 -55.60   0
       217    996.1278    708.6016 307.5017380  +6.4129754     2662.505     3847.266     3791.511     77.04539     154.2759     309.1678      1.549     3.04     826.6302     54.52295     397.9456        20     1.236     0.904 -39.85   0
       218    632.9674    709.2846 307.6525201  +6.4005494     2362.463     3220.742     3373.409      77.5377     154.5223       309.26      1.433     2.87     830.4445     54.52295     386.9329        18     1.175     0.823 -45.26   0
       219    308.6931    709.6567 307.7871592  +6.3895149     833.7335     1460.844     1240.821     77.41492     154.7069      309.506      1.800     4.56     831.5095     54.52295      123.875         8     0.991     0.595 -25.92   0
       220    244.5402    708.7229 307.8138287  +6.3877437     791.6829     970.1062     1295.291     77.66029     154.7684     309.2908      1.255     2.97     831.7628     54.52295     135.6273         9     0.930     0.676 -53.46   0
       221    906.1686    705.3132 307.5392050  +6.4113291     3891.722     5533.647       5560.6     77.66029     154.5223       309.26      1.487     3.01     827.5049     54.52295     576.0881        26     1.387     0.965 -56.49   0
       222    775.9828    705.5456 307.5932582  +6.4068809     22120.53     31346.91     32911.32     77.04539     154.6454     309.0754      1.496     2.90     829.1445     54.52295     3388.261        50     1.401     1.129 -52.83   0
       223    475.1219    706.1271 307.7181710  +6.3965611     1258.173     1879.929     1691.655     77.78268     154.9527     309.3216      1.493     3.41      831.078     54.52295     204.5507        12     1.155     0.746 -38.87   0
       224    503.5665    705.3028 307.7063873  +6.3978557     941.2458     1239.682     678.4297      77.5377     154.5839     309.4445      1.258     3.83     830.8815     54.52295     166.9695         8     1.137     0.605 -56.15   0
       225    320.8720    705.2519 307.7822507  +6.3917430     710.5444     924.4951     577.6893     77.41492     154.7069     309.3523      1.385     4.21     831.1619     54.52295      106.259         8     1.040     0.534 -53.26   0
       226    277.6077    705.2323 307.8002160  +6.3902969     619.1191     591.8043     477.5442     77.04539     154.5839      309.137      1.034     3.42     831.4005     54.52295     98.94794         5     0.733     0.462 -73.96   0
       227    656.5856    698.3595 307.6430800  +6.4058516     7604.766     10795.57     11417.22     77.04539     154.5223     309.0754      1.491     2.75     829.8013     54.52295     1184.329        33     1.336     1.038 -43.87   0
       228    249.4708    699.0748 307.8121071  +6.3918933     6750.389     9459.667     9952.613     77.78268     154.8298     309.3216      1.504     2.99     831.2131     54.52295     918.2581        33     1.350     1.036 -42.42   0
       229    638.7727    699.1675 307.6504497  +6.4049213     1056.988     1451.836     1596.124     77.04539     154.4608      309.137      1.556     4.15     830.1419     54.52295     164.1762        11     1.060     0.893 -66.85   0
       230    352.1348    698.0258 307.7695130  +6.3957771     682.4483     1034.664     808.8158     77.16876     154.6454     309.2293      1.324     4.29     830.6469     54.52295     131.5463         7     1.238     0.423 -43.58   0
       231    916.2236    691.2446 307.5355013  +6.4174742     1333.176     1911.005     2015.605     77.04539     154.7069     309.1678      1.526     3.54     827.1984     54.52295     204.6706        16     1.155     0.936 -27.24   0
       232    728.2780    686.8314 307.6136966  +6.4130121     4044.109     6007.898     6724.109     77.41492     154.7069     309.2908      1.588     3.16     829.1859     54.52295     569.7173        28     1.223     1.129 -61.73   0
       233    994.5807    683.4142 307.5032244  +6.4233241     9580.542     13637.88     13712.42     77.29194     154.4608     309.2293      1.539     2.97      826.416     54.52295     1348.276        33     1.325     1.065 -40.82   0
       234    933.1183    683.9738 307.5287292  +6.4210408     2611.479     3841.524     3919.714     77.41492     154.5223     309.3216      1.535     3.06       826.95     54.52295      393.837        19     1.207     0.867 -39.15   0
       235    983.4321    683.8373 307.5078400  +6.4227773     693.6727     1069.793     578.9813     77.16876     154.4608     309.1062      1.402     4.19     826.5262     54.52295     117.9429         7     0.976     0.640 -67.11   0
       236    683.5649    687.3589 307.6322464  +6.4112974     1224.099     1726.748      2368.34     77.29194     154.7069      309.137      1.610     4.88     829.2391     54.52295     204.4853        10     1.150     0.623 -39.11   0
       237     13.7033    683.0921 307.9105434  +6.3905547     1864.171      3162.68     3730.542      77.5377      155.198     309.2908      1.812     4.82     830.4158     54.52295     264.8387        21     1.431     1.025 -17.53   0
       238    547.5093    681.2100 307.6889512  +6.4092776     662.6349     713.5363      670.593     77.29194     154.3992     309.1062      1.525     4.69     829.9186     54.52295     96.27881         8     1.283     0.486 -57.58   0
       239    430.3238    681.4309 307.7376051  +6.4052549     585.2843     652.0942     817.8112     77.41492     154.7684     309.2908      1.304     4.04     830.1465     54.52295     96.00238         5     0.783     0.726 -71.42   0
       240     71.9157    678.1113 307.8865409  +6.3945729     27553.06     39839.48     41889.91     77.29194     154.9527     309.4138      1.515     2.96     830.7971     54.52295     4145.937        55     1.451     1.150 -48.65   0
       241    533.1722    679.1386 307.6949744  +6.4096521     2210.967     3106.146      3309.09     77.16876     154.7684     309.2908      1.426     2.92      830.027     54.52295     319.3495        17     1.107     0.867 -56.75   0
       242    501.8644    676.4587 307.7080653  +6.4097086     1533.922     2299.874     2827.596     77.66029     154.6454     309.3523      1.685     3.67     830.4487     54.52295     229.2977        15     1.122     0.918 -20.73   0
       243    923.0885    675.1621 307.5331898  +6.4243443     1167.567     1464.812     1621.486      77.5377     154.5839     309.3523      1.345     4.47     826.9621     54.52295     158.7687         8     0.897     0.633 -43.95   0
       244    542.2153    672.9372 307.6914280  +6.4125160     1286.338     1834.832     1584.158     77.04539     154.6454      309.137      1.457     3.04     829.7429     54.52295     207.9512        11     1.003     0.733 -31.95   0
       245    717.9799    670.4427 307.6185237  +6.4194345     3856.229     5199.078     5173.496     77.04539     154.5839     309.1678      1.410     3.06     828.7906     54.52295     584.4665        21     1.177     0.867 -47.62   0
       246    739.8759    668.7510 307.6094878  +6.4208659     4396.687     5976.189     6061.069     77.41492     154.7684     309.3216      1.396     2.85     828.7076     54.52295     723.5618        22     1.166     0.891 -64.09   0
       247    571.4929    666.6509 307.6794818  +6.4160933     3612.846     4859.148     5073.221     77.41492     154.5839      309.506      1.420     2.84     829.7322     54.52295     538.5439        20     1.239     0.834 -55.35   0
       248    407.4544    667.2822 307.7475784  +6.4103292     1478.933     1891.204     2505.613      77.5377     154.7069     309.3831      1.473     3.12     829.5734     54.52295     216.1829        13     1.055     0.786 -38.19   0
       249   1012.8336    664.9621 307.4962626  +6.4315526     5246.582     7585.551     7436.881     77.29194     154.5223     309.1062      1.521     2.99     825.5656     54.52295     803.3483        27     1.313     1.008 -55.24   0
       250    315.6488    665.5778 307.7857579  +6.4079490     1577.058     2458.646     2636.322     77.16876     154.7684     309.2293      1.711     3.99     829.3299     54.52295     226.5192        18     1.300     0.906 -48.54   0
       251    232.0055    666.0460 307.8204743  +6.4049435     1941.371     2846.845     2757.319     76.92182     154.4608     308.9831      1.499     3.07     829.8042     54.52295     282.1876        17     1.150     0.870 -45.44   0
       252    978.2709    663.7755 307.5106556  +6.4308889     8581.407     12406.97     13137.78     77.16876     154.5839       309.26      1.516     2.82      825.941     54.52295     1350.119        37     1.338     1.104 -51.77   0
       253    698.0462    662.5409 307.6270670  +6.4220300     1059.845     1669.566     2046.122      77.5377     154.7069     309.4138      1.577     3.56     828.5931     54.52295     177.4785        10     1.079     0.669 -67.60   0
       254    532.3072    664.1474 307.6958383  +6.4158131     646.9562     739.9922     750.5394     77.41492     154.6454     309.5367      1.306     4.65     829.6934     54.52295     112.2828         5     0.812     0.757 -51.78   0
       255     89.5630    660.2448 307.8798173  +6.4025443     975.9883     1290.289     1354.934     77.29194     154.7069     309.2293      1.428     3.68     830.7181     54.52295     138.3399        11     1.045     0.713 -32.37   0
       256    423.5515    658.0855 307.7412039  +6.4146670     3068.925     4665.875     5166.759      77.5377     154.6454     309.3523      1.553     2.96     829.5803     54.52295     505.5572        26     1.379     0.985 -41.45   0
       257    136.6759    657.0103 307.8603638  +6.4054664     25953.08     37190.52     38978.71     77.16876     154.2759      309.137      1.512     2.96     830.5808     54.52295     3977.537        54     1.434     1.141 -51.08   0
       258    805.0598    657.9202 307.5827826  +6.4275188     1384.247     1771.985      2184.84     77.66029     154.7069     309.2908      1.383     3.10      827.767     54.52295      198.914        12     1.005     0.754 -24.45   0
       259    355.9994    652.0436 307.7694588  +6.4148931     698.9904     959.8644     1221.783     76.92182     154.3992     308.9523      1.815     3.45     828.8638     54.52295      149.088         7     0.972     0.553 -54.86   0
       260    598.1991    651.6100 307.6688978  +6.4231989     530.7183     741.0775     716.1607     77.04539     154.3992     309.1062      1.450     4.58     829.2334     54.52295     86.80872         6     0.967     0.615  74.71   0
       261    973.1883    646.7180 307.5133380  +6.4377625     7091.785     10994.18     12076.53     77.16876     154.4608     309.1678      1.677     3.08     825.0371     54.52295     989.0388        37     1.340     1.274 -72.10   0
       262     17.7415    645.8563 307.9101264  +6.4060652     1196.376     1940.666     2395.552     77.66029     154.7069     309.3523      1.646     5.22     830.2253     54.52295      173.813        15     1.498     0.754 -25.65   0
       263    566.6814    641.9416 307.6823113  +6.4261347     52644.25     73430.52      76751.9      77.5377     154.7069     309.3216      1.478     2.92     829.0126     54.52295     8073.622        67     1.428     1.148 -45.80   0
       264   1023.8655    641.9371 307.4924526  +6.4414282     655.6016     1206.625     1635.162     64.84336     119.9307      229.484      2.248     4.58     823.5494     54.52295     183.2451         9     1.799     0.331 -87.32  24
       265    931.6919    643.6683 307.5306730  +6.4376361     714.4141     948.6517     647.1384      77.5377     154.8298     309.3216      1.485     4.86     825.7934     54.52295     108.9081         8     0.989     0.732 -30.61   0
       266    209.9491    643.6415 307.8303895  +6.4134523      607.752     953.4385     1049.068      77.5377     154.7069     309.3216      1.663     4.34     829.4614     54.52295     88.57928         6     0.909     0.590 -87.81   0
       267    791.2004    641.7992 307.5890793  +6.4337119     639.7166     834.6682     550.4859     76.92182     154.2759     309.0139      1.312     3.95     827.4827     54.52295     96.37097         6     0.756     0.591 -43.77   0
       268    525.5709    642.2431 307.6993730  +6.4246317     811.7307      1083.13     734.1927     77.16876     154.7069     309.2293      1.466     2.82     829.1733     54.52295     175.5146        10     1.037     0.681   9.73   0
       269    424.2346    640.0081 307.7415295  +6.4221542     458.2747     639.3212     655.2889     77.04539     154.5223     309.1062      1.461     4.32     829.3062     54.52295     71.75409         5     1.047     0.508  51.91   0
       270    174.3833    638.4753 307.8453325  +6.4143887     2974.884     4355.902     4825.834     77.04539     154.4608     309.2293      1.582     3.37     829.7834     54.52295     457.6106        23     1.357     0.915 -65.15   0
       271    496.8979    638.8426 307.7113944  +6.4250740     668.7731       1085.8     1163.237      77.5377     154.5839     309.5367      1.598     4.26     829.0662     54.52295     93.63348         8     0.844     0.670 -43.24   0
       272    977.7752    638.0696 307.5117230  +6.4414868      630.679     768.8952      681.639     77.16876     154.5839       309.26      1.308     4.05     824.3967     54.52295     134.4403         6     1.231     0.566  -2.59   0
       273     66.8694    632.8662 307.8901663  +6.4130843     1386.785     1968.894     1822.594      77.5377     154.7684     309.3216      1.467     3.41     830.3622     54.52295     208.1524        13     1.155     0.745 -42.11   0
       274    463.9475    625.7208 307.7255195  +6.4293865     67491.57     95044.83     99447.77      77.5377     154.7069     309.3216      1.490     2.90     828.6088     54.52295     10480.13        77     1.459     1.193 -48.80   0
       275      7.6249    627.1940 307.9149586  +6.4134297     1852.035     2692.228     3091.338     77.04539     154.4608     305.8888      1.535     3.41     830.2749     54.52295     266.5696        17     1.160     0.906 -81.03  16
       276    649.9456    622.6861 307.6483817  +6.4368757     899.0545      1085.72     952.4862      77.5377     154.6454     309.4753      1.440     3.86     827.6235     54.52295     133.5075         9     1.006     0.602 -53.60   0
       277    138.4852    620.6753 307.8608405  +6.4205299     1785.753     2362.295     1659.135     77.66029      155.014     309.3831      1.474     3.28     829.7653     54.52295     249.4147        15     1.066     0.904 -39.77   0
       278    609.6661    617.2758 307.6652908  +6.4377602     960.6862     1576.177      1595.32     77.66029     154.7684     309.2908      1.786     4.22     827.5143     54.52295     140.4292        11     1.097     0.860 -24.02   0
       279    418.0193    618.2388 307.7448441  +6.4309342     840.0889     1318.523     969.3182     77.16876     154.5223     309.0446      1.574     2.89     829.0729     54.52295     130.2879         8     0.829     0.619 -40.27   0
       280    492.0309    616.9904 307.7141514  +6.4339337     598.9777     976.0508     1598.883     77.04539     154.5223      309.137      1.659     3.67     828.0878     54.52295      96.4494         5     0.660     0.588   0.19   0
       281    317.9136    616.5065 307.7864728  +6.4282868     561.0732     899.0107      939.095      77.5377     155.1367     309.4138      1.946     4.74     828.3905     54.52295     93.12207         6     1.279     0.498 -41.87   0
       282    309.2824    615.1008 307.7901045  +6.4285771     2195.394     3197.278     3599.488      77.5377      155.198     309.4138      1.508     2.80     828.5115     54.52295     402.8062        17     1.175     0.870 -56.26   0
       283     10.0941    616.4912 307.9142955  +6.4179320     685.8253     1154.666     1397.255      77.5377      155.198     309.3216      1.683     4.60     830.3275     54.52295     104.4299         7     1.209     0.497 -40.68   0
       284     17.3167    614.9597 307.9113482  +6.4188079     604.3282     733.4871     1320.533      77.5377     154.7069       309.26      1.235     3.73     830.3206     54.52295     110.2646         5     0.833     0.480 -43.11   0
       285    461.3786    613.8329 307.7269868  +6.4342089     945.7274     1392.755      2081.34     77.04539     154.5223      309.137      1.562     3.13     828.1923     54.52295     152.6703         8     0.978     0.551 -66.03   0
       286    735.9962    609.2950 307.6130964  +6.4452863     5664.227     7893.803     8418.093     77.29194     154.3992     309.0754      1.447     3.01     826.6181     54.52295     836.3903        27     1.237     0.994 -53.51   0
       287   1006.9573    605.0353 307.5007108  +6.4561015     1126.273     1652.096     1567.847     77.29194     154.7069      309.137      1.418     4.62     821.5595     54.52295     174.4083        13     1.257     0.762 -37.80   0
       288    789.5297    604.5532 307.5910238  +6.4490354     15541.83     20883.09      22419.2      77.5377     154.6454     309.3216      1.441     2.79     826.4916     54.52295     2234.838        35     1.291     1.007 -50.34   0
       289    531.7534    604.6807 307.6980702  +6.4403489      1286.57     1729.761     1750.463      77.5377     154.7069     309.3216      1.464     3.44     828.2028     54.52295     183.7747        11     0.961     0.773 -15.26   0
       290    613.3867    602.6075 307.6642392  +6.4439416     3305.814     4546.788     4672.763     77.16876     154.5223     309.1985      1.470     2.93     827.0369     54.52295     486.9312        19     1.178     0.857 -52.59   0
       291     34.6581    603.9598 307.9045194  +6.4239341     804.1091     1383.456     1567.872      77.5377     154.7069     309.3831      1.852     2.99     830.2704     54.52295     117.6191         7     0.743     0.638 -61.82   0
       292    930.4762    598.8665 307.5326802  +6.4560950     1243.212     1717.739     2050.778     77.66029     154.7684     309.2908      1.489     3.50     824.1849     54.52295     189.5955        11     1.020     0.694 -25.93   0
       293    189.0847    597.1785 307.8406228  +6.4319348      665.713      1149.84     1455.467     77.29194     154.3992       309.26      1.511     4.41     828.4523     54.52295     104.2717         6     1.009     0.549  81.53   0
       294    371.7483    596.4828 307.7647925  +6.4383634     1051.607      1439.86     1411.365      77.5377     154.7069     309.4138      1.541     3.75     827.4958     54.52295     140.6354        10     1.096     0.639 -53.85   0
       295    355.9683    596.0630 307.7713596  +6.4380067     640.5471     1003.431     1023.237     77.29194     154.7684     309.2908      1.922     4.46     827.2097     54.52295     113.1158         7     1.185     0.706 -76.79   0
       296    225.6488    596.1755 307.8254730  +6.4335792      1396.26     2063.147     2570.278     77.16876     154.7069     309.2293      1.585     3.50     827.9191     54.52295      202.975        13     1.078     0.781 -22.91   0
       297    865.5754    588.0144 307.5599975  +6.4584074     3052.459     4258.932     4764.896     77.29194     154.5223       309.26      1.469     3.23     824.5552     54.52295       440.52        19     1.171     0.907 -52.00   0
       298    160.6998    587.9459 307.8527218  +6.4347916      698.821     1075.466     854.5221     77.29194     154.7069     309.5982      1.475     4.26     828.6202     54.52295     103.6743         6     0.890     0.580  -2.05   0
       299    824.4080    585.2460 307.5771873  +6.4581742     2728.275     3756.255     4194.427     77.04539     154.5839     308.9831      1.440     2.97     825.3486     54.52295     426.3052        17     1.193     0.824 -49.43   0
       300    804.9426    576.4514 307.5855665  +6.4611547     174692.7     240732.2     252771.9      77.5377     154.7069     309.3216      1.465     2.81      825.469     54.52295     25472.98       127     1.521     1.266 -52.31   0
       301    795.4718    581.0966 307.5893437  +6.4589198     2713.318     4025.685     4551.749     77.41492     154.8913     309.2908      1.578     3.38     825.7515     54.52295     392.5808        21     1.363     0.851 -52.54   1
       302    737.6723    581.6992 307.6133275  +6.4567371     705.9998     1058.394     1300.004     77.29194     154.8298     309.3216      1.407     4.61     826.1098     54.52295     120.9829         7     1.091     0.554 -61.96   0
       303    449.0420    582.2173 307.7331751  +6.4468491     391.3411     584.5562     362.1023     77.04539     154.5223     309.1062      1.052     4.61     827.2679     54.52295     90.32904         5     1.286     0.470 -27.20   0
       304    252.3250    580.1196 307.8149375  +6.4411059     8439.756     12059.97     13079.45     77.78268     154.9527     309.3831      1.512     2.81     827.3976     54.52295     1212.936        36     1.333     1.126 -40.56   0
       305    186.5361    574.6354 307.8424427  +6.4411570     62857.36     89522.49     95291.78     77.41492     154.6454     309.3523      1.563     2.95     827.8829     54.52295     8976.509        87     1.556     1.240 -50.81   0
       306    612.3895    578.7908 307.6654545  +6.4537424     529.8124     711.6502     1179.362     77.16876     154.5223       309.26      1.199     3.43     826.6725     54.52295     83.69739         5     0.796     0.428 -69.65   0
       307    734.8051    576.6654 307.6146874  +6.4587196     662.1594     977.6074     1814.369     77.04539     154.3992     309.1062      1.320     1.72      826.032     54.52295     155.1008         5     0.663     0.449  17.44   0
       308    110.5659    570.8453 307.8741184  +6.4401643     6866.972     9880.497     10324.87     77.16876     154.5839     309.1678      1.557     3.04     828.8112     54.52295     956.4603        33     1.372     1.055 -44.24   0
       309    976.0729    568.1359 307.5147739  +6.4703069     1675.748     2115.047     1604.754      77.5377     154.7069     309.3523      1.358     3.23     822.3157     54.52295     238.5372        12     1.032     0.745  -9.42   0
       310    996.6236    567.1934 307.5062706  +6.4713822     762.4507     1026.823     790.0261     77.04539     154.5223     309.1678      1.268     3.82     822.0164     54.52295     121.9349         6     1.132     0.370 -29.73   0
       311    841.4684    563.7568 307.5708233  +6.4676179     4860.179     6780.435     6828.475      77.5377     154.6454     309.4138      1.480     2.94     824.2896     54.52295     689.9022        28     1.277     1.025 -57.48   0
       312    224.9942    566.3535 307.8267519  +6.4458706     684.1868     890.6355     1306.991     76.92182     154.5223     308.9831      1.296     3.28      827.012     54.52295     113.9117         7     0.746     0.653   5.58   0
       313    359.9681    561.8129 307.7708536  +6.4522831     18122.33     26131.05     27452.77     77.04539     154.4608       309.26      1.496     2.98     826.1548     54.52295     2762.134        48     1.420     1.111 -49.81   0
       314    450.1062    561.9741 307.7334152  +6.4552434      892.177     1362.036     1299.583     77.66029     154.4608     309.1678      1.599     4.57     826.5245     54.52295     129.2375        10     1.025     0.862  71.62   0
       315    161.9453    560.5841 307.8531292  +6.4461311     2044.505      2985.84     3235.764     76.92182     154.7069     309.0446      1.570     4.20     827.9247     54.52295      310.576        15     1.328     0.695 -39.22   2
       316    166.7763    557.9335 307.8512125  +6.4473881     704.3192     1120.806     1972.783     77.16876     154.7069       309.26      2.131     4.89     827.7635     54.52295     97.66467         8     1.134     0.598 -19.30   3
       317    795.5075    557.0477 307.5901365  +6.4688511     6151.847     8452.138     9129.362     77.41492     154.6454     309.4445      1.424     2.86     825.0045     54.52295     933.4881        28     1.365     0.916 -45.75   0
       318    237.0042    558.6166 307.8220258  +6.4494692     949.0236     1370.319     1692.351     77.16876     154.3992     309.1678      1.545     3.10     826.7061     54.52295     154.7265         9     0.909     0.645 -61.00   0
       319    526.2369    556.7549 307.7019746  +6.4599529     6905.254     9679.042     10456.63     77.29194     154.7069     309.2293      1.502     3.00     826.0772     54.52295     1019.793        30     1.261     1.062 -57.88   0
       320     99.2377    557.9981 307.8792570  +6.4450873     977.5802     1257.807     1360.165     76.67409     154.5223      309.137      1.425     4.08     828.5754     54.52295     130.0036        11     1.140     0.646 -16.40   0
       321    384.6353    553.3722 307.7608944  +6.4565969     1552.254     2210.301     2447.713     77.16876     154.4608      309.137      1.541     3.23     825.9268     54.52295     237.0184        13     1.007     0.814 -55.90   0
       322    173.3907    549.8593 307.8487386  +6.4509446     7060.886     10401.29     10865.17     76.92182     154.5839     309.0446      1.544     2.98     827.4523     54.52295     1037.179        33     1.370     1.041 -46.09   0
       323    571.1395    549.7172 307.6835637  +6.4643645     2570.531     4038.571     4592.049     77.66029     154.7069     309.3523      1.681     3.72     825.8467     54.52295     371.4846        22     1.428     0.894 -34.14   0
       324    268.5442    546.2999 307.8093437  +6.4556155     92766.86     133136.9     139931.6     77.29194     154.7069     309.5982      1.552     2.99     825.8818     54.52295     12917.15        91     1.522     1.246 -48.48   0
       325     44.9314    548.6100 307.9021260  +6.4471339     5397.013     7984.847     8164.041     77.04539     154.5223     309.1678      1.558     2.89     829.7877     54.52295     801.4451        32     1.308     1.135 -71.11   0
       326    854.5406    549.7537 307.5658643  +6.4738370     710.4904     1025.531      1262.12      77.5377     154.7069     309.4445      1.223     4.07     823.5131     54.52295     130.3751         6     1.048     0.452 -57.35   0
       327    812.0376    549.3241 307.5835307  +6.4725932     1645.507     2326.359     2259.186     77.41492     154.7684     309.3523      1.442     3.66     824.4464     54.52295     233.9081        12     1.121     0.706 -57.76   0
       328    558.0772    543.8714 307.6891852  +6.4663403     1034.893     1464.926     1614.153     77.78268     154.9527     309.3216      1.410     2.98      825.447     54.52295      164.899        10     0.916     0.712 -65.89   0
       329    968.0950    540.1887 307.5190241  +6.4815805     1767.645     2595.304     2568.682     77.16876     154.3992     309.0754      1.523     3.38     821.9075     54.52295     247.9886        18     1.232     0.850 -63.74   0
       330    252.4648    541.3657 307.8161878  +6.4571121     1604.962     479.5764    -741.4122     77.41492     154.7069     309.3216      1.601     3.24     825.9098     54.52295     232.8683        18     1.160     0.946 -51.42   0
       331    791.6705    538.8084 307.5923425  +6.4762541     17512.78     24345.37      25538.7     77.04539     154.3375     309.1985      1.450     2.90     824.4341     54.52295     2735.657        46     1.356     1.091 -47.58   0
       332    495.3058    537.1527 307.7154803  +6.4670091     42786.54     66828.68     71198.77     77.41492     154.6454     309.4445      1.689     3.18     825.6883     54.52295     5851.639        78     1.580     1.374 -31.04   0
       333    645.6116    536.0002 307.6530967  +6.4725242     940.8517     1399.207     1567.556     77.16876     154.3992      309.137      1.619     3.50     825.3688     54.52295     152.2161        11     1.172     0.692 -50.02   0
       334    255.7798    534.1768 307.8150538  +6.4601919     541.4304     734.2786     1368.087     77.29194     154.5223       309.26      1.618     5.21     825.6185     54.52295     92.56787         5     1.217     0.629 -71.74   0
       335    207.7622    533.6133 307.8350137  +6.4588092     2001.369     2783.719     3082.691     77.16876     154.5223     309.0446      1.525     3.32     826.3483     54.52295     300.0767        18     1.305     0.800 -57.24   0
       336    655.2568    532.2249 307.6492179  +6.4744062     3158.522     4434.859     4768.066     77.16876     154.7069      309.137      1.472     2.93     825.1105     54.52295     473.0055        21     1.202     0.878 -56.97   0
       337     43.3837    533.6733 307.9032740  +6.4532490     1321.956     1837.194     1826.414     77.04539     154.5223     309.2293      1.414     2.86     829.5007     54.52295     184.1428        12     0.981     0.749 -24.14   0
       338    665.4517    532.1474 307.6449865  +6.4747796     1616.566      2221.39     2565.635     77.66029     154.5839     309.3523      1.517     3.36     825.0144     54.52295     221.9418        14     1.081     0.822 -66.63   0
       339    717.2244    531.4120 307.6235095  +6.4768169     1404.262     2011.075     2546.389     77.16876     154.5223       309.26      1.560     3.31      824.842     54.52295     227.8906        10     1.032     0.604 -44.20   0
       340     74.1853    529.8302 307.8906130  +6.4558737     918.9426     1437.291     1750.457     77.16876     154.4608       309.26      1.697     3.85     828.5328     54.52295     137.6167        10     1.026     0.704  22.70   0
       341    393.0236    527.9055 307.7582694  +6.4673939     1838.126     2582.603     2664.443     77.66029     154.4608     309.1985      1.489     2.87     824.9835     54.52295     290.1329        17     1.117     0.866 -50.50   0
       342    324.5471    526.0891 307.7867685  +6.4658433     4303.561     6209.009     6117.238      77.5377     154.5223     309.4445      1.549     3.11     824.9119     54.52295     596.7023        26     1.362     0.964 -49.87   0
       343    139.6503    524.6517 307.8636021  +6.4602169     27732.82     39833.66     41782.25     77.66029     154.5839       309.26      1.555     2.99     827.2988     54.52295     3841.431        55     1.475     1.140 -49.47   0
       344    504.3582    525.5505 307.7121116  +6.4721035     2165.361     2953.107     3561.427     77.66029     154.7069     309.2908      1.497     3.02     825.1544     54.52295     352.9855        14     1.077     0.786 -43.29   0
       345    867.7650    524.7836 307.5612100  +6.4845896     1931.042     2561.395      3082.31     77.16876     154.4608     309.1678      1.460     2.85     822.6484     54.52295     319.9866        13     1.017     0.758 -49.04   0
       346    105.0042    522.8381 307.8780511  +6.4597989     2875.975     4311.209     4445.032     76.67409     154.4608     309.0754      1.541     3.71     827.6605     54.52295     392.2607        23     1.330     0.979 -53.48   0
       347    341.7498    521.3020 307.7797859  +6.4683980      1329.63     1777.512     2188.801      77.5377     154.6454     309.4753      1.405     3.13      824.733     54.52295     223.2858        12     0.973     0.805 -56.06   0
       348    965.1843    519.3580 307.5209314  +6.4900847     5545.323      7810.49     8186.805     77.04539     154.4608     309.1062      1.456     2.81     821.2239     54.52295     817.3577        24     1.220     0.955 -57.29   0
       349    538.4446    511.8808 307.6984157  +6.4788912     1466.485     2117.132     2537.872      77.5377     154.7069     309.2908      1.492     3.41     824.2473     54.52295     205.5775        13     1.207     0.651 -48.28   0
       350      3.9200    508.9721 307.9204979  +6.4621175     26372.33     38231.45     39560.86     77.41492     152.0399     270.2579      1.515     3.00     829.7407     54.52295      3932.61        48     1.404     1.139 -48.94  24
       351    436.6553    505.8401 307.7408930  +6.4779699     45549.98     64999.14     68105.04     77.41492     154.7684     309.3216      1.519     2.95     824.3362     54.52295     6576.886        63     1.440     1.171 -46.54   0
       352    413.0161    508.2325 307.7506298  +6.4761884     591.3882     754.9931     1334.306     77.16876     154.4608     309.1985      1.391     4.73      824.268     54.52295      72.1485         8     1.030     0.615 -67.40   0
       353    644.7097    505.5306 307.6544960  +6.4850752     13116.36     18141.06        18431      77.5377     154.8298     309.3216      1.488     2.88     824.0859     54.52295     1811.805        36     1.322     1.045 -50.43   0
       354    284.5916    506.0276 307.8040388  +6.4727836     1015.047     1653.473     1314.987     77.16876     154.5223     309.1678      1.567     3.62     824.2518     54.52295     162.2347        11     1.075     0.746 -47.25   0
       355    201.8053    503.3541 307.8385097  +6.4711027     19640.56     30464.58     31970.61     76.92182     154.4608     309.0139      1.663     3.07     825.5365     54.52295     2718.091        54     1.426     1.315 -42.55   0
       356    978.6368    503.9776 307.5158598  +6.4968847     1163.542      1492.96     1474.838     77.16876     154.4608     309.1062      1.422     3.69     820.6848     54.52295     150.9156        15     1.072     0.948 -15.71   0
       357    167.5229    504.4566 307.8527095  +6.4694937     1721.768     2405.572     2409.458      77.5377     154.6454     309.2908      1.539     3.27     826.3813     54.52295     224.9986        14     1.094     0.789 -44.23   0
       358    907.3603    503.3101 307.5454855  +6.4947796     821.8139     1295.573     1178.672      77.5377     154.7069     309.3523      1.507     4.05     821.3191     54.52295     141.4621         8     1.115     0.560 -45.33   0
       359    818.6339    503.7025 307.5823229  +6.4916517      1057.47     1530.262      1641.33      77.5377     154.5839     309.4445      1.578     3.29     822.6802     54.52295     177.4007        10     1.142     0.552 -53.32   0
       360    566.5416    502.4016 307.6870657  +6.4837474     3021.907     4089.012     3755.175     76.92182     154.3992     309.0446      1.420     2.92     823.9136     54.52295     409.8157        18     1.129     0.889 -41.32   0
       361    940.3875    499.5092 307.5318958  +6.4974524     5205.496     7465.628     7925.619     77.29194     154.4608      309.137      1.572     2.86     820.7002     54.52295     804.1185        30     1.350     1.011 -53.91   0
       362    613.4509    497.9042 307.6677349  +6.4871768     7036.864     9959.431     10109.14     77.41492     154.6454      309.506      1.485     2.93     823.8697     54.52295     1036.419        30     1.319     0.998 -45.51   0
       363    101.0498    498.2805 307.8805237  +6.4698054      1222.45     1779.497     1921.442      77.5377     154.7684     309.3216      1.574     3.92     827.1808     54.52295     171.2952        13     1.068     0.918 -73.75   0
       364    512.6013    497.5918 307.7096299  +6.4839244     586.6863     910.9592     834.5162     76.92182     154.3992     309.1062      1.765     5.67     824.0073     54.52295     85.65186         7     1.491     0.607 -16.60   0
       365    137.6062    497.7241 307.8653611  +6.4712663     464.7914     290.7548     11.36925     77.16876     154.2142     309.1678      1.007     3.48     826.7018     54.52295     91.45001         5     0.799     0.438  71.08   0
       366    962.9094    491.8732 307.5227977  +6.5013576     3816.939     5317.928     5316.139      77.5377     154.9527     309.3523      1.433     2.98     820.3516     54.52295     622.3915        23     1.273     0.903 -40.54   0
       367    401.5264    490.4606 307.7560007  +6.4831406     695.7723     1114.712     1538.448     77.66029     154.7069     309.3523      1.550     5.16     823.6241     54.52295     108.1526         9     1.415     0.531 -65.02   0
       368    525.6448    489.1671 307.7044964  +6.4878406     7833.938      10889.8     11612.77     77.16876     154.7684     309.1985      1.474     2.89     823.5539     54.52295     1177.235        28     1.228     1.005 -51.33   0
       369    371.8014    489.3145 307.7683844  +6.4826154      2759.32     4145.186     4425.237     76.79806     154.2759     309.0139      1.578     3.16     823.5883     54.52295     388.7954        23     1.195     1.066 -38.62   0
       370    741.6040    489.2018 307.6148026  +6.4950621      579.829     715.2664     565.1523     76.92182     154.2759     309.0754      1.227     3.21     822.8929     54.52295       107.78         7     0.851     0.613 -16.67   0
       371     94.8027    488.4613 307.8834501  +6.4736492     560.0473     1050.469     1231.874     76.92182     154.5223     309.0446      1.417     3.04     827.0671     54.52295     95.50543         5     0.732     0.446 -22.59   0
       372    882.0988    485.2047 307.5565849  +6.5014115     3324.717      4660.37     4634.565     77.29194     154.3992     308.9831      1.457     2.88     821.4567     54.52295     529.6727        21     1.174     0.928 -55.63   0
       373    535.0057    485.8814 307.7007193  +6.4895112     775.2522     1156.852     1427.845     77.16876     154.2759     309.1062      1.529     3.03      823.365     54.52295     123.5048         7     0.873     0.520 -47.75   0
       374    230.4221    483.9911 307.8272793  +6.4800606     740.5062     874.0322     632.0648     77.16876     154.4608     309.1678      1.452     5.08     824.2764     54.52295     101.5627         8     1.111     0.658 -58.23   0
       375    928.9243    478.9405 307.5373467  +6.5055627     1286.674     1926.363      2113.85     77.66029     154.7069     309.2908      1.639     4.98     820.1221     54.52295     194.8095        20     1.512     1.010 -40.92   0
       376    889.5066    479.4713 307.5537006  +6.5040264     2245.346     2934.033     3344.587     77.41492     154.7684     309.3523      1.423     2.94     821.0912     54.52295     353.8927        15     1.112     0.781 -37.80   0
       377    108.3661    478.8163 307.8781435  +6.4780885     675.6853     1072.074     1236.565     77.16876     154.4608     309.1678      1.556     3.76     826.6939     54.52295     103.0016         6     0.745     0.638  20.30   0
       378    267.5063    477.8963 307.8120839  +6.4838244     523.8148     632.9985     309.8195      77.5377     155.2593     309.2293      1.474     5.20     823.5158     54.52295     88.56482         6     1.007     0.759  30.44   0
       379    713.4374    475.4361 307.6269637  +6.4998033     3218.759     4384.559     4657.885     77.29194     154.5839     309.1062      1.490     2.98     822.4919     54.52295     495.3726        21     1.306     0.866 -36.05   0
       380    384.4127    473.4519 307.7636817  +6.4895888      3834.88     5682.102     6155.456     76.92182     154.6454     309.0446      1.619     2.83     822.9517     54.52295     552.3896        28     1.319     1.055 -68.05   0
       381     75.0549    474.2432 307.8921320  +6.4788545     2017.867     2973.863     3294.413      77.5377     154.7069     309.3216      1.495     3.01     827.2158     54.52295     329.9969        18     1.174     0.908 -60.48   0
       382    424.8557    473.4968 307.7468837  +6.4909285     1051.926       1611.6     1563.002     77.41492     154.7069      309.506      1.560     3.72     822.9564     54.52295     171.1988        11     1.116     0.670 -72.90   0
       383    612.0941    470.1829 307.6692312  +6.4985777     10734.02     15175.86     16199.05     77.41492     154.5223     309.1678      1.476     2.85     822.5532     54.52295     1658.707        37     1.373     1.020 -45.64   0
       384    775.1097    466.3828 307.6016533  +6.5056056      17175.7     24666.04     27658.01     77.29194     154.4608     309.2293      1.582     3.54     821.5793     54.52295     2866.721        58     2.019     1.094 -50.96   0
       385    294.6234    467.0381 307.8011886  +6.4892196     2752.898     3974.914     3577.104     77.16876     154.4608      309.137      1.520     3.26     822.8195     54.52295      377.985        23     1.217     1.063 -17.05   0
       386    418.2422    466.6085 307.7498625  +6.4935506     697.5492     981.6699     988.8295     77.04539     154.5223     309.0754      1.546     3.88     822.6581     54.52295     102.7354         6     0.721     0.658  78.21   0
       387    804.0066    463.7589 307.5897394  +6.5076557     1351.101     1872.971     1697.904     76.92182     154.3992     309.0446      1.422     3.08     821.2031     54.52295     205.1437        12     0.994     0.787 -27.71   0
       388    377.4490    463.5451 307.7669079  +6.4934454     1801.588     2549.799     2809.996      77.5377     154.7069     309.3831      1.477     3.05     822.5656     54.52295     270.0137        15     1.126     0.797 -37.29   0
       389    959.9560    461.6143 307.5250389  +6.5137535     2143.124     3063.966     3236.271     76.92182     154.5223     309.0754      1.450     2.89     819.3918     54.52295     377.4198        17     1.223     0.808 -36.81   0
       390    708.4628    460.5121 307.6295314  +6.5057990     761.7396     982.8741     1036.541     77.41492     154.8913     309.3523      1.209     3.38      821.941     54.52295     125.4848         6     0.911     0.408 -69.39   0
       391    366.3122    459.7693 307.7716606  +6.4946303     835.4311     1017.407     1036.557     77.66029     154.5223       309.26      1.284     3.90     822.4081     54.52295     123.8627         9     1.028     0.674 -42.49   0
       392    120.6066    460.1818 307.8736901  +6.4861948     502.9359     711.3773     392.4135     77.16876     154.3992     309.1678      1.554     4.59     826.1505     54.52295     64.69971         5     0.846     0.708  39.03   0
       393    112.2250    458.5525 307.8772261  +6.4865853     4674.641     7101.724     7254.359     77.16876     154.7069     309.1985      1.598     2.99     826.2975     54.52295      695.192        30     1.331     1.074 -44.70   0
       394    750.3747    457.6707 307.6122193  +6.5083753     2567.315     3528.132     3379.001     77.16876     154.5839       309.26      1.413     2.80      821.548     54.52295     377.7983        20     1.087     0.977 -40.00   0
       395   1014.0537    456.3717 307.5027453  +6.5177243      4269.37     6918.157     6917.658     77.29194     154.7684     309.2293      1.712     3.65     818.7013     54.52295     500.1367        32     1.417     1.177  -2.46   0
       396    269.9738    455.6193 307.8118113  +6.4931056     1649.789     2241.003     2249.977     77.16876     154.5223     309.2293      1.469     3.56     822.7694     54.52295     252.7863        14     1.046     0.927 -78.73   0
       397    348.2959    453.3280 307.7793603  +6.4966846      3401.76     4944.122     4754.672     77.29194     154.8298     309.2908      1.532     3.14     822.1523     54.52295       469.33        23     1.291     0.956 -43.79   0
       398    704.1405    451.2204 307.6316390  +6.5094910     1708.465     2326.571     2416.159     77.16876     154.5839     309.1985      1.406     3.39     821.5428     54.52295     239.9355        14     1.127     0.759 -40.14   0
       399    978.1924    449.6521 307.5178655  +6.5193018     596.9423     905.7713     1149.271     77.04539     154.5223     308.9831      1.546     2.88     818.8198     54.52295     109.3074         5     0.753     0.425 -20.16   0
       400    407.5770    449.7872 307.7548591  +6.5001380      507.567     855.7473     577.6556     77.29194     154.5223     309.2293      1.517     3.78     821.8932     54.52295     81.09424         5     1.029     0.398  -5.77   0
       401    236.0803    449.1754 307.8261052  +6.4946262     794.6106     1102.699     892.4774     77.29194     154.5223     309.2908      1.391     3.21     823.1115     54.52295     137.9158         7     0.736     0.664 -22.32   0
       402    545.6503    444.0121 307.6977081  +6.5071563     1007.453     1517.145     1739.499     76.92182     154.5839     309.0446      1.606     3.80     820.6473     54.52295     153.9724        13     1.078     0.859 -37.45   0
       403    447.1725    445.0319 307.7385744  +6.5034310     475.5091     490.1215     225.6228     77.04539     154.4608      309.137      0.998     2.35     821.4525     54.52295     122.3294         5     0.760     0.481 -35.40   0
       404    467.7261    442.1296 307.7301358  +6.5053193     1437.118     2035.046     1954.533     77.66029     154.8298     309.3216      1.547     3.65     821.1299     54.52295     228.7689        17     1.154     1.048 -63.44   0
       405    830.4280    441.3445 307.5795181  +6.5177946     1815.177     2272.971     2285.754     77.16876     154.7684      309.137      1.364     2.88     820.2486     54.52295       267.17        15     1.073     0.801 -61.05   0
       406    816.0158    440.3602 307.5855373  +6.5177191     2159.182     2915.214     3161.255     77.16876     154.5223     309.1062      1.457     2.89      820.238     54.52295     332.0499        16     1.089     0.842 -31.03   0
       407    615.5181    440.4320 307.6688101  +6.5109769     747.7842     958.1644     990.3557     77.41492     154.5839       309.26      1.229     3.61     821.2001     54.52295     131.4889         6     0.935     0.402 -69.43   0
       408    713.3099    438.3676 307.6282626  +6.5151050     16206.76     22326.61      23969.1     77.66029     154.5223     309.3216      1.468     2.83     820.9771     54.52295     2377.879        40     1.346     1.053 -55.13   0
       409    634.3286    434.4025 307.6612002  +6.5140969     2734.369     3775.208     3720.654     77.04539     154.3375     309.1678      1.409     2.95     820.9244     54.52295     404.9056        18     1.190     0.840 -39.95   0
       410    609.5384    431.4977 307.6715943  +6.5144656     5978.539     8207.025     9033.886     77.29194     154.7684     309.3831      1.487     2.88      820.797     54.52295     853.3189        22     1.214     0.895 -49.79   3
       411    605.8437    428.9175 307.6732157  +6.5154071     15633.94     22337.48      23402.9      77.5377     154.7069     309.2908      1.507     2.95     820.6568     54.52295     2417.082        42     1.350     1.138 -41.11   3
       412    938.5583    428.3774 307.5350411  +6.5267628     4259.825     5818.874     6315.325     77.16876     154.5223     309.1062      1.435     2.78     818.5662     54.52295     697.6885        24     1.265     0.917 -51.28   0
       413    377.7606    424.2256 307.7681046  +6.5096910     30464.11     44013.66     45615.92     77.16876     154.5223      309.137      1.522     2.94     820.8286     54.52295     4510.193        53     1.430     1.139 -51.83   0
       414    894.4126    423.8226 307.5535301  +6.5271686     1560.763     2530.221     2926.829     77.29194     154.5223     309.2293      1.675     3.77     819.0811     54.52295      238.832        16     1.199     0.911 -52.14   0
       415    123.9690    423.8382 307.8735224  +6.5013141     2344.674     3638.463     4006.574     77.16876     154.4608     309.1678      1.592     3.36     825.3943     54.52295     343.5586        22     1.207     1.073 -46.92   0
       416    588.9794    420.3042 307.6805100  +6.5183983     592.1384     704.1927     907.5729     77.41492     154.5223      309.137      1.495     3.83     819.9055     54.52295     98.94849         5     1.003     0.553  75.32   0
       417    907.4495    418.7563 307.5482851  +6.5296962     5479.396     7403.432      7667.52      77.5377     154.6454     309.3523      1.411     2.56     818.7372     54.52295     894.5116        26     1.220     0.956 -56.13   0
       418    891.1478    420.1498 307.5550094  +6.5285761     632.0186      1211.24     1198.383     77.66029     154.5839     309.3523      2.025     3.68      818.982     54.52295     92.01007         5     0.981     0.397  45.05   1
       419     57.2684    419.0188 307.9013869  +6.5010568      1596.68     2543.361     2941.466     77.16876     154.5839       309.26      1.708     3.96     826.5824     54.52295     214.6027        17     1.270     0.855 -38.76   0
       420    235.2714    414.7334 307.8276044  +6.5088201     14611.74     20871.77     22159.12      77.5377     154.7684     309.3216      1.518     2.92     822.1008     54.52295     2214.342        44     1.394     1.111 -49.50   0
       421    730.0452    408.6948 307.6223090  +6.5279175     738.3258     956.9568     1148.824     77.41492     154.6454     309.4445      1.359     3.41     819.8575     54.52295     100.3582         7     0.739     0.666 -18.67   0
       422     70.7376    408.8447 307.8961372  +6.5057115      923.258     1103.364     1029.745      77.5377     154.6454     309.3831      1.317     3.33     826.1828     54.52295     152.0411         7     0.837     0.592 -62.00   0
       423    958.7001    407.0161 307.5273914  +6.5362560      1155.51      1564.05     952.2753      77.5377     154.4608      309.137      1.383     3.65     817.5284     54.52295      186.048        11     1.089     0.725 -40.58   0
       424    698.3842    407.4125 307.6355026  +6.5273870     741.2145     1156.128     1799.339     77.41492     154.3992       309.26      1.258     3.27     819.7698     54.52295     161.2375         5     0.989     0.314 -66.69   0
       425    348.2721    404.6534 307.7810123  +6.5167816     1459.095     2009.099     1542.498     77.41492     154.6454     309.2908      1.430     3.38     820.0726     54.52295     225.9346        11     1.044     0.687 -45.36   0
       426    181.4539    404.5367 307.8503005  +6.5112192     782.0394      1268.19     1057.348      77.5377     154.6454     309.2908      1.746     4.59     823.4724     54.52295      132.973         7     1.000     0.637 -45.42   0
       427    135.5049    403.3596 307.8694238  +6.5101581     5351.208     7846.293     8105.163      77.5377     154.6454     309.4138      1.576     3.12      824.698     54.52295     749.2031        29     1.311     1.040 -45.95   0
       428    240.3285    402.1897 307.8259277  +6.5141695     1438.471     2043.344     2360.102     77.04539     154.3375     309.1678      1.519     3.29     821.6556     54.52295     226.1209        15     1.110     0.871 -62.93   0
       429    628.9553    401.8273 307.6645279  +6.5273675     490.0555     752.4704     465.2155     77.04539     154.7684     309.2293      1.498     3.86     819.3695     54.52295     68.39813         5     0.820     0.522 -55.20   0
       430    433.0677    401.9405 307.7458851  +6.5207501     680.6678     864.5844     724.5398     77.66029     154.6454     309.3216      1.339     2.47     819.3388     54.52295     132.1589         7     0.838     0.523 -47.16   0
       431    821.8264    400.1159 307.5844752  +6.5345308     836.2572     1185.718     1260.254     77.66029     154.4608     309.2293      1.508     2.97     819.0211     54.52295     147.9441         9     0.915     0.677 -69.41   0
       432    157.6225    399.2266 307.8603776  +6.5126094     2506.967     4028.161     4132.442     77.04539     154.5223       309.26      1.706     4.02     824.1396     54.52295     338.8802        23     1.442     0.963 -59.36   0
       433    553.1282    398.3621 307.6961392  +6.5262564     1008.401     1440.873     1569.201     77.41492     154.7069     309.3831      1.484     3.80     818.2408     54.52295     163.2949         9     0.938     0.647 -63.82   0
       434    969.5118    394.1508 307.5233320  +6.5419294     865.4667     1639.735     1677.738      77.5377     154.5223     309.4138      2.259     6.25     816.7949     54.52295     151.0954        13     1.855     0.591 -58.52   0
       435    380.9689    393.9181 307.7677943  +6.5223128     2203.112     3198.967     2899.333     77.41492     154.5223     309.3216      1.487     2.85     819.2965     54.52295     352.2576        19     1.094     0.950 -48.54   0
       436    268.9729    394.5525 307.8142887  +6.5182863     816.1761     1050.949     1095.054     77.16876     154.7684       309.26      1.353     2.53      820.909     54.52295     152.7558         8     0.787     0.676 -89.94   0
       437    314.9227    391.4225 307.7953099  +6.5211237     676.6749     1020.364     1280.773     77.16876     154.5223       309.26      1.664     3.75     819.9532     54.52295     135.4741         7     1.046     0.464 -51.18   0
       438    588.3821    389.9890 307.6817784  +6.5308957     518.5942     800.4924     306.8521     77.16876     154.3992     309.2293      1.594     4.39     818.3412     54.52295     84.68774         5     1.001     0.548  16.16   0
       439    434.8664    387.5508 307.7456231  +6.5267520     7702.329     11074.28     11515.83     77.41492     154.5839     309.3216      1.523     2.83     818.6035     54.52295      1145.25        34     1.367     1.065 -54.51   0
       440     31.3982    388.0493 307.9131790  +6.5129718     3180.076     5263.107     6177.476     76.92182     154.3375     308.9215      1.861     4.43     826.5558     54.52295     448.6071        30     1.705     1.049 -48.78   0
       441    775.4912    384.9965 307.6042289  +6.5392238      14044.2     19278.01     20649.75     77.16876     154.3992     309.0754      1.470     2.72     818.9645     54.52295     2141.042        40     1.320     1.058 -46.04   0
       442    767.4835    386.5955 307.6075013  +6.5382956     2309.034     3184.349     3757.145     77.04539     154.3375     309.0446      1.631     2.92     819.0558     54.52295     315.1875        14     1.032     0.805 -45.45   0
       443    534.7343    386.5469 307.7041770  +6.5305180       659.66      867.501     1036.901      77.5377     154.6454     309.2908      1.558     4.11     817.7701     54.52295     94.31799         7     0.994     0.487  -6.98   0
       444    338.8856    383.2863 307.7856318  +6.5252886     1126.908     1747.493     1936.904     77.29194     154.8913     309.3831      1.608     3.23     819.1555     54.52295     157.2225        12     1.020     0.777  55.93   0
       445    290.3389    383.1622 307.8057993  +6.5237079      350.809     701.3821     477.3899      77.5377     154.7684     309.3216      1.680     3.57     820.1663     54.52295     85.12463         5     1.008     0.364  -3.57   0
       446   1019.3636    380.1919 307.5030929  +6.5493576     4052.428     5599.395     5739.546     76.92182     154.5223     289.6601      1.454     2.90     815.2418     54.52295      584.717        23     1.240     0.934 -38.09  16
       447    950.4273    376.3585 307.5318558  +6.5486387      608.009     650.6209     828.6917     77.16876     154.6454     309.1678      1.269     3.96     816.4267     54.52295     106.6041         7     0.981     0.470 -79.67   0
       448    900.6459    375.4161 307.5525653  +6.5473647     504.6856     816.7483     705.8314     77.04539     154.5839     309.1062      1.355     4.24     817.5337     54.52295     103.2859         6     1.041     0.492 -54.60   0
       449    183.8282    375.9014 307.8502821  +6.5231225     818.2591     1082.298     661.6102     77.66029     154.4608     309.2908      1.381     3.98     822.9122     54.52295     122.4114         8     0.956     0.617 -29.90   0
       450    483.0459    371.2382 307.7261616  +6.5351049     3393.397     4697.956     4385.331     77.29194     154.6454     309.2293      1.451     2.96     817.3958     54.52295     482.7638        25     1.220     1.058 -41.79   0
       451    455.1762    372.0546 307.7377098  +6.5338323     2492.922     4021.044     4360.583     77.16876     154.7069      309.137      1.680     6.85     817.6425     54.52295     401.4618        22     1.403     0.937 -49.97   0
       452    911.5243    371.6545 307.5481729  +6.5492814     888.2446     1217.667     1420.196     77.41492     154.7069     309.3523      1.534     4.01     817.1517     54.52295     138.9434         7     0.952     0.542 -32.76   0
       453    840.8677    367.9185 307.5776472  +6.5484623     35444.64     50946.91     53581.21     77.66029     154.9527     309.3831      1.531     3.15     818.4113     54.52295     5375.133        60     1.455     1.175 -63.45   0
       454     58.2820    364.0499 307.9028258  +6.5237871     758.4859     1099.238     1406.325      77.5377     154.7069     309.3523      1.434     2.88      825.564     54.52295     116.5217         7     0.748     0.630 -78.48   0
       455    333.1279    363.3011 307.7886976  +6.5333470     921.4611     1277.159      885.153     77.29194     154.8298     309.3216      1.498     4.58     818.3885     54.52295     134.9417         8     0.972     0.613 -12.66   0
       456    612.5973    360.2743 307.6727205  +6.5439768     2844.064     4181.074     4172.722     77.04539     154.2142     309.1985      1.579     2.81     816.9054     54.52295     425.2682        21     1.178     0.947 -43.00   0
       457     20.7342    360.7238 307.9185328  +6.5238946     1230.404     1730.243     1492.458     77.66029     154.7069     309.2908      1.457     3.58     826.4969     54.52295     197.6302        11     1.079     0.708 -68.31   0
       458    143.7025    359.1026 307.8675154  +6.5287076     672.6923     775.9323     280.9776      77.5377      155.198     309.1678      1.314     3.08     823.8735     54.52295     108.0792         7     0.843     0.582  54.82   0
       459    697.3389    353.8864 307.6377365  +6.5494534        86242     119361.2     125506.8     77.66029     154.8298     309.3523      1.463     2.77     817.8197     54.52295     13195.82        92     1.494     1.213 -45.71   0
       460    855.3326    355.3494 307.5720609  +6.5541359     1253.974     1803.325     1747.443     77.41492     154.5839       309.26      1.546     2.84     818.1428     54.52295     202.0648        10     0.947     0.682 -53.26   0
       461     76.8483    353.2411 307.8954803  +6.5288756     1380.958     2076.173     2194.255      77.5377     154.6454     309.2293      1.553     4.35     824.8208     54.52295     231.5969        13     1.370     0.655 -22.49   0
       462    559.6991    350.6058 307.6950180  +6.5461956     2876.765     4191.819     4375.699     77.29194     154.3375     309.0446      1.578     3.06     816.3148     54.52295     402.7503        20     1.209     0.891 -48.59   0
       463    938.8935    350.9437 307.5374992  +6.5587476     748.0422      916.158     1238.868     77.41492     154.7069      309.506      1.150     3.06     815.6916     54.52295     126.0502         8     0.803     0.666 -56.61   0
       464    386.8253    350.9279 307.7668118  +6.5402602     721.9556     1127.339     1057.093     77.16876     154.5839     309.2293      1.707     3.16     817.0483     54.52295     117.3541         7     0.921     0.567 -12.95   0
       465     96.9396    349.3584 307.8872671  +6.5311557     6496.924     9571.668     9978.423      77.5377     154.7069     309.3831      1.554     2.91     824.2106     54.52295     918.2144        28     1.323     1.008 -55.09   0
       466    543.0544    346.7986 307.7020598  +6.5472094     7574.321     10944.59     11041.91     76.92182     154.4608     308.9523      1.489     2.98     816.0275     54.52295     1186.456        33     1.327     1.075 -44.42   0
       467    272.1470    344.2371 307.8146693  +6.5391682     2722.672     3983.108     4062.297     77.41492     154.7069     309.3523      1.543     3.26      819.386     54.52295     398.0528        20     1.187     0.938 -41.14   0
       468    405.9854    341.9179 307.7591574  +6.5446241     27123.92     39630.36     41263.17     77.16876     154.4608     309.1678      1.526     2.95     816.7217     54.52295     4225.542        53     1.418     1.185 -48.54   0
       469    584.7764    340.9782 307.6849258  +6.5510117     575.3857     880.9338     674.1668     77.16876     154.5223     309.2908      1.636     2.84     815.8417     54.52295     99.61011         5     0.790     0.480  32.62   0
       470    513.6276    340.6310 307.7144904  +6.5487689     1448.497     1891.388      2094.91     77.04539     154.4608      309.137      1.336     3.70     815.6862     54.52295     215.6594        13     1.152     0.756 -56.53   0
       471    385.6551    340.0869 307.7676635  +6.5446972     1182.968     1623.548     2256.745      77.5377     154.5839     309.4753      1.526     3.29     816.8118     54.52295     207.5288        12     1.094     0.765 -14.00   0
       472    484.9973    337.2819 307.7264952  +6.5491911     1313.821     2003.129     1695.618     76.92182     154.3375     309.0139      1.575     3.39     815.4741     54.52295     199.9785        15     1.081     0.925  -7.23   0
       473    800.5718    334.5702 307.5955052  +6.5608846     947.9306     1281.604     1150.191     77.04539     154.4608     309.0754      1.528     4.83     817.4184     54.52295     142.4892        14     1.189     0.937  69.85   0
       474    495.1156    332.3917 307.7224572  +6.5515498     9015.656     13129.72     13552.29     77.16876     154.3992     309.1678      1.525     2.96     815.0906     54.52295     1303.703        34     1.358     1.060 -56.74   0
       475    382.5731    334.5250 307.7691312  +6.5468902     743.7209     1315.799     1834.917     77.41492     154.6454     309.2908      1.713     5.56     816.7223     54.52295     109.0283         9     1.241     0.702 -24.44   0
       476    764.1348    331.2286 307.6107527  +6.5610452     3288.159     4440.955     4955.321     77.29194     154.7069       309.26      1.440     2.91     817.1174     54.52295     524.7501        19     1.124     0.875 -44.97   0
       477    919.6226    330.9193 307.5461758  +6.5663722      1002.12     1373.585     1166.558     77.16876     154.3992       309.26      1.406     3.32     815.4818     54.52295     185.2875         9     1.008     0.672 -26.54   0
       478    711.8966    330.9836 307.6324596  +6.5593977     801.7504     1141.724     1182.944     77.41492     154.5223     309.1678      1.397     3.56     816.8367     54.52295     138.7528         7     0.883     0.536 -42.82   0
       479    321.5056    328.6140 307.7946955  +6.5472786      1064.75     1527.849     1606.069     77.29194     154.4608     309.1678      1.550     5.48     817.5917     54.52295     162.4497        13     1.259     0.903  88.81   0
       480    256.7835    322.9369 307.8217699  +6.5474462     637.9272     1154.454     1274.709     77.04539     154.6454     309.1678      1.741     4.69     819.1163     54.52295     110.7969         7     1.050     0.604 -68.30   0
       481    157.3111    322.9709 307.8630847  +6.5440844     1207.323     1699.939     1944.741     77.66029     154.4608     309.2293      1.527     3.35     822.7744     54.52295     226.9991        14     1.135     0.845 -50.91   0
       482    384.9551    316.5602 307.7687478  +6.5543879     7870.967     11485.13        12058     77.29194     154.7069     309.2293      1.552     2.84     816.3116     54.52295      1191.73        33     1.323     1.079 -47.81   0
       483    738.4613    316.7808 307.6219026  +6.5661516      1019.83      1197.25     1657.811     77.16876     154.6454     309.1985      1.370     3.97     816.2565     54.52295     145.0842        12     1.232     0.666 -56.28   0
       484    240.8189    316.9393 307.8286034  +6.5493855     2215.944     3413.241     3551.807     77.16876     154.6454     309.1678      1.579     3.40     819.4274     54.52295     320.8536        20     1.211     1.046 -28.10   0
       485    673.3375    317.1083 307.6489429  +6.5638356      467.979     615.1342     358.0564      77.5377     154.8298     309.4138      1.173     3.42     815.9124     54.52295     92.05865         5     0.810     0.418  71.42   0
       486    752.8100    312.4277 307.6160887  +6.5684293     58851.91     81149.07     85051.22     77.16876     154.5223     309.1985      1.445     2.80      816.062     54.52295     8471.242        73     1.411     1.173 -49.08   0
       487    424.4419    311.7856 307.7525073  +6.5576856     2415.076     3308.046     3446.676     76.92182     154.5223     309.0754      1.476     3.19     815.7023     54.52295     348.2433        17     1.165     0.853 -54.29   0
       488    987.5367    309.8330 307.5186720  +6.5773474     1797.682     2343.179     2264.096     77.41492     154.7684     309.2908      1.361     3.02     813.9931     54.52295     253.1609        15     1.106     0.801 -51.29   0
       489    928.5369    308.6646 307.5432195  +6.5758593     2632.074     3644.173     3422.521      77.5377     154.7069     309.3523      1.508     3.19     814.5383     54.52295      370.351        18     1.220     0.853 -60.21   0
       490    570.5730    309.2972 307.6918921  +6.5636168     1364.362     1749.816     1533.083     77.66029     154.4608       309.26      1.269     3.05     813.9437     54.52295     217.0111        10     1.040     0.629 -35.09   0
       491    461.5340    308.3428 307.7372164  +6.5603525     1118.257     1804.546     2358.125     77.66029     154.6454     309.3216      1.683     3.20     814.1198     54.52295     165.4553        11     1.051     0.683 -27.06   0
       492    411.0850    307.5300 307.7581988  +6.5589942     2138.197     3190.066     2887.577     77.66029     154.9527     309.3523      1.490     3.26     815.9061     54.52295     331.8006        15     1.142     0.802 -53.90   0
       493    290.7816    306.7476 307.8081952  +6.5552742     711.1809     1108.613     1267.487     77.04539     154.7684     309.1062      1.435     1.83     817.5506     54.52295     158.6197         5     0.697     0.415  13.28   0
       494    461.0700    302.6814 307.7375999  +6.5626746     834.2495     1486.455     1585.751     77.78268     154.9527     309.3523      2.073     5.11     813.8734     54.52295     115.8109         9     1.130     0.653 -62.19   0
       495    832.5302    302.1542 307.5833188  +6.5753384     1294.985      1831.26     1717.229      77.5377     154.6454     309.3216      1.497     3.11     815.5427     54.52295     183.5021        12     0.918     0.849 -44.09   0
       496    964.0130    300.3916 307.5287603  +6.5804604     556.7819     778.0142     347.0559     77.16876     154.5223     309.2293      1.571     4.32     814.0063     54.52295     75.04956         5     0.815     0.652  88.11   0
       497    441.6169    299.0463 307.7458028  +6.5635224       1260.3     1880.932     1961.109     77.04539     154.5839     309.0754      1.690     3.64     814.5107     54.52295     195.4974        14     1.193     0.831 -31.88   0
       498    187.4541    298.7601 307.8513830  +6.5550957     2506.248     3687.096     4002.363     77.41492     154.7069     309.3216      1.573     3.19     820.9803     54.52295     367.5872        22     1.220     1.026 -32.08   0
       499    751.2460    297.0248 307.6172560  +6.5747369     6489.546     9206.753     9858.404     77.16876     154.7069     309.1985      1.472     2.83     815.2397     54.52295     1022.557        27     1.294     0.947 -50.70   0
       500    342.0486    296.7735 307.7872373  +6.5611160      683.673     1013.628     1039.078     77.16876     154.7684       309.26      1.709     4.64     816.3223     54.52295     134.4427         8     1.161     0.867 -20.89   0
       501    223.0292    296.9897 307.8366664  +6.5570241     729.3043     814.7228     549.7938     77.04539     154.5223     309.1678      1.280     2.57     819.5868     54.52295     149.2789         7     0.862     0.685  -4.17   0
       502    767.6078    294.9910 307.6105278  +6.5761243      2880.75     3996.442     4470.243     76.92182     154.5223     309.1985      1.418     2.73     815.2676     54.52295      490.971        19     1.200     0.851 -57.36   0
       503     83.6694    295.7712 307.8945915  +6.5528342     1186.868     1545.552     1449.708     77.29194     154.7069       309.26      1.450     4.17     823.7332     54.52295     151.9634        13     1.132     0.864 -53.52   0
       504    357.0663    289.7465 307.7812365  +6.5645222       1712.5     3321.977     3978.293      77.5377     154.6454     309.2908      2.129     6.33     815.9579     54.52295     198.2112        25     1.675     0.984 -13.96   0
       505     70.9820    290.2484 307.9000481  +6.5546870     1270.702     1850.431      1705.17     77.04539     154.7684      309.137      1.464     2.99     823.6506     54.52295     224.2601        13     1.035     0.799 -48.32   0
       506   1005.8949    285.9805 307.5118457  +6.5878093     6379.557     8917.548     8869.786     77.41492     154.5223      309.137      1.437     2.82     813.4454     54.52295     1005.154        26     1.292     0.942 -55.17   0
       507    483.7905    285.8848 307.7287284  +6.5703726     2323.773     3243.802     3492.977     77.16876     154.3992     309.1678      1.447     2.91     811.9213     54.52295     363.1226        20     1.225     0.921 -55.88   0
       508    246.5270    281.2507 307.8274380  +6.5643132     6350.908     9266.376     10166.41      77.5377     154.7684     309.3523      1.596     3.14     818.3913     54.52295     871.3763        33     1.328     1.113 -54.60   0
       509    914.1972    280.3132 307.5501275  +6.5870868     685.1869     759.0432     1281.575     76.92182     154.3375     309.0446      1.155     2.32     813.5228     54.52295     138.0898         6     0.689     0.624 -60.10   0
       510    810.9132    279.9645 307.5930437  +6.5837778     634.0924     950.2002     1567.574      77.5377     154.5839     309.3216      1.405     3.88     814.7164     54.52295     97.69916         6     0.756     0.579  46.30   0
       511    937.9285    276.3381 307.5404028  +6.5895211     485.4415      677.788     685.6938     77.66029     154.7069     309.3831      1.287     3.84     813.0618     54.52295     88.55487         5     0.849     0.498 -51.49   0
       512    765.9429    274.6132 307.6119042  +6.5844828     1024.184     1483.141     1510.643     76.92182     154.5839     309.0446      1.505     3.05     814.3192     54.52295     187.3254        11     0.963     0.809 -22.33   0
       513    223.3663    273.9993 307.8373031  +6.5665280     664.3444     842.2388     825.0715     76.67409     154.5223     309.0754      1.497     2.81       819.13     54.52295     121.9625         5     0.816     0.501  35.74   0
       514    380.7031    272.2039 307.7720102  +6.5725597     1825.738     2721.035     2887.406     77.29194     154.3992     309.0139      1.648     3.79      815.232     54.52295     216.2181        17     1.228     0.872 -59.90   0
       515    967.2861    271.0901 307.5283834  +6.5926687     1123.657     1699.338      1657.85     77.29194     155.1367     309.4445      1.521     3.39     812.6855     54.52295     165.1486         9     0.904     0.653 -32.49   0
       516    187.0590    269.7062 307.8525291  +6.5670785     585.4418     939.9675     732.2774     77.41492     154.7069     309.4445      1.634     3.82     820.2069     54.52295     92.49432         5     0.844     0.496 -51.55   0
       517    303.2168    267.8656 307.8043426  +6.5717466     1313.814     1845.074     1505.908     77.04539     154.5839     309.1985      1.520     4.13     816.5419     54.52295     171.5143        15     1.110     0.985  54.71   0
       518    150.3977    267.8447 307.8678199  +6.5666128      1721.14     2555.705     2770.939     76.92182     154.2759     308.9831      1.619     4.20     821.3237     54.52295     225.6398        18     1.276     0.979  -2.63   0
       519    560.0573    263.6649 307.6977967  +6.5821060     2408.291     3427.371     3545.002     77.66029     154.6454     309.3523      1.510     3.32     811.6096     54.52295     347.2729        20     1.275     0.910 -28.15   0
       520    903.9540    262.7169 307.5549732  +6.5940103     1900.516     2905.781     3117.303      77.5377     154.7069     309.3216      1.563     3.29     812.7573     54.52295     280.8802        17     1.232     0.863 -33.92   0
       521    723.6438    261.1849 307.6299267  +6.5886115      5426.33     7546.811     7862.977     77.04539     154.5223     309.0754      1.450     2.81     813.4368     54.52295     870.3914        26     1.238     0.976 -40.14   0
       522    664.5564    260.9614 307.6544791  +6.5867249     2396.151     3328.208     3314.831     77.29194     154.6454     309.1678      1.509     3.01     813.0535     54.52295     364.2626        20     1.264     0.892 -49.67   0
       523    961.4316    260.9392 307.5311559  +6.5966646     798.4152      1142.96     966.9435     77.29194     154.7684       309.26      1.339     2.14     812.1047     54.52295     182.3675         7     0.704     0.651 -65.49   0
       524    379.3825    255.6908 307.7731158  +6.5793336     781.7566     1055.401     704.1086     77.29194     154.4608     309.2293      1.421     3.66     814.8256     54.52295     130.5164         7     0.913     0.571 -27.42   0
       525    919.6688    253.8383 307.5487430  +6.5982015     1167.832     1704.577     1915.206     77.41492     154.7069     309.4445      1.580     4.15     811.9348     54.52295     165.6854        13     1.132     0.874 -38.87   0
       526    865.9219    245.6351 307.5713455  +6.5997923     1807.477     2469.519     2417.883     77.41492     154.7684     309.3523      1.403     2.70     812.8021     54.52295     307.5318        15     1.042     0.840 -54.62   0
       527    223.3133    246.3779 307.8382584  +6.5779309      2468.19     3698.057     3688.954      77.5377     154.5223     309.1678      1.602     3.57     818.5815     54.52295     341.6662        21     1.289     0.951 -43.88   0
       528    756.3333    245.0001 307.6168913  +6.5963887     1707.724     2400.203     2167.955     76.79806     154.2142     309.0446      1.379     3.34     812.9402     54.52295     266.3435        13     1.088     0.780 -48.56   0
       529    577.3157    241.1177 307.6913868  +6.5919945     507.6405     745.1057     342.8811     77.29194     154.9527     309.3831      1.256     4.21     811.0356     54.52295     90.42865         5     1.120     0.451  83.64   0
       530    244.9321    240.1484 307.8294889  +6.5812305     640.1229     668.3625     295.0479     77.41492     154.5839     309.2908      1.221     3.95     817.8386     54.52295     100.5872         6     0.992     0.449 -37.48   0
       531    457.1514    236.2359 307.7414674  +6.5899784     24620.63     35641.23     37734.02     77.29194     154.6454     309.2293      1.528     2.94     811.2512     54.52295     3441.191        54     1.473     1.146 -50.40   2
       532    463.0524    230.8160 307.7391989  +6.5924145     1557.981      2308.51       2722.3     76.92182     154.7684     309.0446      1.556     3.82     810.8683     54.52295      203.553        15     1.121     0.919 -34.18   3
       533    783.1959    235.5188 307.6060509  +6.6012026     14373.03     20327.12     21476.71     77.04539     154.2759     309.0446      1.526     2.93     812.6609     54.52295     2220.697        49     1.544     1.109 -39.62   0
       534    318.4291    237.8657 307.7990365  +6.5846449      609.191       982.52     668.6589     77.29194     154.6454       309.26      1.604     3.47     816.0513     54.52295     93.84772         5     0.795     0.438 -69.72   0
       535    721.7669    231.2843 307.6317116  +6.6008949     805.2133     1220.138     1244.647      77.5377     154.5223     309.2908      1.492     5.33     812.0762     54.52295     106.0842        10     1.184     0.677 -72.47   0
       536    145.3478    229.5786 307.8712114  +6.5822424     2527.406     3744.858     3638.242     77.04539     154.7069      309.137      1.585     2.99     820.2858     54.52295     350.2343        19     1.217     0.918 -34.73   0
       537    120.1306    228.5678 307.8817202  +6.5818103     1260.773     1962.272     2338.762     77.41492     154.7069     309.3523      1.720     3.66     821.0754     54.52295     175.9785        13     1.014     0.964 -28.26   0
       538    775.9703    227.6388 307.6093173  +6.6042145     616.5967     1130.859     1437.184     77.04539     154.4608     309.1985      2.171     5.22     812.2704     54.52295     122.3289         5     1.463     0.526 -41.43   0
       539    171.9424    227.8778 307.8602220  +6.5838402     712.7621     1015.751      1036.61      77.5377     154.6454     309.2908      1.424     4.59     819.4363     54.52295     107.1087         8     0.855     0.700 -52.51   0
       540    919.6593    225.8518 307.5496860  +6.6097572     1492.989     2005.231     2488.217      77.5377     154.6454     309.3216      1.408     2.90     810.3068     54.52295     227.7464        13     1.041     0.756 -40.16   0
       541    617.5319    224.3506 307.6752452  +6.6002660     586.3654     720.0137      1078.87     77.41492     154.6454     309.3216      1.604     4.07     810.6326     54.52295     89.29102         5     0.954     0.495 -85.62   0
       542    581.2355    221.9959 307.6904024  +6.6000214      4979.86     7118.283     7260.779     76.67409     154.5839     309.1062      1.473     2.91     810.3331     54.52295     804.2215        26     1.275     0.967 -35.86   0
       543    543.7863    222.0993 307.7059555  +6.5987228     2280.418     3178.513     3141.998     77.41492     154.4608     309.0754      1.470     3.05     810.0931     54.52295     300.2839        16     1.036     0.925 -48.13   0
       544    301.6884    222.6092 307.8065054  +6.5903814     1009.675     1344.012     1141.055     77.16876     154.3992     309.1062      1.511     3.43     816.2234     54.52295     158.0482         9     0.969     0.675 -34.33   0
       545     66.3422    223.0354 307.9042497  +6.5822820     554.0532     601.9482     688.2479     77.41492     154.7069     309.3523      1.400     5.62     822.2089     54.52295     75.87939         6     1.118     0.796 -19.66   0
       546    385.5304    221.1661 307.7717267  +6.5937953     1576.197     2307.057     2613.468     77.41492     154.7069     309.3831      1.633     3.11     813.4734     54.52295     252.7347        19     1.116     1.022 -46.48   0
       547    942.0284    219.2339 307.5406154  +6.6132371     2996.928     4095.893     4321.275     77.04539     154.4608     309.1062      1.433     2.88     809.7592     54.52295     469.8408        20     1.080     0.934 -52.43   0
       548    888.1694    218.6544 307.5630093  +6.6116767     12343.57     16775.54     17712.15     77.41492     154.7684       309.26      1.428     2.72     811.0426     54.52295     1967.337        33     1.273     1.020 -53.16   0
       549    315.6427    219.1048 307.8008273  +6.5922976     1046.172     1489.114     1439.851      77.5377     154.6454     309.4445      1.493     3.67     815.8909     54.52295     137.3733        10     1.040     0.692 -74.75   0
       550    563.1310    218.6095 307.6980372  +6.6008126     934.4105     1369.441     1479.661     77.04539     154.5223     309.1678      1.539     3.18     810.1285     54.52295     150.1511         9     1.026     0.582 -60.58   0
       551    207.0930    218.8488 307.8459263  +6.5887516     860.1699     1170.295     1341.987     77.41492     154.5839     309.4445      1.467     4.60     818.4535     54.52295     124.7844         8     0.995     0.604 -64.64   0
       552    974.8521    216.5118 307.5270709  +6.6154574     11032.18     14744.89     15595.54      77.5377     154.5839     309.4138      1.425     2.69     809.4348     54.52295     1571.022        34     1.287     1.002 -46.11   0
       553     14.3380    215.0962 307.9261195  +6.5838067      27358.3     39922.01     42465.63     77.29194     154.7684     309.3831      1.560     3.00     823.2957     54.52295     3718.295        58     1.449     1.192 -48.25   0
       554    686.2523    216.3867 307.6469659  +6.6058569     3050.223      4291.61     4593.423     76.92182     154.6454     309.0754      1.429     2.65     811.1366     54.52295     485.9226        20     1.215     0.855 -46.29   0
       555    260.5710    216.3167 307.8237977  +6.5915966     1253.524      1758.28     1616.966      77.5377     154.4608     309.1985      1.458     3.40     817.1473     54.52295     180.3357        13     1.086     0.763 -44.02   0
       556    494.8752    211.3345 307.7266362  +6.6015265     2235.361     3301.201     3388.834     77.66029     154.7069       309.26      1.570     3.40     809.6874     54.52295     278.1011        20     1.245     0.962 -39.46   0
       557    826.6341    208.1163 307.5889264  +6.6139705     2118.689      2928.62     2568.464      77.5377     154.6454     309.2908      1.408     2.81     811.3034     54.52295     373.8455        15     1.061     0.855 -68.55   0
       558    879.1126    207.2222 307.5671555  +6.6160944     2218.965     2967.843     3267.218      77.5377     154.5223     309.2293      1.427     3.27     810.7972     54.52295     325.3293        15     1.184     0.746 -33.09   0
       559    795.4319    207.7230 307.6019018  +6.6130891      517.018     484.7959     227.4118     77.41492     154.7069       309.26      1.253     4.05     811.3804     54.52295     98.57251         5     0.954     0.491 -85.53   0
       560    738.3865    204.5979 307.6257048  +6.6124704     44093.88     60720.25     63320.64     77.16876     154.3992      309.137      1.471     2.76      811.224     54.52295      6784.09        60     1.387     1.140 -51.00   0
       561    506.8463    207.2576 307.7218007  +6.6036116     2697.053     3783.692     3562.696      77.5377     154.7069     309.4445      1.438     3.13     809.5695     54.52295     412.8382        18     1.167     0.846 -59.02   0
       562    341.5123    203.8107 307.7905974  +6.5994821     5981.427     11974.58     13272.88     77.16876     154.4608     309.1985      2.086     5.89     814.8951     54.52295     786.7153        48     2.012     1.163 -72.41   0
       563    972.1665    203.3747 307.5286272  +6.6207922     3153.239     4354.622     4722.822     76.92182     154.4608      309.137      1.405     2.80     808.5797     54.52295     495.7704        21     1.179     0.926 -39.37   0
       564   1010.5281    202.2328 307.5127287  +6.6225446     1978.492     2618.727     2729.779     77.41492     154.7069     309.3216      1.446     3.12     807.6421     54.52295     307.9315        15     1.134     0.776 -52.31   0
       565    906.3203    201.7000 307.5560380  +6.6192840     8248.935     11289.66     12009.85     77.29194     154.9527     309.3523      1.422     2.69     809.9888     54.52295     1260.746        32     1.258     1.031 -45.86   0
       566    449.7266    200.8050 307.7457462  +6.6043586     5214.219     7597.729     8121.134     77.16876     154.2759     309.2293      1.551     2.91     810.2991     54.52295     746.5022        29     1.289     1.041 -46.48   0
       567    224.1942    197.3643 307.8395486  +6.5981979      741.378     1057.797     1193.549     76.67409     154.4608     309.1062      1.492     3.27     817.7848     54.52295     112.3344         6     0.721     0.638 -55.55   0
       568    107.1769    192.0436 307.8883363  +6.5964543     5109.558     7392.568     7520.885     77.04539     154.5839      309.137      1.525     3.09     820.7657     54.52295     757.3553        28     1.255     1.059 -44.92   0
       569    926.8276    191.3481 307.5478660  +6.6242436     951.5147     1356.663     1378.823     77.16876     154.8298       309.26      1.333     2.95      809.287     54.52295     141.1044         9     0.939     0.619 -50.87   0
       570    277.4995    188.6692 307.8176995  +6.6035815     36543.27     52561.76     55001.61      77.5377     154.8298     309.2908      1.575     2.99     816.6996     54.52295     5059.679        63     1.468     1.196 -51.01   0
       571    252.7281    189.7817 307.8279519  +6.6022889     6981.998      10257.4     10934.61     77.04539     154.6454       309.26      1.556     2.97     817.1506     54.52295     1064.201        34     1.331     1.102 -47.70   0
       572    603.1856    190.3351 307.6823499  +6.6138303     552.7469     999.0507     1022.662     77.04539     154.5839       309.26      1.747     4.64     809.8916     54.52295     90.71436         6     1.156     0.528 -64.09   0
       573    706.5507    188.1804 307.6394822  +6.6181833     968.0256     1307.802     1969.427     77.04539     154.7684     309.1678      1.477     3.02     810.5714     54.52295     158.3001         7     0.839     0.597 -14.53   0
       574    401.5781    184.2044 307.7663073  +6.6095959     53401.16     77466.05     80978.81     77.16876     154.4608     309.1062      1.554     3.03     811.5193     54.52295     7470.995        67     1.470     1.199 -48.55   0
       575    157.5574    185.3501 307.8676352  +6.6009151     4316.973     6153.174     6323.368     77.66029     154.7069     309.3216      1.536     3.08      818.978     54.52295     603.8984        27     1.314     1.017 -45.55   0
       576    418.7083    184.8511 307.7591694  +6.6099043     1495.443     1919.909     2124.374     77.41492     154.5839      309.506      1.406     2.88     810.7665     54.52295     257.3121        13     0.977     0.830 -21.39   0
       577    305.5832    181.9014 307.8062620  +6.6073204     19468.98     28168.86     29625.12      77.5377     154.5223      309.137      1.565     2.97     815.7675     54.52295     2744.645        48     1.426     1.145 -51.03   0
       578    740.8530    180.4551 307.6254918  +6.6225216     36348.57     50267.35     52597.02     77.78268     154.7069     309.2908      1.486     2.79     810.2253     54.52295     5239.581        61     1.409     1.162 -49.63   0
       579    688.6474    182.2262 307.6471199  +6.6200422     1216.017     1881.871     2025.418     77.16876     154.7684     309.2293      1.725     4.34     810.4564     54.52295     163.6803        14     1.039     1.002  43.10   0
       580    313.2943    181.3152 307.8030786  +6.6078217     1996.735     3594.443     4497.189     77.41492     155.0754     309.4445      2.067     7.29      815.462     54.52295        325.1        24     1.990     0.916 -63.10   0
       581    789.1032    181.1404 307.6054241  +6.6238536     1395.468      1780.72     2365.637     77.29194     154.7069     309.4138      1.339     3.47     810.1066     54.52295     215.4597        14     1.179     0.834 -47.64   0
       582     28.2179    180.5486 307.9215238  +6.5985389     678.3281      991.632     1002.469     77.04539     154.7684     309.0754      1.426     5.22     823.5589     54.52295     95.40094         8     1.014     0.759  26.51   0
       583     57.6378    177.5912 307.9094033  +6.6007519     9994.988     14344.53     14670.08     76.79806     154.4608     309.0754      1.556     2.97     822.3998     54.52295     1422.223        39     1.396     1.106 -50.58   0
       584     91.5557    175.7698 307.8953758  +6.6026472     1479.902      1985.64     2339.509     77.16876     154.7069     309.1985      1.422     3.23     820.9974     54.52295     253.2344        14     1.100     0.826 -41.64   0
       585    999.2955    174.8982 307.5183118  +6.6334564     1226.641     1822.854     2506.006      77.5377     155.2593     309.1678      1.521     3.65      805.506     54.52295     221.2282        12     1.201     0.690 -41.20   0
       586    967.5842    174.1401 307.5315114  +6.6327105     656.9318     739.1111     744.0381     77.04539     154.6454     309.0754      1.229     3.76     806.9589     54.52295     131.7441         7     1.041     0.542  16.52   0
       587   1002.1731    166.5991 307.5173946  +6.6369793     581.2408     990.0808     1381.233     77.16876     154.3992      309.137      2.576     5.62     804.6237     54.52295     93.90674         6     1.335     0.667 -81.03   3
       588   1000.1949    161.2303 307.5183964  +6.6391300     2328.698     3130.002     3533.306     77.04539     154.5223     309.1062      1.408     2.69     804.1965     54.52295     355.8425        16     1.115     0.800 -65.30   2
       589    574.7112    165.3007 307.6950218  +6.6232123     880.8113     1045.752     818.2961      77.5377     155.1367     309.2908      1.249     4.38     808.8474     54.52295     129.4806         8     0.948     0.727  18.49   0
       590    583.3173    158.7873 307.6916659  +6.6261903     1096.552     1556.397      1354.69     77.16876     154.4608     309.1678      1.372     3.16     808.8607     54.52295     167.9469        12     1.009     0.761 -29.95   0
       591    591.5886    156.8630 307.6882945  +6.6272621     2214.952      3111.58     3046.552     77.04539     154.5223     309.1985      1.531     3.22     808.9886     54.52295     285.0386        16     1.086     0.897 -40.40   0
       592    335.8062    157.0165 307.7945472  +6.6186114     1045.003     1402.475     1573.139     77.16876     154.4608     309.1678      1.433     4.44     813.9893     54.52295     154.0783        12     1.325     0.639 -42.30   0
       593    276.3831    154.9746 307.8193012  +6.6174562     32548.88     47780.85     50361.15     77.29194     154.5223       309.26      1.558     3.00     816.5759     54.52295      4539.38        62     1.469     1.215 -48.75   0
       594     21.6787    153.3670 307.9251604  +6.6095412      4866.25     7217.854     7457.336     77.41492     154.7069     309.3216      1.584     3.14     823.9533     54.52295     657.4835        28     1.327     1.033 -56.04   0
       595    708.0402    151.6023 307.6400935  +6.6333365     8833.303     12302.46     13036.55     76.79806     154.4608     309.0754      1.453     2.76     809.3496     54.52295     1428.814        31     1.248     1.042 -51.19   0
       596    185.7659    152.6883 307.8570217  +6.6153507     879.5341     1192.992     558.8328     77.66029     154.6454     309.3216      1.371     3.06     817.8099     54.52295     157.2682         9     0.860     0.757 -89.92   0
       597    262.2182    149.9202 307.8253563  +6.6190666     956.5801     1308.433     1654.811     77.16876     154.3992     309.2293      1.530     4.10     816.6943     54.52295     129.7428        12     1.098     0.787 -60.25   0
       598    118.7465    148.6771 307.8849974  +6.6147496     5307.075     7762.334      8016.94     77.66029     154.7069     309.3523      1.563     2.98     819.4201     54.52295     788.1835        31     1.338     1.070 -49.94   0
       599    646.2950    145.8454 307.6659385  +6.6336451     852.8394      1295.66     1026.991     77.41492     154.6454     309.4445      1.569     5.06      809.171     54.52295     119.9251        10     1.230     0.775 -44.38   0
       600    580.8066    146.6661 307.6931171  +6.6311110     809.3707      1267.21     1185.636     77.04539     154.4608      309.137      1.479     3.82     808.4612     54.52295     128.2084        10     1.058     0.644 -40.29   0
       601    389.3892    144.8123 307.7726997  +6.6254513       4026.6      6397.61      6651.93     77.29194     154.4608     309.2908      1.712     3.60     811.3816     54.52295      494.301        29     1.399     1.150 -77.34   0
       602    457.7039    145.9904 307.7442803  +6.6272593      1596.76     2196.694     2050.198     77.29194     154.3375     309.1062      1.501     3.22     808.7527     54.52295     251.5818        12     1.014     0.780 -34.72   0
       603    566.0164    143.8522 307.6993562  +6.6317768      683.345     1055.375     1300.736     77.04539     154.7684     309.0446      1.605     5.05      808.106     54.52295     111.8784         9     1.453     0.496 -51.56   0
       604    353.8264    143.6211 307.7875134  +6.6247480     3546.212     5179.738     5412.274     77.16876     154.5223       309.26      1.554     2.94     813.1524     54.52295     502.3189        25     1.328     1.073 -76.57   0
       605    108.2323    143.4362 307.8895423  +6.6165593     1841.867     2668.668     2710.763     77.16876     154.4608     309.0754      1.560     3.27     819.5796     54.52295     268.7834        17     1.178     0.904 -55.42   0
       606    669.8522    141.4145 307.6563011  +6.6362639     785.5776     960.3269     846.9685     76.92182     154.6454     309.0754      1.239     3.38     809.0396     54.52295     116.7296         7     0.829     0.628 -74.74   0
       607     46.9649    139.9450 307.9151110  +6.6159357     451.3522     481.5897    -179.4335     77.41492     154.7069     309.3523      1.421     4.83     822.3304     54.52295     78.49493         6     1.256     0.527  13.44   0
       608   1000.9567    137.7824 307.5188663  +6.6488374     1726.903     2491.118     2809.201     77.04539     154.5839     309.1062      1.513     3.00     803.9213     54.52295     285.1309        15     1.034     0.914 -47.01   0
       609    726.8240    138.1059 307.6327438  +6.6395382     634.9415     934.4689     649.9633     77.66029     154.4608     309.1678      1.357     2.49      808.501     54.52295     131.1536         6     0.744     0.539 -49.85   0
       610    205.8246    132.5720 307.8493690  +6.6243318     5985.644     8581.278     8783.796     77.04539     154.5223     309.1678      1.527     3.08     817.1324     54.52295     801.5693        31     1.361     1.053 -47.78   0
       611    667.6017    131.4026 307.6575729  +6.6403225      7004.14     9740.019     9920.137     76.92182     154.2759     309.0754      1.486     2.88     808.4767     54.52295      1016.35        29     1.243     1.005 -51.92   0
       612     88.4633    132.2706 307.8981322  +6.6205032     2349.208     3482.628      3840.21      77.5377     154.7069     309.3523      1.589     3.12     820.0281     54.52295     324.1449        18     1.210     0.873 -51.70   0
       613    844.8541    132.2802 307.5839043  +6.6458932     586.4083     867.7925     1259.033      77.5377     154.7069     309.3831      1.643     4.34     807.4681     54.52295     83.35248         5     0.749     0.717 -10.00   0
       614    815.7320    131.1901 307.5960398  +6.6453693      1275.07     1821.204     2119.071     77.04539     154.5223     309.1678      1.460     3.16     807.4739     54.52295     202.6968        10     0.979     0.758 -23.68   0
       615    619.8320    128.6349 307.6775116  +6.6398645     10150.13     14478.26     15843.65     77.16876     154.4608     309.0754      1.535     2.78     808.3282     54.52295     1512.006        36     1.372     1.054 -57.23   3
       616    623.3187    120.1363 307.6763491  +6.6434904     58595.46      82547.7     86732.34     77.66029     154.7684     309.3216      1.502     2.84     807.9611     54.52295     8197.838        73     1.456     1.189 -49.23   2
       617    254.8344    128.9287 307.8291327  +6.6274855     787.6073      1123.32     1106.945     77.41492     154.6454     309.3216      1.495     3.48     816.5287     54.52295     127.4532         8     0.842     0.658 -49.89   0
       618    557.5562    127.9547 307.7034063  +6.6380571     715.1523      1142.41     1967.134      77.5377     154.7069       309.26      1.873     4.31     807.5788     54.52295       96.961         8     1.075     0.764   9.29   0
       619     18.4568    127.7143 307.9273674  +6.6200241      1161.37     1872.447     1751.426      77.5377     154.7069     309.4753      1.606     5.07     823.4358     54.52295     176.5267        14     1.428     0.771 -49.90   0
       620    347.0793    124.1991 307.7909718  +6.6325405     3759.378     6499.772     6969.093     76.79806     154.1525     309.0754      1.885     4.22     813.6074     54.52295      569.262        33     1.699     1.076 -47.89   0
       621    528.8052    123.6031 307.7154971  +6.6388894     2061.327     3000.073     2915.323     76.92182     154.3992     309.1678      1.507     3.27     807.4938     54.52295     314.0231        18     1.154     0.953 -59.47   0
       622    993.2604    123.2934 307.5225497  +6.6545631     904.0659     1391.439     1630.053     77.41492     154.6454     309.3523      1.779     3.58     804.0396     54.52295     160.3312         9     1.137     0.531 -40.02   0
       623    302.4148    113.9073 307.8098741  +6.6352882      3850.93     5776.583     5709.518     77.29194     154.5223      309.137      1.563     3.15     815.4397     54.52295     517.1388        26     1.337     0.977 -45.35   0
       624    497.7521    111.3481 307.7288108  +6.6429075     482.7757     611.0685     410.0459     77.66029     154.5839     309.3216      1.191     2.91     807.7509     54.52295     94.92786         5     0.726     0.452 -15.21   0
       625      1.9449     96.4430 307.9352855  +6.6323785     446095.8     631510.3     676242.2     74.02282       131.58     242.3863      1.559    11.01     823.3347     54.52295     62852.89       274     2.278     1.482 -85.83  28
       626    702.2103    108.7096 307.6439582  +6.6508518     1099.783     1477.012     1555.226     77.29194     154.3992     309.1062      1.434     2.77     807.1683     54.52295     196.0586         9     0.857     0.714 -74.87   0
       627    673.7233    107.4882 307.6558343  +6.6504019     1555.351     1911.236     1990.708      77.5377      155.014     309.3831      1.269     2.83     807.1147     54.52295     245.9852        12     1.029     0.715 -61.00   0
       628    687.6818    104.1210 307.6501485  +6.6522598     3465.603     4929.455     5001.173     77.66029     154.9527      309.506      1.519     2.94     806.9262     54.52295     517.4843        21     1.182     0.932 -55.64   0
       629    429.4796     95.1484 307.7577202  +6.6473040      4620.43     6522.173     6728.403      77.5377     154.7069     309.3216      1.501     2.90     809.2297     54.52295     651.0317        26     1.260     1.013 -44.54   0
       630    902.0549     90.4870 307.5615431  +6.6650623     4192.068     5752.091     5872.939      77.5377     154.5839     309.4753      1.425     2.85     804.6999     54.52295     695.0209        23     1.258     0.889 -49.79   0
       631    884.1000     91.3369 307.5689742  +6.6641112     2448.727     3446.311     3170.892     77.29194     154.7069     309.3523      1.495     3.03     805.0888     54.52295     365.1917        17     1.143     0.860 -49.23   0
       632    582.1282     91.0874 307.6944397  +6.6541038     830.1179     1159.657     1351.557     77.66029     154.9527     309.3216      1.480     3.15     806.7922     54.52295     140.2402         8     0.829     0.644 -42.62   0
       633    594.0903     89.1763 307.6895343  +6.6552940     1930.493     2882.252     2955.732      77.5377     154.5223     309.1678      1.532     2.95     806.7944     54.52295     305.1765        17     1.068     0.926 -39.29   0
       634    392.8265     86.9188 307.7732250  +6.6494707     1988.928     2905.687     2522.085     77.41492     154.5223     309.3523      1.492     3.32     811.0986     54.52295     294.0009        17     1.182     0.830 -39.02   0
       635    140.9013     83.8287 307.8779876  +6.6422710     3485.932     5127.833     5414.362      77.5377     154.4608     309.3216      1.521     2.95     816.8597     54.52295     542.8433        24     1.203     1.090 -38.76   0
       636     22.6571     81.5674 307.9271852  +6.6392191     13464.65     19644.84     21703.77     77.41492     154.7684     309.2908      1.602     3.03     821.6672     54.52295     1843.066        49     1.486     1.200 -60.72   0
       637    289.0724     82.1283 307.8164902  +6.6479607     1358.062     1987.772     2475.058     77.78268     154.8298     309.3216      1.637     3.65     815.7333     54.52295      215.155        13     1.192     0.726 -35.88   0
       638    562.0972     81.3683 307.7030890  +6.6574450     842.9535     860.8439     715.3614     77.66029     154.5223     309.4138      1.256     3.44     806.3845     54.52295     122.2109        10     0.881     0.830  42.59   0
       639    549.4907     81.5732 307.7083195  +6.6569375     899.5212     1282.314     905.5266     77.66029     154.4608     309.1985      1.586     4.39     806.3524     54.52295     143.3641         9     1.059     0.694 -48.45   0
       640    239.9672     88.1169 307.8366878  +6.6438360     1064.972     1577.662     2467.437      77.5377     154.5223       309.26      1.827     3.20     816.2156     54.52295     183.7673        10     1.030     0.668 -22.80   0
       641    943.5320     80.8241 307.5446349  +6.6704382     608.7204     922.4261     1145.623     77.16876     154.5839     309.2908      1.662     3.79     803.6284     54.52295     115.7902         6     0.827     0.497 -86.34   0
       642    757.6390     81.0350 307.6218605  +6.6641347     797.2636     1141.571     1926.797     77.29194     154.5839      309.137      1.558     2.88     805.7957     54.52295      120.397         7     0.748     0.618 -65.00   0
       643    151.9542     80.0585 307.8735234  +6.6442000     478.0182     702.9882     843.1213      77.5377     154.7069     309.4138      1.316     3.66     816.4946     54.52295     83.47095         5     0.638     0.603  86.50   0
       644    824.3701     76.2839 307.5942957  +6.6683294     6725.224     9296.202     10172.23      77.5377     154.5223     309.1985      1.467     2.73     805.1598     54.52295     978.0835        29     1.286     1.003 -52.55   0
       645    769.3062     76.5230 307.6171649  +6.6663882     3694.188     5216.723     5187.951     77.29194     154.8913     309.3523      1.513     2.95     805.5726     54.52295     549.0516        24     1.234     1.020 -61.22   0
       646    414.6676     77.3273 307.7644748  +6.6541648     1011.518     1306.255     1010.722     77.66029     154.8298     309.3216      1.377     3.25     809.6623     54.52295     160.8093         9     0.866     0.749 -78.48   0
       647    891.3982     77.4129 307.5664095  +6.6701045     778.7205     1066.755     893.7879     77.16876     154.3992     309.1062      1.293     3.34     804.5318     54.52295     127.3345         6     0.838     0.521 -45.16   0
       648     94.0022     76.9757 307.8977024  +6.6435203     562.4756     766.0354     472.6934     77.16876     154.3992      309.137      1.391     2.38     818.0192     54.52295     106.6535         5     0.628     0.566   0.04   0
       649    915.8132     76.3624 307.5563010  +6.6713543     468.2695     629.4274     148.4639     77.04539     154.5223     309.0446      1.105     2.51     804.0131     54.52295     99.07172         5     0.724     0.442 -19.28   0
       650    756.2875     75.9403 307.6225933  +6.6661930     665.6975     1256.322     1707.795      77.5377     154.8298     309.4138      1.786     3.94     805.6675     54.52295     124.8445         6     0.913     0.500 -53.99   0
       651    531.8544     74.6951 307.7158782  +6.6591858     1322.016     1899.015     1728.494     77.41492     154.6454     309.5367      1.498     4.01      806.427     54.52295     153.5986        11     1.035     0.739 -47.03   0
       652     62.8919     73.3707 307.9107484  +6.6439601     3476.482      5037.11     5178.271     77.66029     154.4608     309.2293      1.556     2.94      819.383     54.52295     515.3726        24     1.252     1.003 -60.14   0
       653     47.7113     74.2678 307.9170243  +6.6430778     1068.259     1451.866     1315.897     77.66029     154.8913     309.2908      1.401     3.76     820.1367     54.52295     160.4224        10     1.222     0.564 -60.37   0
       654    652.1367     73.8759 307.6659337  +6.6635572     471.6038     637.8336     660.8856     77.78268     154.7069     309.2908      1.467     4.39     806.1056     54.52295     84.14832         5     0.859     0.640 -43.74   0
       655    424.0544     73.2982 307.7607110  +6.6561437     973.9945     1321.806     1305.059     77.41492     154.7069     309.5367      1.470     3.12     809.3069     54.52295      178.796         9     0.930     0.756 -50.01   0
       656    586.8013     70.0658 307.6932062  +6.6629403     1427.731     1844.331     1731.358     76.92182     154.3375     309.1062      1.399     3.23     806.1493     54.52295     276.6884        13     1.185     0.726 -45.84   0
       657      5.4678     68.9411 307.9347535  +6.6438524       2807.5      4117.38     4680.241     77.66029     154.6454     288.2444      1.668     3.21      821.975     54.52295     386.4584        22     1.240     1.011 -53.21  16
       658    713.6857     66.6420 307.6406056  +6.6686060     564.9341     870.0665     1128.655      77.5377     154.5839     309.3216      1.445     3.90     805.6417     54.52295     93.26062         6     0.879     0.495 -45.99   0
       659    763.9739     64.1213 307.6197972  +6.6713304     2154.019     2956.502     3163.993     77.41492     154.6454       309.26      1.431     3.21     805.2521     54.52295     313.3978        16     1.104     0.863 -66.56   0
       660    404.9576     64.2031 307.7689516  +6.6592575     1217.235     1837.721     1863.243     76.92182     154.2759     309.0446      1.623     3.72     810.3828     54.52295     188.4263        14     1.151     0.840 -51.44   0
       661     77.8901     64.8355 307.9048066  +6.6479897     941.6179     1026.498     1217.013     77.66029     154.6454     309.3216      1.275     4.49     818.4104     54.52295     114.7634         8     0.838     0.684 -39.47   0
       662    101.9682     63.0351 307.8948649  +6.6495446     984.5051     1254.655     850.5505     77.16876     154.4608     309.0754      1.348     3.47     817.3592     54.52295     143.5262         9     0.813     0.755 -36.17   0
       663     90.7010     57.7425 307.8997247  +6.6513501     10142.32     14817.87     15246.96     77.29194     154.7069      309.506      1.577     3.02     817.5991     54.52295     1364.719        37     1.364     1.111 -53.78   0
       664    419.8333     57.5547 307.7629957  +6.6625023     2786.638     3873.473     3745.193     77.16876     154.7069     309.1985      1.440     3.03     809.4187     54.52295       443.72        18     1.180     0.846 -45.17   0
       665    240.3010     57.1333 307.8375961  +6.6566400      672.861      1094.94      1423.76      77.5377     154.8298     309.3216      1.529     5.28     815.8904     54.52295     109.4406         7     1.199     0.657  -5.99   0
       666    633.4847     49.8663 307.6744910  +6.6728457     20443.24     28201.42     29586.82     77.66029     154.9527     309.3831      1.470     2.83     805.4866     54.52295     2938.804        43     1.303     1.113 -52.76   0
       667    257.3535     51.5219 307.8307014  +6.6595307     1602.843     2399.331     3161.589      77.5377     154.7684     309.2908      1.690     3.40     815.7815     54.52295     216.7825        16     1.129     0.913 -58.84   0
       668    533.2329     45.8979 307.7162759  +6.6711223     5684.177     8297.962     8560.683      77.5377     154.5839     309.4445      1.540     3.01     805.6431     54.52295     858.0175        27     1.301     1.016 -53.90   0
       669    251.3597     46.1580 307.8333728  +6.6615437     1935.963      3003.05     4476.569     77.29194     154.7069     309.1985      1.765     3.63       815.75     54.52295     242.9493        17     1.252     0.831 -51.39   0
       670    769.9711     45.0017 307.6179483  +6.6794257     514.1564     753.5991     626.8422     77.04539     154.5223     309.1062      1.510     3.69     804.6892     54.52295     68.38007         5     0.641     0.612  89.92   0
       671    620.9538     43.7750 307.6799023  +6.6749408     953.5725     1473.902     2158.596     77.16876     154.7684     309.1985      1.506     3.12     805.3226     54.52295     178.3069         9     0.942     0.654 -56.14   3
       672    619.6525     39.5530 307.6805851  +6.6766404     3666.393     5344.187     6053.932     77.66029     154.6454     309.3523      1.568     3.03     805.1943     54.52295     515.7865        24     1.203     1.073 -63.44   2
       673      1.3279     43.9094 307.9373212  +6.6540478     889.3615     1055.062     1076.281     67.29113     123.1398     232.6131      1.370     3.25     821.0307     54.52295     196.7057         9     1.144     0.460 -84.83  24
       674    438.8167     41.5174 307.7556499  +6.6697616     25022.92      35663.2     36687.81     77.16876     154.3992     309.2293      1.535     2.93      808.632     54.52295     3576.695        52     1.422     1.133 -51.02   0
       675    259.3489     41.8898 307.8301979  +6.6635749     9747.391     14407.66        15717      77.5377     154.5223     309.4445      1.561     3.03     815.7031     54.52295     1344.255        37     1.389     1.092 -58.66   0
       676    916.6533     41.6336 307.5571178  +6.6857221     2259.517     3254.663     3560.305     77.41492     154.7069     309.2293      1.586     2.75     803.0046     54.52295     364.6546        17     1.163     0.842 -59.11   0
       677    319.3976     42.1011 307.8052435  +6.6655074     1152.874     1658.196     1810.678     77.04539     154.4608     309.0139      1.436     3.59     815.0928     54.52295     194.6999        12     1.072     0.815 -62.53   0
       678    552.0640     41.1079 307.7086136  +6.6737319     773.6763     1132.192     698.0556      77.5377     154.8913     309.3831      1.437     5.47     805.1956     54.52295     124.9218        10     1.170     0.721 -61.02   0
       679    524.5334     41.5503 307.7200367  +6.6726256     748.1649     1020.875     1343.861     77.41492     154.5839       309.26      1.747     5.00     805.7514     54.52295     111.8735         8     0.903     0.784 -46.94   0
       680     24.8447     41.3721 307.9276375  +6.6558887      2688.19     3771.748     3588.593     77.16876     154.7684     309.2293      1.486     3.28      819.881     54.52295     357.6549        19     1.215     0.882 -53.86   0
       681    247.3342     38.4936 307.8353041  +6.6645728     3309.842     4957.841     6004.784      77.5377     154.8913     309.3216      1.657     3.03     815.6849     54.52295     432.3564        25     1.287     1.063 -18.62   0
       682    300.2783     36.8266 307.8133648  +6.6670423     1105.155     1667.238     2376.222     77.41492     154.6454       309.26      1.747     4.36     815.4555     54.52295     166.0894        12     1.099     0.904 -45.12   0
       683    937.3823     31.9746 307.5488294  +6.6904030     1145.264      1364.29     1088.288     77.16876     154.5839       309.26      1.395     3.49     802.1786     54.52295     200.8181        12     1.056     0.790 -68.72   0
       684    688.6708     31.0850 307.6521947  +6.6824497     2016.762     2827.737     3026.754     77.66029     154.9527     309.3523      1.496     3.02     804.7784     54.52295     303.7663        16     1.121     0.847 -65.24   0
       685     93.4185     31.7966 307.8994738  +6.6621543     611.3441     760.3394     203.5024     77.16876     154.2759      309.137      1.186     3.46     816.7438     54.52295     91.23407         5     0.763     0.453 -71.48   0
       686    254.3361     26.3156 307.8328067  +6.6698366     834.8578     1326.397     1880.749     77.66029     154.8298     309.3523      2.009     4.85     815.5822     54.52295     116.0731         9     1.214     0.610  82.11   0
       687    199.9377     26.9421 307.8553853  +6.6677469     719.4979     1147.825     1181.466     77.66029     154.6454     309.3523      1.492     4.17     815.5599     54.52295     128.6762         7     0.899     0.553 -48.90   0
       688    239.4629   1020.3079 307.8054213  +6.2589194     1389.905     2196.645     1762.136      77.5377     154.8298     279.7362      1.702     4.15     838.8245     54.52295     199.3658        18     1.238     1.108 -34.27  16
       689    922.4460     21.7676 307.5553778  +6.6941185     4500.176     6057.879     5865.936     77.29194     154.7069     309.2293      1.443     2.78     802.3325     54.52295     669.4993        21     1.101     0.944 -51.92   0
       690    521.1487     22.1310 307.7220974  +6.6805302     3415.663     4801.426      4747.08     77.41492     154.5839       309.26      1.447     2.99     805.3652     54.52295     529.0396        22     1.297     0.899 -43.19   0
       691    723.2503     20.4153 307.6381866  +6.6880134     2201.846     2994.143     2866.115     76.92182     154.7069     309.0754      1.411     2.92     804.1392     54.52295     317.3336        16     1.055     0.900 -41.10   0
       692    459.5350     20.5683 307.7477487  +6.6791071     2037.603      2932.42     2881.712     77.29194     154.7684       309.26      1.571     3.67     807.5068     54.52295     302.6287        18     1.312     0.841 -34.22   0
       693    709.1072   1020.8685 307.6104360  +6.2744417      1018.71     1698.538     2328.325     77.41492     153.4722     272.9548      1.868     3.88      838.354     54.52295     159.6414        11     1.001     0.848 -23.29  19
       694    714.7373   1018.4109 307.6081812  +6.2756449     2766.053     4258.744     5044.732     77.04539     154.5223     298.5549      1.700     3.30     838.1061     54.52295     354.5101        24     1.262     1.088 -41.41  18
       695    437.4077   1019.4691 307.7232771  +6.2659144     944.7765     1498.276     1409.702     77.04539     154.3992      288.772      1.666     3.70     840.0478     54.52295     139.0443        10     1.021     0.724 -52.75  16
       696    730.2869   1017.6599 307.6017511  +6.2764753     992.1293     1175.448     1248.501      77.5377     154.8298     304.3612      1.360     3.52      837.681     54.52295     155.0566        14     1.106     0.854 -64.43  16
       697    361.1711   1015.8499 307.7550473  +6.2648496     2045.001      2756.74     2933.629     77.16876     154.8298     309.2293      1.467     3.27     840.2639     54.52295     309.8033        18     1.127     0.927 -48.86   0
       698    543.6549   1005.8138 307.6796292  +6.2751161     4370.261      6873.72     7813.281     76.92182     154.6454     309.0754      1.729     3.47      839.814     54.52295     560.8267        31     1.439     1.088 -58.01   0
       699    513.9247   1007.1970 307.6919249  +6.2735483     1223.192     1600.752     1251.124     77.04539     154.2142     309.2293      1.411     3.28     839.9022     54.52295     182.0463        12     0.952     0.859  13.47   0
       700    293.7688   1004.5669 307.7834085  +6.2672442     15794.34     23512.15     25699.38     77.04539     154.4608     309.0754      1.635     3.28     839.6342     54.52295      2194.93        53     1.758     1.111 -39.43   0
       701    748.0521   1005.3593 307.5947888  +6.2821488     8163.669      12349.4     13398.73      77.5377     154.7684     309.2908      1.618     3.05      836.814     54.52295      1089.08        38     1.368     1.212 -44.45   0
       702    809.2820   1004.8676 307.5693852  +6.2843997     1220.573     1821.072     1749.996     77.66029     154.9527     309.3831      1.515     3.64     834.7926     54.52295     164.5923        14     1.049     0.923 -79.43   0
       703    417.7939   1005.2086 307.7318997  +6.2711444     1077.226     1381.994     962.2762     76.92182     154.5223     309.1678      1.329     3.41     839.7608     54.52295     168.2678        10     1.024     0.658 -66.70   0
       704    265.1577   1002.1210 307.7953683  +6.2672925     1053.052     1564.561     1243.368     77.41492     154.7069     309.3216      1.503     4.54     839.0093     54.52295     147.4664        11     1.093     0.772 -59.06   0
       705    909.3958    998.8525 307.5280234  +6.2902291     8540.706     13737.45     14332.54     76.92182     154.4608     308.9523      1.726     3.45     834.1512     54.52295     1078.628        41     1.484     1.215 -52.47   0
       706    540.7543    998.1049 307.6810927  +6.2782020     8835.987     12899.18     13952.46      77.5377     154.6454     309.4445      1.546     3.06     839.6752     54.52295     1254.722        35     1.423     1.010 -46.65   0
       707   1004.7637    994.5218 307.4885749  +6.2952013     4407.882     7608.278     8055.167     77.41492     154.7684     309.3216      1.877     3.80      829.906     54.52295     552.1389        35     1.471     1.309 -49.18   0
       708    882.9694    995.0214 307.5391232  +6.2909282     12192.06     19829.93      21420.3     77.04539     154.5223     309.1985      1.738     3.27     834.2627     54.52295     1642.914        51     1.540     1.284 -36.75   0
