#   1 NUMBER                 Running object number                                     
#   2 X_IMAGE                Object position along x                                    [pixel]
#   3 Y_IMAGE                Object position along y                                    [pixel]
#   4 ALPHA_J2000            Right ascension of barycenter (J2000)                      [deg]
#   5 DELTA_J2000            Declination of barycenter (J2000)                          [deg]
#   6 FLUX_APER              Flux vector within fixed circular aperture(s)              [count]
#   9 FLUXERR_APER           RMS error vector for aperture flux(es)                     [count]
#  12 FLUX_RADIUS            Fraction-of-light radii                                    [pixel]
#  13 FWHM_IMAGE             FWHM assuming a gaussian core                              [pixel]
#  14 BACKGROUND             Background at centroid position                            [count]
#  15 THRESHOLD              Detection threshold above background                       [count]
#  16 FLUX_MAX               Peak flux above background                                 [count]
#  17 ISOAREA_IMAGE          Isophotal area above Analysis threshold                    [pixel**2]
#  18 A_IMAGE                Profile RMS along major axis                               [pixel]
#  19 B_IMAGE                Profile RMS along minor axis                               [pixel]
#  20 THETA_IMAGE            Position angle (CCW/x)                                     [deg]
#  21 FLAGS                  Extraction flags                                          
         1     10.0539     70.2008 307.9362326  +6.6320441     734022.2      1799595      1975500     85.14501     170.9049     341.9462      2.323     5.92     1048.112     60.35163     62223.04       391     2.261     1.741 -80.13  28
         2    643.5955     23.0923 307.6745201  +6.6727779     16729.98     27828.64     29301.31     85.41835     170.9049     342.1506      1.788     3.92     1016.311     60.35163     2001.901        48     1.623     1.215 -82.02   0
         3    543.4266     19.2545 307.7162826  +6.6710060     4610.015     7917.425     7734.444     85.41835     171.3136     342.2188      1.842     4.17     1017.054     60.35163     563.5571        33     1.550     1.166 -84.44   0
         4    261.7588     19.5202 307.8333402  +6.6614400     1582.894     2670.196     3592.539     85.82673     171.2456     342.3549      1.954     4.99     1038.633     60.35163      206.222        19     1.366     1.025  80.58   1
         5    629.9346     13.7679 307.6805119  +6.6761699     2762.584     5091.723      5882.72     85.69082     171.3136     342.3549      2.147     6.85     1016.301     60.35163     338.1813        35     2.361     0.992  83.70  16
         6     10.9072     17.6670 307.9376570  +6.6537601     992.0931     1498.037     1212.511     85.69082     171.4496      342.423      1.611     5.29     1044.485     60.35163     137.7596        11     1.251     0.684  87.30   0
         7    448.9538     14.8220 307.7556974  +6.6696673     19049.18     34367.04     36042.77     85.41835     171.2456     342.2188      1.916     4.20     1020.973     60.35163     2098.934        57     1.712     1.319 -82.49   0
         8    269.5616     15.2490 307.8302416  +6.6634656     8092.226     14021.89     14501.44     85.82673     171.3136     342.2528      1.859     4.32     1038.598     60.35163     884.3579        39     1.624     1.204 -83.05   0
         9     34.9640     15.2019 307.9277427  +6.6555886     2024.131     3416.696     3552.623     84.87079     171.0412     342.1847      1.772     4.70     1043.038     60.35163     239.9755        19     1.409     0.937 -77.39   0
        10    926.7399     14.8597 307.5571103  +6.6856450     2147.283     3061.264     3119.117     85.82673     171.2456      342.423      1.569     3.79      1006.76     60.35163     284.6087        17     1.305     0.826  86.32   0
        11    534.4948     14.6331 307.7201506  +6.6726145     655.8387     1048.002      1186.45     85.96243     171.1094     342.4911      1.806     3.45      1017.27     60.35163     123.2595         5     1.065     0.600 -57.13   0
        12    257.4380     11.9410 307.8353920  +6.6644237     2715.971     4911.982     4558.092     85.82672     171.3136     342.4571      1.900     4.25     1038.638     60.35163     326.4291        28     1.489     1.142 -88.29   0
        13    310.7621     10.2150 307.8132881  +6.6669286     664.4462     1012.955     484.3569     85.55469     171.0412     342.1166      1.515     4.45     1035.495     60.35163     117.1813         6     0.963     0.586 -67.56   0
        14    947.1842      4.7755 307.5489510  +6.6904908     1076.827      1567.62     1589.206     85.55469     171.1094     310.5805      1.461     5.49     1004.115     60.35163     145.1146        14     1.294     0.782 -80.29  16
        15    698.7634      4.7212 307.6522084  +6.6822093     1756.449     2689.232     2648.697     85.69082     171.3136     309.9795      1.623     3.83     1013.975     60.35163     233.5489        18     1.191     1.006  84.61  16
        16    757.5536    998.9316 307.5943762  +6.2737096     1473.536     2019.007     2012.927     85.82672     171.1775     342.3549      1.556     4.37     1055.018     60.35163     233.2904        13     1.303     0.677 -69.00   0
        17    999.3405   1022.5757 307.4931660  +6.2720203     641.8636     576.3825     229.3082     85.41835     152.7552     276.3446      1.162     4.01     1052.718     60.35163     103.9462         6     0.972     0.474  89.83  24
        18    807.2549   1022.9367 307.5729293  +6.2654598     13815.74     16107.29     16703.27     83.48618     147.5545     270.4184      1.255     3.29     1054.295     60.35163     2724.372        22     1.091     0.853 -68.18  24
        19     77.8761   1023.1110 307.8758256  +6.2409327     6524.258     7764.768     8730.111     81.65109     145.0048      267.515      1.209     2.58     1063.051     60.35163     1356.557        19     0.984     0.919 -37.63  24
        20    206.9575    997.2428 307.8230951  +6.2559528     626.1386     758.6247     818.0446     85.55469     171.2456     342.2528      1.411     3.79     1062.701     60.35163     78.91296         5     0.832     0.497 -54.00   0
        21    964.9278    993.3091 307.5084383  +6.2829557     7772.726     10716.99      10995.9     85.69082     171.5176      342.389      1.462     3.22     1050.244     60.35163     1318.497        27     1.330     0.899 -85.04   0
        22    719.4023    993.9814 307.6103872  +6.2744778     1197.238     1537.242     2054.059     85.41835     170.7684     342.1166      1.340     3.24     1055.647     60.35163     191.1053         8     0.854     0.664 -45.78   0
        23    249.3386    993.4983 307.8056212  +6.2589227     1602.107     2270.129     1986.394      85.5547     171.2456     342.4911      1.508     3.87     1062.786     60.35163     217.3483        10     1.003     0.660 -88.25   0
        24    724.7099    991.3049 307.6082727  +6.2757603     3127.334     4511.535     4858.689     85.82673     171.7892      342.423      1.487     3.82     1055.507     60.35163     535.3984        20     1.386     0.730 -87.87   0
        25    448.0628    992.2527 307.7231344  +6.2661061     885.0192     1190.985     869.9501     85.82673     171.1775     342.3549      1.469     5.16     1061.923     60.35163     116.5193        10     1.105     0.681 -82.91   0
        26    740.4042    990.6728 307.6017758  +6.2765460     1316.401     1812.728     1954.145     85.41835     170.7685     342.2528      1.498     3.68     1055.289     60.35163     232.0905        13     1.292     0.670  87.06   0
        27    371.3752    989.0068 307.7550919  +6.2648741     1992.153     2865.659     2537.718     85.28178     171.1094     342.2188      1.483     3.37     1062.797     60.35163     306.7341        16     1.166     0.801 -77.65   0
        28    981.5385    986.5585 307.5017656  +6.2862969     769.2882     815.6328     274.9268     85.82673     171.2456     342.4571      1.359     4.36     1049.773     60.35163     115.5186         8     1.092     0.496  87.12   0
        29    709.1585    985.9911 307.6149099  +6.2774341      620.148     999.3359     1129.838     85.14501     171.0412     342.1165      1.914     5.28      1055.59     60.35163     91.52161         6     1.202     0.654 -82.68   0
        30    523.8137    980.3548 307.6920752  +6.2735570     1270.751     1754.755     1899.409     85.14501     171.0412     342.1506      1.433     4.90     1060.399     60.35163     194.4114        14     1.357     0.715 -81.84   0
        31    553.7086    979.0690 307.6797028  +6.2750894     4509.573     6499.963     7104.402     85.82673     171.3816      342.389      1.547     3.34      1059.99     60.35163     671.8621        20     1.323     0.827 -84.28   0
        32    758.2155    978.4653 307.5947883  +6.2821815     9299.606     12673.68     12977.53     85.28179     171.1094     342.2869      1.462     3.44     1054.514     60.35163     1545.609        29     1.329     0.907 -83.27   0
        33    304.0109    977.7220 307.7834483  +6.2672719     15959.38      23589.2     25054.43     85.41835     170.8367     342.2188      1.581     3.54      1062.91     60.35163     2464.073        50     1.687     1.174 -52.58   0
        34    428.3853    978.3990 307.7317729  +6.2711658     937.3178     1368.432     836.8267     85.41835     170.9049     342.1506      1.518     3.73     1062.044     60.35163      144.005         9     1.005     0.616  88.34   0
        35      1.1285    978.3362 307.9092100  +6.2568341     638.6141     921.0666     1078.653     71.77532     132.6638     253.8789      1.345     3.80     1062.995     60.35163     135.3458         6     1.267     0.327  86.73  24
        36    819.4133    977.7353 307.5693960  +6.2845279     1322.181     1511.766     998.4245     85.28179     171.0412     342.2869      1.301     3.81     1053.331     60.35163     220.5042         8     1.043     0.492  89.19   0
        37    274.7506    975.7012 307.7956681  +6.2671236     1024.396     1555.686     1997.736     85.82673     171.1775     342.5932      1.653     6.08     1062.878     60.35163     127.7701        13     1.317     0.966 -24.87   0
        38    919.4831    971.8102 307.5280330  +6.2903155     10430.43     14153.52     14647.87     85.41835     170.9731     342.2188      1.433     3.22     1050.349     60.35163     1482.036        30     1.418     0.864 -85.86   0
        39    637.4073    973.7910 307.6451191  +6.2800707     579.5817     684.7548      370.726     85.14501     171.0412     342.2528      1.262     2.53     1057.583     60.35163     114.2253         5     0.720     0.441 -67.70   0
        40    550.8710    971.2081 307.6811457  +6.2782397      9026.15     13121.56     14167.34     85.28178     170.7684     342.2528      1.526     3.29     1059.875     60.35163     1420.877        31     1.403     0.946 -84.53   0
        41    605.9850    968.8505 307.6583353  +6.2810586      1570.75      2417.33     2148.855     85.14501     171.2456     342.1165      1.656     5.66     1058.623     60.35163     242.1952        17     1.667     0.701 -86.01   0
        42     49.3731    971.3676 307.8894107  +6.2613352     629.3406     1148.656     1407.555     85.28179     170.9731     342.1847      2.209     3.83     1062.942     60.35163     100.9142         5     0.949     0.443  76.71   0
        43    893.1095    968.0873 307.5391115  +6.2909722     14303.24     19689.55     20623.94     85.55469     171.7213     342.5251      1.422     3.21     1051.257     60.35163     2374.307        37     1.382     1.017 -78.52   0
        44   1014.8335    967.4219 307.4885779  +6.2953080      5813.83     8182.864     8731.889     85.28179     171.0412     342.1506      1.512     3.41     1047.462     60.35163       923.37        26     1.351     0.892 -87.50   0
        45    537.2502    966.9648 307.6869453  +6.2795353     4398.903     6580.201     6893.977     85.69082     171.2456     342.3209      1.529     3.41     1060.023     60.35163     676.6846        25     1.355     0.915 -85.09   0
        46    646.7474    966.2357 307.6414939  +6.2835024       1554.3      2069.64     1960.155     85.69082     171.2456      342.389      1.473     3.83     1056.864     60.35163     237.5741        13     1.134     0.744 -80.18   0
        47     72.0658    965.5004 307.8801852  +6.2645211     928.7842     1204.697     1688.381     85.82672     171.3816     342.3549      1.400     3.94     1062.897     60.35163     164.8892        11     1.250     0.703 -80.22   0
        48    802.5837    964.8862 307.5768168  +6.2892705     667.7935     542.3406     690.4913     85.41835     170.9731     342.2869      1.177     4.44     1053.285     60.35163     93.21985         5     1.164     0.482  84.43   0
        49    490.4667    963.5405 307.7064903  +6.2793815     2487.202     3458.606     3446.427     85.96243     171.1775      342.389      1.525     3.81      1060.46     60.35163     360.2935        19     1.380     0.822 -89.85   0
        50    924.8921    955.5681 307.5263308  +6.2972018     52064.83     70143.48     72876.72     85.96242     171.0412      342.423      1.439     3.24     1049.759     60.35163     8724.117        59     1.474     0.995 -82.86   0
        51    232.2052    954.1041 307.8140656  +6.2746107      1803.63     2525.054     2746.257     85.55469     170.9049     342.1506      1.527     4.69     1062.726     60.35163     268.2683        16     1.453     0.726 -77.62   0
        52    631.1331    952.0759 307.6484547  +6.2888259     1087.869      1610.52      1456.51     85.96242     171.3136     342.3549      1.695     4.24     1056.862     60.35163     203.3105        10     1.082     0.660 -84.71   0
        53    120.0034    952.8607 307.8607044  +6.2713521     774.4619     969.6749       1261.6     85.14501     170.9731     342.0825      1.243     2.44     1062.764     60.35163      161.266         7     0.701     0.670  80.70   0
        54    771.0454    947.1573 307.5905105  +6.2955361     7388.903     10623.34     11706.02     85.82673     171.2456     342.3209      1.520     3.42     1053.551     60.35163     1244.538        28     1.437     0.876 -77.68   2
        55    822.8871    949.4259 307.5689029  +6.2963318     2731.108     3601.323     3203.961     85.96242     171.0412     342.3209      1.381     3.54     1052.491     60.35163     503.8407        17     1.277     0.744 -87.23   0
        56    240.5782    946.3956 307.8108484  +6.2780744      1495.77     2134.548     2191.504     85.41835     170.9731     342.1506      1.435     4.09     1062.758     60.35163     214.4924        13     1.280     0.663 -74.91   0
        57    557.7747    946.3738 307.6791138  +6.2887239     1072.807     1466.312     1765.937     85.28179     171.0412     342.2528      1.519     5.19     1059.103     60.35163     160.3154        10     1.179     0.721  88.32   0
        58    204.8545    946.0851 307.8256949  +6.2770022     890.6199      1191.14     1465.406     85.82673     171.2456     342.5592      1.369     4.13     1062.701     60.35163     128.9524         8     0.937     0.691  64.49   0
        59     65.4930    944.4247 307.8836270  +6.2730008     2969.241     4246.199     3953.967     85.96243     170.9731     342.2188      1.563     3.53     1062.864     60.35163     418.1536        21     1.339     0.845 -86.43   0
        60    959.2031    942.3373 307.5125234  +6.3038091     7960.654     10550.97     10775.84     85.14501     170.9731     342.1166      1.405     3.28     1047.811     60.35163      1394.13        26     1.343     0.808 -82.60   0
        61    215.3221    938.9890 307.8215872  +6.2802836     678.0327      913.697     1720.526     85.41835     170.8367     342.2188      1.438     2.94     1062.701     60.35163     133.2803         5     0.792     0.485 -34.70   0
        62    641.4942    936.9383 307.6446602  +6.2954223     786.8142     802.8375     977.0469     85.69082     171.3136      342.423      1.248     4.10     1056.022     60.35163      136.949         7     1.011     0.475  79.87   0
        63    933.0308    934.2060 307.5236663  +6.3062930     2299.848     3323.791      3155.31     85.14501     170.9731     342.1506      1.417     3.23      1048.96     60.35163     424.4528        17     1.274     0.754 -82.28   0
        64    792.6003    930.6049 307.5821135  +6.3030903     1574.682     2146.139     2301.029     85.14501     170.7685     342.1166      1.387     3.84     1052.909     60.35163     229.7883        14     1.211     0.736 -77.96   0
        65    653.7047    929.9951 307.6398221  +6.2986975     5099.477     7123.144     6843.124     85.55469     170.9049     342.1506      1.433     3.44     1055.629     60.35163     779.6556        22     1.368     0.809 -82.39   0
        66    265.9976    930.3825 307.8008318  +6.2855393     4761.202     7091.576     7403.823     85.41835     170.7684     342.1506      1.536     3.34     1062.846     60.35163     668.6588        26     1.318     0.979 -78.61   0
        67   1003.2659    929.8553 307.4946403  +6.3104322     928.4788     1229.266     961.3449     85.96242     171.1775      342.389      1.436     3.89     1044.473     60.35163     144.3488         9     1.064     0.701 -52.37   0
        68    475.9224    928.2134 307.7137199  +6.2934789     1266.497     1712.206     1253.802     85.41835     170.9049     342.1847      1.448     3.47      1059.82     60.35163       195.83        14     1.143     0.816  77.78   0
        69     34.8291    927.7849 307.8969239  +6.2788382     2448.947     3497.757     3096.705     85.41835     170.9731     342.3209      1.471     3.11     1062.956     60.35163     369.7471        18     1.213     0.814  89.72   0
        70    885.5383    926.4543 307.5436518  +6.3079082     1064.907     1399.387     808.9135     85.96243     171.1775     342.3549      1.300     4.29     1049.824     60.35163     166.3451         9     1.157     0.575  75.06   0
        71    977.4329    924.5609 307.5055473  +6.3117565     658.8433     803.0087     948.8718      85.5547     171.0412     342.1506      1.039     3.68     1045.923     60.35163     126.2435         6     0.924     0.424 -71.82   0
        72    956.8867    923.8212 307.5141058  +6.3113765     905.4228      1389.92     1350.407     85.82672     170.9731     342.2528      1.532     4.02     1047.096     60.35163     166.0885         9     0.962     0.689  84.49   0
        73    302.1006    923.8099 307.7860595  +6.2894653      944.103     1445.895     1205.242     85.55469     170.8367     342.1847      1.614     3.07     1062.846     60.35163     182.2228        10     0.949     0.707 -63.79   0
        74   1009.7518    922.1843 307.4922033  +6.3138156     934.5117     1589.483     2108.329     85.28179     171.2456     342.1506      1.745     5.49     1043.899     60.35163      147.854        10     1.572     0.541 -86.74   0
        75    578.4581    922.5320 307.6713252  +6.2992598     1980.895     3004.337     3357.207     85.96243     171.1775      342.389      1.648     3.61     1057.402     60.35163     296.6963        15     1.221     0.807 -84.05   0
        76    617.3516    918.8110 307.6552966  +6.3020982     1341.646     1775.451     1988.017     85.28179     171.1094     342.0484      1.456     3.80     1055.668     60.35163     198.4155        12     1.182     0.691  78.16   0
        77     67.5277    919.1476 307.8836363  +6.2835046     802.1516     1340.435     1833.182     85.69082     171.2456      342.423      1.829     4.36     1062.806     60.35163      147.267         7     1.112     0.487  83.81   0
        78    297.5136    916.9080 307.7881973  +6.2921607      1786.48      2627.28     2786.802     85.69082     171.7213     342.4911      1.585     4.19     1062.856     60.35163     237.7865        18     1.308     0.875 -75.33   0
        79    764.5339    912.6599 307.5943729  +6.3095611     998.5071     1439.877     990.2227     85.96242     171.1775      342.389      1.478     3.54     1052.553     60.35163     176.0339        10     1.004     0.795  67.17   0
        80    901.9556    909.2180 307.5374108  +6.3155725     8246.573      11348.3     11285.04     85.41835     171.1094     342.1166      1.421     3.36     1048.659     60.35163     1379.122        28     1.369     0.882 -86.20   0
        81    437.8315    906.5266 307.7302701  +6.3011552     2319.562       3462.5     3433.233     85.69082     171.2456      342.423      1.567     3.65     1060.268     60.35163     333.5051        18     1.247     0.886 -79.48   0
        82    339.4650    904.8685 307.7711800  +6.2985396     10198.82     14756.45     14792.33     85.82673     171.3136      342.423      1.535     3.40     1062.376     60.35163     1404.262        31     1.438     0.955 -81.42   0
        83    259.6652    903.7800 307.8043591  +6.2963094     7223.958     10854.31     10948.41     85.41835     171.2456     342.2188      1.594     3.57     1062.846     60.35163      1063.75        31     1.493     0.975 -82.16   0
        84    178.3940    902.0017 307.8381722  +6.2943123     584.0029     834.0352     516.3881       85.145     170.9049     342.1847      1.426     4.25     1062.696     60.35163     103.9377         5     1.166     0.442  78.86   0
        85    587.8987    898.2877 307.6682195  +6.3095853     1201.842     1770.032      1296.62     85.82673     171.7213      342.423      1.509     4.30     1056.021     60.35163     182.5737        13     1.191     0.725 -88.11   0
        86    771.8232    898.1624 307.5918319  +6.3157902     705.9854     975.5997     922.0269     85.41835     170.9731     342.1506      1.511     3.78     1051.755     60.35163     109.8568         5     0.916     0.448 -44.57   0
        87    917.7649    894.4418 307.5313396  +6.3222007     1170.019     1750.255     1406.233      85.5547     171.2456     342.2188      1.428     3.12     1047.302     60.35163     207.2869        11     1.053     0.667 -87.24   0
        88    150.3012    894.1554 307.8501044  +6.2966071     613.1413     1055.148     1340.406     85.82673     171.1775     342.6272      2.102     5.24     1062.658     60.35163     67.85583         7     1.295     0.599  71.95   0
        89    874.0172    893.9455 307.5495270  +6.3209452     716.8592     1051.388     885.2092     85.28179     171.1775     342.1165      1.635     3.29     1049.037     60.35163     150.7092         7     0.972     0.708 -15.62   0
        90    416.9408    892.7964 307.7394090  +6.3061231     648.3095     573.8239     535.8834     85.14501     171.1094     342.1166      1.139     3.44     1060.368     60.35163      149.842         5     0.965     0.389  60.07   0
        91    577.5027    887.8924 307.6728869  +6.3135290     779.3844     964.7693     1128.081     85.82672     171.7892     342.3209      1.404     5.71     1056.029     60.35163     127.7052         9     1.368     0.671 -61.33   0
        92    754.1575    887.4855 307.5995277  +6.3196077     1772.418     2579.802     2963.259     85.82673     171.1094      342.389      1.590     3.54      1051.69     60.35163     274.5845        15     1.156     0.836 -77.21   0
        93    618.2375    884.1102 307.6560951  +6.3164543     1038.584     1423.115     1004.834     85.82672     171.1775      342.423      1.523     4.16     1054.664     60.35163     148.5369        12     1.259     0.717 -54.19   0
        94    539.0513    883.4221 307.6890077  +6.3140866     1178.298     1513.222     1230.489     85.28178     171.2456     342.2528      1.441     5.05     1057.151     60.35163     166.4149        16     1.417     0.802 -79.29   0
        95      4.5524    884.5947 307.9109582  +6.2956493     1017.346     1355.336     1110.209     85.14501     171.0412     307.5258      1.403     3.23     1063.151     60.35163      148.069         7     0.958     0.654 -87.80  16
        96    985.1071    883.0937 307.5037487  +6.3291328     1592.618     2276.198     2180.532     85.82673     171.7892     342.3549      1.502     3.18     1044.451     60.35163     259.9435        13     1.067     0.793 -80.42   0
        97    629.8068    883.7358 307.6513025  +6.3169962     844.7184     1054.939      1048.39     85.28179     170.9731     342.1506      1.393     5.89     1054.484     60.35163     100.2498        11     1.019     0.957  25.55   0
        98    672.5660    880.8177 307.6336407  +6.3196318     2807.769     3954.104     3953.169     85.41835     171.0412     342.1847      1.534     3.44     1053.734     60.35163     401.5189        20     1.307     0.831 -81.33   0
        99   1023.8291    880.3552 307.4877567  +6.3315547     589.1833     771.7581     818.9308     71.93752     133.3648     254.6124      1.097     3.24      1043.27     60.35163     133.8193         5     0.925     0.369  85.14  24
       100     69.2543    877.0321 307.8843427  +6.3009497      3188.78      4752.99     5012.995     85.69082     171.3136     342.3549      1.634     3.64      1062.74     60.35163      418.228        25     1.426     0.971 -75.43   0
       101    570.4108    877.5943 307.6761788  +6.3175431      578.477     1011.763     1274.393     85.41835     171.0412     342.2869      1.896     4.50     1055.895     60.35163     77.81714         7     1.177     0.489  87.18   0
       102     86.7878    876.2722 307.8770865  +6.3018534     2037.576     3039.419     3672.001     85.28179     170.8367     342.1847      1.569     4.19     1062.618     60.35163     276.4879        19     1.414     0.882 -84.68   0
       103    950.8323    876.2493 307.5182144  +6.3308152     938.2693     1105.773     1525.128     85.55469     171.2456     342.3209      1.404     4.39     1045.158     60.35163     119.6318        12     1.182     0.767  86.01   0
       104    833.3863    877.1990 307.5669649  +6.3265022      905.988     1194.487     1319.343     85.41835     170.9049     342.1506      1.320     4.17     1049.482     60.35163     167.3138         7     0.880     0.563 -61.02   0
       105    212.8466    875.9612 307.8247425  +6.3062211     2261.966     3197.185     3347.778     85.69082     171.2456     342.2188      1.476     3.88     1062.769     60.35163     366.0864        17     1.327     0.795 -82.13   0
       106    246.5070    872.9926 307.8108626  +6.3085778     745.0998     1025.792     695.0417     85.41835     170.9049     342.1847      1.447     2.97     1062.846     60.35163     121.2173         6     0.773     0.494  82.65   0
       107    667.2016    869.8373 307.6362377  +6.3239857     7457.944     10979.12     11621.29     84.87079     171.0412     342.1506      1.545     3.31     1053.447     60.35163     1147.856        33     1.500     0.968 -86.92   0
       108    351.7928    871.9904 307.7671681  +6.3125270     936.0719      1288.14     1410.465     85.14501     170.9731     342.1847      1.573     5.16     1061.719     60.35163     138.1375         9     1.020     0.796  64.16   0
       109    804.5479    870.5383 307.5791667  +6.3282887     818.1911     1282.869      741.616     85.82673     171.1775     342.3549      1.592     4.67     1049.665     60.35163     150.9279         8     1.237     0.663 -83.55   0
       110     27.1608    868.3223 307.9021190  +6.3031285     1203.274     1580.515     1491.778     85.69082     171.3136      342.389      1.465     4.29     1063.023     60.35163     191.5944        11     1.171     0.862  87.01   0
       111     40.3723    866.8432 307.8966821  +6.3041839     1109.383      1604.32     1400.715     85.41835     171.3136     342.2869      1.572     4.78     1062.931     60.35163     176.6991        11     1.264     0.708 -89.64   0
       112    904.8964    866.1387 307.5376334  +6.3334565     3266.857     4359.325     5035.893     85.55469     171.3136     342.4571      1.420     3.36     1046.411     60.35163     584.7699        18     1.293     0.761 -83.76   0
       113    350.2597    863.0702 307.7681055  +6.3161583     16577.33     25169.93      26653.7     85.96242     171.2456      342.423      1.605     3.45     1061.598     60.35163     2308.402        44     1.515     1.081 -82.11   0
       114     84.7906    864.4703 307.8783148  +6.3066585     1276.668     1760.971     2485.653     85.28179     170.9049     342.2188      1.481     4.07     1062.591     60.35163      198.667        10     1.016     0.674  86.14   0
       115    221.1610    862.5573 307.8217417  +6.3120342     1382.421     2010.969     1599.206     85.55469     171.3136     342.2528      1.568     4.73     1062.796     60.35163     167.1226        14     1.264     0.787 -86.56   0
       116    679.9467    854.8827 307.6314465  +6.3305863     739.6276      1115.52      1983.01     85.82673     171.2456     342.4911      1.754     4.70     1052.514     60.35163     121.2955         7     1.131     0.554  14.62   0
       117    427.9288    854.1353 307.7361475  +6.3224530     1024.147     1515.123     1275.976     85.82673     171.3136      342.423      1.564     3.86     1059.043     60.35163     153.3815        10     1.014     0.754 -81.56   0
       118    113.5453    853.6389 307.8667384  +6.3120977     1708.866     2890.797     2668.275     85.82673     171.3136      342.389      1.826     3.71     1062.429     60.35163     236.8361        15     1.283     0.741 -83.38   0
       119    681.0891    850.1083 307.6311323  +6.3325956     916.7896      1756.82     1789.573     85.82673     171.7892     342.4911      1.911     5.92     1052.262     60.35163     140.7499         9     1.259     0.785 -58.48   0
       120    895.3450    847.8520 307.5422137  +6.3406876     2405.271     3206.499     3035.057     85.82673     171.2456     342.3549      1.461     3.47     1046.127     60.35163     379.7456        17     1.262     0.789 -85.26   0
       121    866.1329    847.3391 307.5543647  +6.3399240     2121.584     3194.759     3627.753     85.82673     171.1775      342.389      1.553     3.29     1047.417     60.35163     410.3165        19     1.434     0.783  89.66   0
       122    829.4864    846.8243 307.5696038  +6.3389125     3300.556     4466.631     4804.208     85.82673     171.0412     342.2188      1.424     3.38     1048.197     60.35163     513.0455        20     1.300     0.787 -88.95   0
       123     97.0539    847.4788 307.8737957  +6.3140860     2483.003     3541.513     3449.315     85.96242     171.2456      342.423      1.528     3.78     1062.256     60.35163      357.827        19     1.295     0.902 -82.46   0
       124    565.3165    838.2599 307.6796177  +6.3336119     342665.2     509997.5     531015.2     85.96242     171.3136      342.423      1.602     3.41     1054.294     60.35163     46396.04       145     1.664     1.202 -81.61   0
       125    653.0933    841.3063 307.6430565  +6.3352929     1145.816     1532.989     1568.176     85.82673     171.7892     342.3549      1.449     4.40     1052.298     60.35163      193.583        13     1.293     0.683 -80.46   0
       126    352.7800    839.2985 307.7678600  +6.3260570      12646.6     19304.25     19883.94     85.69082     171.1094     342.1166      1.633     3.41     1060.864     60.35163     1714.729        40     1.504     1.097 -88.47   0
       127    671.1413    835.6226 307.6357510  +6.3382434     3715.798     5484.508     5885.551     85.41835     171.2456     342.2188      1.561     3.36     1051.841     60.35163     540.9725        25     1.398     0.928 -72.29   0
       128    903.6240    834.3253 307.5392283  +6.3465486     5961.964     7917.032     8545.526     85.41835     171.0412     342.3209      1.378     3.33     1045.124     60.35163     891.4635        22     1.315     0.793 -85.14   0
       129    742.4905    832.0939 307.6062335  +6.3420866      899.416     1303.197     1372.301     85.82672     171.7892      342.389      1.569     4.72     1050.033     60.35163     145.0059         9     1.141     0.698 -67.08   0
       130    645.9844    829.3728 307.6464103  +6.3399818     3511.433     5173.291     5700.763     85.41835     171.0412     342.2869      1.550     3.85     1051.757     60.35163     512.5944        22     1.381     0.871 -78.42   0
       131    189.1494    830.0020 307.8361360  +6.3243985      564.645     720.3942     554.3461     85.14501     170.8367     341.9462      1.439     4.00      1062.61     60.35163     88.85925         6     1.281     0.356 -89.99   0
       132    834.3337    828.9359 307.5681904  +6.3464599     1712.172     2420.432       2711.7     85.82672     171.2456      342.423      1.449     3.38       1047.2     60.35163     277.1658        13     1.197     0.658 -73.07   0
       133    409.5738    840.8911 307.7442173  +6.3273052     7691.542     11610.63     11795.92     85.96242     170.9731     342.2188      1.604     3.46     1058.915     60.35163     1058.376        32     1.488     0.992 -80.06   0
       134    947.6169    828.1426 307.5211619  +6.3505695     581.4143     825.4131     941.0047     85.28178     171.1775     342.1166      1.392     4.23     1043.621     60.35163     103.1515         6     1.272     0.402 -76.91   0
       135    638.8273    824.3391 307.6495523  +6.3418205     2290.934     3722.725     4909.089     85.41835     171.3136     342.2528      2.095     4.30     1051.557     60.35163     300.1448        18     1.342     0.836 -64.96   2
       136    961.4318    827.6261 307.5154408  +6.3512437     867.9712     1232.037      902.566     85.28179     170.9731     342.2188      1.436     3.71     1043.376     60.35163     153.2362         6     1.030     0.385 -70.94   0
       137    922.4636    822.2751 307.5318067  +6.3521525     3810.021     4769.918     4140.298      86.0979     171.2456     342.3549      1.381     3.33     1044.039     60.35163     525.2372        20     1.278     0.814 -84.48   0
       138    332.7392    822.9945 307.7767335  +6.3321154     886.6503     1367.031     1531.085     85.14501     171.1094     342.1506      1.557     4.90      1061.18     60.35163     107.4764         8     1.030     0.661  76.76   0
       139    380.5749    818.3642 307.7570210  +6.3356325     2707.477     4041.995     4450.518     85.41835     171.0412     342.1166      1.633     3.44     1059.148     60.35163     354.7433        21     1.336     0.915 -89.80   0
       140    517.0035    807.8913 307.7007068  +6.3445311     3189.979     4599.914     4710.695     85.41835     170.9049     342.1506      1.513     3.76     1054.903     60.35163     446.1849        23     1.355     0.953 -79.00   0
       141    861.3156    806.9855 307.5577191  +6.3564236     1120.027     1488.225     2327.827     85.41835     170.9731     342.2528      1.395     3.72     1045.096     60.35163     199.6537        11     1.212     0.665 -83.14   0
       142    582.2764    805.4750 307.6736760  +6.3477153     879.9615      1479.73      1426.86      86.0979     171.5176     342.4571      1.718     5.15     1052.008     60.35163     121.1498         9     1.265     0.592  79.42   0
       143    570.5039    803.9968 307.6786156  +6.3479314     1302.462     2080.536     2024.593     85.55469     170.9049     342.0484      1.700     4.63     1052.503     60.35163     199.9333        13     1.327     0.745 -89.39   0
       144    563.6835    804.0551 307.6814466  +6.3476788     6123.794     9433.874     10139.94     85.82672     171.2456     342.4911      1.640     3.40     1052.849     60.35163     833.5709        31     1.468     1.025 -70.31   0
       145    481.5681    803.1054 307.7155866  +6.3453193     1576.037     2343.478     1981.382     85.96242     171.0412     342.4571      1.565     3.95     1055.889     60.35163     253.4401        18     1.306     0.973 -64.95   0
       146    275.1222    804.4669 307.8012896  +6.3378296     848.3923     1326.847     920.3019     85.96242     171.3136     342.3549      1.476     5.38     1062.758     60.35163     120.7361         9     1.369     0.597 -55.98   0
       147    899.4551    802.1023 307.5420403  +6.3597132      1723.93     2262.682     2841.282     85.69082     171.2456     342.5932      1.350     3.05     1043.897     60.35163     283.4072        14     1.095     0.777 -86.94   0
       148    123.2638    802.4066 307.8644328  +6.3335754      1409.17     1884.046      1705.88     85.14501     170.9731     342.1506      1.475     3.44     1061.971     60.35163     183.2975        13     1.102     0.765 -70.74   0
       149    699.4473    801.1671 307.6251511  +6.3534156     759.9693     1139.264     1293.516     85.41835     171.2456     342.3209      1.692     4.49      1049.76     60.35163      106.644         7     1.224     0.469 -81.63   0
       150    375.9442    799.7673 307.7595711  +6.3431548     754.0074     1298.861     1276.889     85.69082     171.3136     342.3549      1.820     5.59     1058.743     60.35163      128.479        10     1.344     0.656 -81.64   0
       151    534.4122    797.9404 307.6938107  +6.3492228     19576.47     29770.82     30338.01       85.145     171.1094     342.0825      1.612     3.47     1053.897     60.35163     2606.831        43     1.517     1.068 -79.34   0
       152    948.0485    796.1819 307.5220537  +6.3637793     4269.262     5650.439     5409.303     85.28179     171.3136     342.1847      1.394     3.18     1042.683     60.35163     679.2245        20     1.251     0.800 -86.15   0
       153    180.9778    797.0256 307.8406434  +6.3377379     588.1225     739.9507     140.9995     85.28179     171.0412     342.3209      1.420     3.74     1062.377     60.35163     78.10339         5     1.021     0.393 -58.64   0
       154     68.1707    794.6133 307.8875786  +6.3349389     535.7234     906.0574     1192.396     85.41835     171.0412     342.2869      2.101     5.02     1061.469     60.35163     83.33984         6     1.150     0.620 -71.80   0
       155    249.3576    758.9959 307.8135253  +6.3557366     759310.3      1867395      2057290       85.145     170.9049     342.0825      2.350     6.67     1061.055     60.35163     63291.58       571     3.028     1.866 -88.71   4
       156     44.7442    788.7879 307.8975055  +6.3365553     1576.499     2537.218     2449.823     85.14501     171.1775     342.0484      1.676     4.18      1061.41     60.35163     234.1161        16     1.259     0.940 -83.84   0
       157    588.8588    788.6738 307.6715069  +6.3548723     568.9827     900.0499     1373.893     85.96242     171.2456      342.389      1.490     3.41     1051.081     60.35163     120.8088         5     0.959     0.351 -47.17   0
       158    327.1266    786.8092 307.7802848  +6.3468660     3101.151     5133.176     5189.182     85.41835     170.7684     342.2188      1.678     3.93     1060.358     60.35163     413.8282        26     1.490     0.992 -78.08   0
       159     26.9660    785.0690 307.9050152  +6.3374920     2145.427     3193.171     3100.683     85.69082     171.2456     342.4571      1.541     3.38     1061.406     60.35163     319.1821        19     1.257     0.885 -73.56   0
       160    792.5563    782.4630 307.5871034  +6.3642509     60729.26     85332.23     88707.23     85.82673     171.1775     342.4571      1.528     3.29     1046.307     60.35163     8216.636        62     1.506     1.053 -78.06   0
       161    731.3898    784.0135 307.6124590  +6.3615659     782.0404     1071.142     1237.906     85.41835     170.9731     342.3209      1.868     4.38     1048.449     60.35163     116.5089         7     1.027     0.675 -52.15   0
       162    436.2275    781.5018 307.7351470  +6.3527182      887.568     1166.242     766.6429     85.96242     170.9731     342.3549      1.482     3.78     1055.943     60.35163     131.7002         9     1.025     0.677 -66.57   0
       163    917.8641    777.7530 307.5352097  +6.3703807     9260.269     12940.24     13043.83     85.69082     171.1775     342.4571      1.477     3.32     1042.857     60.35163     1457.606        29     1.403     0.898 -80.09   0
       164    720.8149    777.0906 307.6170842  +6.3640705     22133.07     32973.15     35129.75     85.55469     171.0412     342.2188      1.580     3.44     1048.353     60.35163     3128.154        47     1.531     1.060 -83.37   3
       165    714.5048    773.6058 307.6198224  +6.3652982     91689.15     133862.2     138885.4      85.5547     170.9049     342.1847      1.595     3.33     1048.363     60.35163      12383.3        72     1.540     1.111 -81.05   3
       166    359.4642    774.5380 307.7672666  +6.3530177     20009.47     31472.87     32714.77     85.82673     171.2456      342.423      1.725     3.59     1058.337     60.35163     2614.102        50     1.604     1.155 -81.79   0
       167    421.3025    772.3907 307.7416533  +6.3559791     21441.58     33626.71     35254.07      85.5547     170.8367     342.1506      1.686     3.54     1055.819     60.35163     2733.422        45     1.561     1.116 -82.90   0
       168    408.5321    775.0381 307.7468686  +6.3544577     1267.218     1919.698     1858.026     85.69082     171.2456     342.4911      1.608     4.43     1056.319     60.35163     183.2581        15     1.293     0.807  85.25   0
       169    648.0713    774.2796 307.6473952  +6.3627973     920.3309     1372.417     1578.213      86.0979     171.5176     342.3549      1.707     4.94     1049.562     60.35163      160.696         8     1.141     0.605 -76.34   0
       170    958.4249    771.4020 307.5185738  +6.3743563     2355.809     3342.435     3401.757     85.41835     170.9049     342.1847      1.579     3.88     1041.571     60.35163     320.4646        17     1.281     0.817 -88.09   0
       171    914.8253    769.1624 307.5367600  +6.3738260     7401.824     10441.47     11357.11     85.41835     171.0412     342.1506      1.463     3.34     1042.688     60.35163     1112.781        31     1.371     0.961 -84.39   0
       172    655.2573    768.2313 307.6446136  +6.3655349     6483.068      9951.14      10050.5     85.69082     171.2456     342.3209      1.609     3.33     1049.335     60.35163     927.9623        29     1.427     1.026 -86.71   0
       173    444.0168    766.0769 307.7324311  +6.3593476     1562.603     2630.813     2342.373     85.28179     170.9731     342.2528      1.746     4.29     1055.235     60.35163     238.3195        15     1.283     0.788 -84.61   0
       174    169.3318    766.0964 307.8465251  +6.3501152     762.2056     1033.367     1051.734     85.69082     171.3816      342.423      1.508     4.37     1061.213     60.35163     105.5143         7     0.902     0.603 -58.86   0
       175    883.1747    760.4138 307.5502009  +6.3763813     864.8014     1152.066     1168.363     85.55469     171.0412     342.3209      1.307     3.29     1043.139     60.35163     149.3621         9     0.924     0.651 -71.93   0
       176    608.3644    760.2078 307.6643619  +6.3672778     874.6943     1295.223      862.424     85.28179     171.0412     342.1506      1.553     5.33     1049.634     60.35163     133.7321        10     1.271     0.743 -64.91   0
       177    159.5785    759.4358 307.8508011  +6.3525370     947.9989     1379.088     1375.225     85.28179     170.9731     342.1166      1.610     5.22     1060.906     60.35163     140.3281        11     1.433     0.708 -66.82   0
       178    690.4820    758.2827 307.6303160  +6.3708209     2477.502     3615.128     3584.391      85.5547     171.5176     342.4911      1.603     3.83     1048.385     60.35163     338.6765        21     1.375     0.896 -79.13   0
       179    134.9778    758.9711 307.8610349  +6.3519014     943.0372     1506.993     1442.158     85.28179     171.0412     342.2528      1.551     5.66      1060.78     60.35163     147.9482        11     1.340     0.674  78.56   0
       180    424.2225    755.0204 307.7410256  +6.3632484     51161.96     81656.67     85466.07     85.55469     171.0412     342.3209      1.698     3.53     1055.139     60.35163     6825.201        71     1.611     1.237 -78.98   0
       181     76.9711    756.8882 307.8851986  +6.3508095      665.606     1044.449     1352.791     85.96242     170.9731     342.2528      1.373     3.77     1060.702     60.35163     124.0613         5     1.011     0.404  60.76   0
       182    541.9237    754.0536 307.6921674  +6.3675933     6823.368     10344.91     10650.58     85.96242     171.2456      342.389      1.613     3.49     1051.261     60.35163     946.2841        30     1.483     1.002 -77.46   0
       183    458.7465    752.6319 307.7267655  +6.3653923     4219.759     6784.898     7364.974     85.69082     171.3136     342.3209      1.701     3.79     1054.545     60.35163     565.9219        28     1.450     1.046 -78.82   2
       184    455.3607    746.2526 307.7283867  +6.3679125     2267.901     3515.148     3816.426     85.69082     171.2456     342.3549      1.675     4.13     1054.358     60.35163     299.5769        23     1.452     1.019 -75.60   2
       185    787.1172    750.6223 307.5904315  +6.3772149     12258.83     17683.68     18338.46     85.55469     170.9049     342.2869      1.528     3.48     1044.791     60.35163     1845.634        34     1.419     0.975 -78.54   0
       186     16.5341    746.8840 307.9106395  +6.3529049      1132.55     1697.945     1143.257     85.96242     171.5176     342.4571      1.568     3.68     1061.096     60.35163     172.1199        12     1.092     0.816 -66.65   0
       187    808.9689    744.8658 307.5815475  +6.3803218     1223.316     1733.545     1601.379     85.55469     171.3136     342.3209      1.509     4.05     1043.803     60.35163     231.1968        13     1.278     0.671 -78.45   0
       188    153.0550    743.0700 307.8540635  +6.3590741     2815.277      4385.08     4955.577     85.82673     171.1775     342.3549      1.598     4.01     1060.288     60.35163     413.2914        22     1.489     0.907  89.55   0
       189    976.7866    744.8148 307.5118371  +6.3859458     609.8885     923.7654      1254.16     85.69082     170.9049     342.3209      1.543     3.59     1039.898     60.35163     97.72339         5     0.742     0.686 -35.04   0
       190    145.0163    742.6902 307.8574153  +6.3589605     11353.46     18025.47     19809.55     85.55469     170.9731     342.2869      1.700     3.65     1060.276     60.35163     1566.277        42     1.554     1.131 -83.69   0
       191    137.1587    740.0203 307.8607693  +6.3597985     2793.283     4760.005      6163.44     85.41835     171.0412     342.2188      2.049     4.42     1060.167     60.35163     350.8966        27     1.553     1.034 -85.85   3
       192    137.2618    733.6381 307.8609421  +6.3624368     1822.687     3142.579     3741.092     85.82673     171.3136      342.389      1.882     5.01     1059.968     60.35163     248.9716        20     1.507     0.967  83.13   3
       193    981.8588    739.0836 307.5099221  +6.3884812     1813.712     2580.597     3114.131     85.96242     171.2456     342.4571      1.386     3.54     1039.439     60.35163     283.2767        15     1.277     0.686 -84.82   0
       194    932.6755    739.2016 307.5303493  +6.3867915     6973.504     9643.384     9643.557     85.14501     170.6319     342.2528      1.434     3.31     1041.446     60.35163     981.9252        26     1.360     0.876 -88.03   0
       195    688.3038    736.5977 307.6319494  +6.3797009     1642.193     2570.417     2946.941     85.41835     170.9049     342.0484      1.630     4.67     1047.707     60.35163     228.1508        16     1.376     0.816  88.58   0
       196    575.0218    735.9508 307.6790279  +6.3761759     2324.982     3506.267     4091.494     85.41835     171.3136     342.2869      1.530     4.37     1049.661     60.35163     305.5248        18     1.498     0.751 -88.78   0
       197    423.0422    735.3666 307.7421780  +6.3713229     1161.734     2416.444     2890.015     85.55469     171.2456     342.1847      2.340     7.78     1054.419     60.35163     159.2891        18     1.845     0.996  76.30   0
       198    706.2465    734.6848 307.6245603  +6.3810908     671.1985     823.9056     674.7996     85.82673     171.1775      342.389      1.294     4.40     1047.008     60.35163      113.507         6     0.962     0.572 -64.04   0
       199    926.8653    731.3553 307.5330259  +6.3898370     3276.685     4519.104     4085.708     85.82673     171.1775      342.389      1.480     3.76     1041.351     60.35163     505.9548        20     1.352     0.797 -85.86   0
       200    987.1109    730.5779 307.5080253  +6.3921681     2025.466     2724.564     3016.094     85.82673     171.0412     342.2528      1.361     3.43     1039.045     60.35163     379.7744        16     1.318     0.689 -84.33   0
       201    956.3037    730.6376 307.5208210  +6.3911157     3279.699     4477.718     4906.536     85.82673     171.1094     342.5251      1.454     3.60     1040.255     60.35163     506.4194        20     1.338     0.774  88.89   0
       202    679.4023    730.2500 307.6358603  +6.3820237     1511.667     2080.157      1836.94     85.14501     170.8367     341.9462      1.517     4.05     1047.612     60.35163     209.6917        13     1.122     0.786 -83.89   0
       203    826.7527    728.5780 307.5747067  +6.3876406     1254.183     1686.731     939.9903     85.41835     171.2456     342.2528      1.462     4.07     1042.981     60.35163     173.3164         9     1.071     0.591 -67.41   0
       204    901.6842    726.9362 307.5436346  +6.3908210     774.5797     1286.241     1662.757     85.96242     171.3816      342.389      1.433     3.37     1041.722     60.35163     143.1023         6     0.961     0.426 -77.59   0
       205    252.0082    725.5592 307.8135527  +6.3696299     1652.858     2849.999     2810.295       85.145     171.0412     342.0825      1.840     4.85     1059.618     60.35163     195.8358        19     1.433     0.961 -85.91   0
       206    688.9356    723.0754 307.6321413  +6.3853048     622.2631     800.5073     1112.021     85.96242     171.2456     342.3549      1.365     3.57     1046.917     60.35163     116.1077         5     0.983     0.373 -57.85   0
       207    271.9499    720.7206 307.8054326  +6.3722975     707.0592     985.9522     1065.099     85.82673     171.3136      342.389      1.613     5.39     1059.144     60.35163     111.0282         9     1.315     0.728 -66.55   0
       208    944.7740    720.7360 307.5259424  +6.3948190     1227.274     1518.029     918.9741     85.41835     171.2456     342.3209      1.371     4.61     1040.338     60.35163     188.9465         8     0.947     0.638 -81.29   0
       209    167.5312    720.6340 307.8488084  +6.3688235     740.3694     1228.733     1204.418     85.69082     171.2456     342.4571      1.695     4.10     1059.435     60.35163     99.87573         7     1.007     0.478 -80.60   0
       210    971.2026    718.5132 307.5150381  +6.3966186     2801.116     3937.397      4350.88     85.14501     170.8367     342.0825      1.479     3.46     1039.391     60.35163     466.6376        19     1.382     0.785 -87.63   0
       211    918.3434    719.5808 307.5369607  +6.3944138     1278.681     1671.316     1728.229     85.28179     171.1775     342.1847      1.395     3.97     1041.086     60.35163     197.0829         9     1.032     0.606 -83.92   0
       212    690.9942    717.7884 307.6314638  +6.3875565     923.7482     1335.102     1239.995     85.41835     171.0412     342.2869      1.726     5.12     1046.589     60.35163     128.6744        10     0.978     0.757 -75.26   0
       213    481.9317    713.2610 307.7184605  +6.3824241     689.2809     925.8718      519.907     85.96242     171.1775      342.389      1.455     3.54     1052.376     60.35163     118.4462         6     0.882     0.667 -68.81   0
       214   1013.0579    711.9824 307.4978694  +6.4007110     1992.411     2542.118     2928.894     85.28179     171.1775     342.1165      1.372     3.35     1037.941     60.35163     330.2074        13     1.209     0.660  85.75   0
       215    907.6182    711.4611 307.5416884  +6.3974082      685.466     710.8621      735.097     85.41835     171.1775     342.1847      1.262     4.18     1040.926     60.35163     112.3201         7     0.980     0.732 -47.68   0
       216    814.0917    710.6569 307.5805676  +6.3946165     1125.088     1691.604     1695.381     85.69082     171.1775     342.4911      1.615     5.79     1042.608     60.35163     150.0493        13     1.403     0.673 -72.38   0
       217    639.1141    712.0204 307.6532088  +6.3882017      744.876     1146.037     1744.089     85.55469     170.9731     342.2869      1.631     3.06     1047.553     60.35163     156.4116         7     0.893     0.612 -15.53   0
       218    900.5784    707.9677 307.5447300  +6.3986155      1561.37     2281.869     2248.793     85.28178     171.0412     342.1847      1.473     3.57     1040.952     60.35163     201.5302        13     1.122     0.793  89.48   0
       219    874.6594    702.8792 307.5556678  +6.3998509     916.7709     1174.578     1346.145     85.96242     171.2456     342.3209      1.402     4.06     1041.301     60.35163     179.8866         7     1.002     0.471 -86.81   0
       220     56.6709    698.1796 307.8956153  +6.3743634     2481.603       4051.9     4524.243     85.41835     171.1094     342.3209      1.799     4.04     1059.641     60.35163     342.4734        22     1.487     0.939 -64.15   0
       221    857.4883    699.0417 307.5629297  +6.4008618     1702.887     2280.443     2335.635     85.82672     171.1775      342.423      1.421     3.49     1041.494     60.35163     276.2098        14     1.220     0.691 -77.48   0
       222    120.3609    698.2325 307.8691585  +6.3764851     695.2462     1364.471     1995.495     85.41835     171.0412     342.1847      1.577     3.78     1058.963     60.35163     128.7188         5     0.872     0.472  42.21   0
       223    669.3062    686.5110 307.6415243  +6.3997439     6260.517     9292.751     9921.034     85.82673     171.7213     342.4571      1.623     3.44     1045.444     60.35163     822.6711        28     1.326     1.041 -78.13   0
       224    616.0121    685.9564 307.6636819  +6.3981890      1380.71     2077.484     1833.993     85.28179     171.1094     342.0825      1.481     4.38     1047.105     60.35163     206.3076        15     1.376     0.756 -85.49   0
       225    527.0591    686.1945 307.7006257  +6.3951112      750.328     1194.784     1282.707     85.28178     171.1094     342.1506      1.626     6.16     1049.283     60.35163     106.0713        10     1.389     0.769 -54.91   0
       226    643.0735    682.2466 307.6525651  +6.4006266     2031.559     3343.759      3079.65     85.69082     171.3136      342.389      1.705     4.05     1046.041     60.35163     288.2859        20     1.356     0.938 -73.84   0
       227    132.3783    682.4792 307.8646990  +6.3833930     3487.151     5585.122     6208.349     85.41835     170.9049      342.389      1.781     3.72     1058.302     60.35163     486.5305        27     1.462     1.031 -86.19   0
       228   1006.1940    681.7136 307.5017348  +6.4129790     2686.553     3490.554      3616.41     85.28179     170.9049     342.0825      1.404     3.47     1037.921     60.35163     424.8413        17     1.237     0.786 -84.84   0
       229    786.2031    678.6401 307.5932277  +6.4069030     20391.03     30697.84     31226.92     85.00801     170.9049     342.0825      1.604     3.52     1042.388     60.35163     3062.096        45     1.498     1.097 -80.61   0
       230    916.1335    678.3386 307.5392615  +6.4113675     3996.566     5370.474     5430.248     85.82673     171.1775      342.389      1.389     3.13     1039.379     60.35163     631.7064        23     1.307     0.869 -83.72   0
       231    513.6540    679.2244 307.7064289  +6.3975396     879.0982     1414.608     1474.574     85.28179     171.2456     342.1847      1.780     5.53     1049.481     60.35163     113.9325         9     0.977     0.882 -42.93   0
       232    485.4055    678.9648 307.7181723  +6.3966998     1407.081     2219.616     1966.619     85.00801     170.9731     342.1506      1.710     4.03       1050.5     60.35163     222.9597        15     1.155     0.901 -85.20   0
       233    330.4009    678.0141 307.7825934  +6.3918918     466.3057     735.3868     685.7535     85.41835     170.9049     342.1506      1.529     4.52     1055.558     60.35163     86.19568         5     1.028     0.565 -16.68   0
       234    259.6686    672.5027 307.8121611  +6.3917914     5681.997     9333.794     9613.747     85.69082     171.3816      342.389      1.778     3.72     1056.853     60.35163     729.9384        36     1.640     1.106 -81.37   0
       235    666.7426    671.5256 307.6430929  +6.4058450     6765.981      10647.2     11163.86     85.82673     171.2456     342.3549      1.722     3.76      1044.67     60.35163     810.5867        32     1.466     1.079 -84.80   0
       236    648.8223    672.5634 307.6505024  +6.4048168     825.0261      1100.92     531.4495     85.41835     170.9731     342.1506      1.451     4.01     1045.394     60.35163     130.5508        11     1.042     0.913  27.93   0
       237    926.5003    663.9727 307.5354365  +6.4176447     1290.674     1968.382     1928.655     85.82672     170.9731     342.2869      1.468     4.36     1038.508     60.35163     195.2115        12     1.371     0.585 -88.84   0
       238    738.4064    659.8604 307.6137142  +6.4130584     3576.062     5871.192     6019.155     85.14501     171.1094     342.1506      1.738     3.52     1042.601     60.35163     530.3635        28     1.517     1.005 -85.69   0
       239    693.6022    660.2532 307.6323137  +6.4113976     1062.856     1477.019     1456.555     85.14501     170.9731     341.9121      1.503     4.69     1043.373     60.35163     142.8751        11     1.119     0.759 -39.44   0
       240   1004.6478    656.4252 307.5032242  +6.4233681     9972.782     13629.17     13613.19     85.41835     171.3136     342.2869      1.459     3.49     1037.079     60.35163     1538.589        29     1.380     0.864 -84.33   0
       241    943.0478    656.8427 307.5288011  +6.4211407       2559.5     3528.806       3591.3     85.82673     171.1775     342.3209      1.419     3.71      1037.94     60.35163     388.5548        17     1.363     0.716 -86.54   0
       242     24.0914    656.4392 307.9105597  +6.3904984     1963.749     3438.822     4168.062     85.96242     171.1775      342.423      2.157     4.39     1059.242     60.35163     248.6915        22     1.464     1.041  77.36   0
       243    440.7099    654.8615 307.7375510  +6.4051522     596.0358     793.1776     837.8466     85.82673     171.3816     342.4571      1.428     5.31     1051.064     60.35163     88.89087         7     0.983     0.811  10.23   0
       244    543.3518    652.4230 307.6949942  +6.4095998      1742.15     2864.147     2770.507     85.41835     171.2456     342.2869      1.749     4.21      1046.99     60.35163     235.0337        21     1.447     0.946 -61.80   0
       245     82.1609    651.4030 307.8866088  +6.3945327     23905.83     39304.17      41098.5     84.87079     170.9731     342.0825      1.738     3.64     1058.406     60.35163     3140.784        52     1.625     1.186 -81.65   0
       246    511.9602    649.2706 307.7081409  +6.4098493     1318.674     2101.974     2553.272     85.69082     171.2456     342.4571      1.763     5.20     1048.039     60.35163     156.8358        16     1.337     0.876 -87.33   0
       247    933.0720    648.6270 307.5332208  +6.4241997     1036.318     1354.555     1167.285     85.41835     171.1775     342.2869      1.355     3.19     1037.688     60.35163     180.6899        11     1.030     0.674 -78.19   0
       248    552.5777    646.1837 307.6913715  +6.4124849     1046.795      1511.43     1727.157      85.5547     171.0412     342.3209      1.556     4.19     1046.387     60.35163     158.3292        10     1.067     0.734  70.71   0
       249    727.9674    643.4829 307.6186010  +6.4194709     3540.824     5406.533     5318.047     85.82672     171.0412     342.3209      1.609     3.84     1041.837     60.35163     527.3058        25     1.445     0.954 -80.44   0
       250    749.9955    641.8812 307.6095036  +6.4208689     3917.786      5792.22     5622.537     85.28179     170.7684     342.0825      1.519     3.32     1041.411     60.35163     558.3301        25     1.381     0.952 -81.05   0
       251    581.5628    639.5798 307.6795527  +6.4161823     2991.089     4708.752     4905.663     85.41835     170.9731     342.1166      1.707     3.76     1045.464     60.35163     363.2664        23     1.392     1.007 -80.47   0
       252    418.0137    640.1258 307.7474757  +6.4104745     1136.758     1885.726     1595.661     85.28179     170.9731     342.1847      1.739     3.80     1051.402     60.35163     170.6328        12     1.062     0.846 -63.01   0
       253    242.3886    639.4105 307.8204561  +6.4048728     1554.624     2726.093     3080.496      85.5547     171.0412     342.3549      1.960     4.56     1055.897     60.35163     186.4675        22     1.387     1.094  64.54   0
       254    326.0315    638.8866 307.7857280  +6.4078988     1213.294     2143.546     2752.313     85.96242     171.0412     342.3209      2.068     4.78     1053.486     60.35163      162.543        16     1.336     0.883 -45.44   0
       255   1022.9002    637.8469 307.4962637  +6.4316472     5575.405     7367.322     7189.699     83.48618     147.9489     271.1501      1.379     3.41     1036.019     60.35163      877.223        20     1.324     0.759 -84.85  24
       256    988.3652    636.7777 307.5106469  +6.4309368     9015.162        12407     12990.42     85.28179     170.9731     342.1166      1.472     3.45     1036.416     60.35163     1411.607        24     1.352     0.855 -86.31   0
       257    542.4426    637.3307 307.6958798  +6.4158003     681.0273     1057.835     1134.538     85.69082     171.2456     342.4571      1.636     4.16     1046.117     60.35163     114.0861         5     1.121     0.440  53.43   0
       258    708.4814    635.3790 307.6269683  +6.4221649     993.6273     1403.815     1215.967      85.5547     170.9049     342.3209      1.606     4.31      1041.71     60.35163     136.8024        11     1.070     0.888  69.02   0
       259    433.6818    631.3333 307.7412632  +6.4146301     2780.956     4846.306     5507.702     85.96242     171.5176     342.4571      1.904     4.28     1050.417     60.35163     392.7043        26     1.548     1.036 -83.23   0
       260    100.0801    633.6496 307.8797655  +6.4024651     827.3621     1309.545     1245.777     85.82673     171.3136      342.389      1.806     4.99     1057.759     60.35163       102.41         8     1.086     0.648 -57.69   0
       261    146.8737    630.2945 307.8604410  +6.4054247     21864.01     36225.81     37143.65     85.69082     171.4496      342.389      1.763     3.82     1057.079     60.35163     2841.117        52     1.649     1.192 -85.94   0
       262    815.0602    631.0242 307.5828380  +6.4275262     1195.243     1755.753     1687.957     85.41835     171.2456     342.2528      1.519     5.61     1039.816     60.35163     165.5823        12     1.182     0.774  76.01   0
       263    983.1512    619.6816 307.5133859  +6.4378212     7336.709     11438.65     12399.69     85.82673     171.2456      342.423      1.670     3.79     1035.684     60.35163     968.7816        34     1.610     1.061  76.89   0
       264     28.1201    619.0647 307.9101505  +6.4060637     1134.811     1683.468     1698.422      86.0979     171.3136     342.3549      1.456     3.44      1058.91     60.35163     173.0848        10     1.015     0.692 -73.36   0
       265    941.3492    616.7298 307.5308515  +6.4376452     709.3851     1094.807     668.7255     85.69082     171.1775      342.423      1.402     4.61     1036.056     60.35163     110.8422         6     1.281     0.472 -86.72   0
       266    576.8455    615.0488 307.6823377  +6.4261521     43968.92     71687.72     75362.88     85.82673     171.1094      342.423      1.733     3.71      1044.06     60.35163     5601.519        62     1.633     1.224 -81.82   0
       267    536.1464    615.7712 307.6992210  +6.4244902     800.8308     1425.388     1537.825     85.55469     171.3136     342.2869      2.216     6.93     1045.134     60.35163     110.6671        11     1.652     0.816 -80.75   0
       268    220.3944    616.3060 307.8303726  +6.4136720     520.9069     873.8145     946.8828      85.5547     170.9049     342.1506      1.719     4.04     1056.064     60.35163      96.2688         5     0.972     0.480  83.75   0
       269    801.7710    614.6661 307.5889079  +6.4338357     642.3477     753.0362     463.1616      85.5547     171.2456     342.3209      1.264     4.21     1039.346     60.35163     94.62817         6     0.768     0.657 -83.80   0
       270    184.3654    611.8580 307.8454896  +6.4142971     2499.569     4493.735      4920.28     85.69082     171.2456      342.389      1.951     3.91     1056.418     60.35163     356.4274        27     1.479     1.114 -81.17   0
       271    987.8271    611.3798 307.5117215  +6.4414048     631.2109     562.1357     923.2709     85.28179     171.0412     342.2869      1.221     4.13     1035.204     60.35163     101.8096         6     0.755     0.646  58.97   0
       272     77.0152    605.9003 307.8902847  +6.4131448     1277.898      2094.72     2169.486     85.82673     170.9731     342.0825      1.774     4.35     1057.618     60.35163     158.7986        15     1.119     0.985  51.46   0
       273    474.1064    598.8682 307.7255634  +6.4293891     56070.89      94753.6     99777.42     85.69082     171.3816      342.423      1.783     3.81     1047.274     60.35163     6782.803        79     1.688     1.317 -78.18   0
       274    148.6478    593.9995 307.8609303  +6.4204685      1467.11     2554.977     2290.224     85.00801     170.8367     341.9121      1.799     3.75     1056.554     60.35163     238.2534        19     1.293     1.001  88.81   0
       275    943.4033    591.6660 307.5308383  +6.4480616     598.7183     767.2307     702.1014     85.00801     170.9731     342.1506      1.466     3.87     1035.011     60.35163     111.5981         5     0.994     0.433 -75.03   0
       276    619.3869    590.9727 307.6654743  +6.4375167     804.3031     1372.603     1383.101     85.41835     171.0412     342.3209      1.829     4.97     1042.114     60.35163     114.9966         9     1.164     0.770 -80.49   0
       277    427.7038    591.5914 307.7450857  +6.4308370     768.0126     1079.423     1449.271      85.5547     170.8367     342.1847      1.865     5.00     1048.927     60.35163     98.94482         9     1.066     0.663  83.86   0
       278    319.6661    588.3997 307.7900752  +6.4285285     1908.783     3524.954     3930.722     85.00801     170.7685     342.1166      1.967     5.61     1051.278     60.35163     284.3425        23     1.620     1.038 -88.58   0
       279    659.8740    595.8412 307.6484905  +6.4368620       884.78     1384.991     1504.021     85.69081     171.3136      342.423      1.780     5.26      1040.84     60.35163     125.8586         9     0.979     0.799  79.84   0
       280     17.9539    600.7605 307.9149927  +6.4132779     1424.758     2430.737     2357.341     85.69082     171.2456     342.2528      1.757     4.49     1058.874     60.35163     211.8497        16     1.443     0.711 -85.77   0
       281    746.0797    582.4008 307.6131282  +6.4452950     4916.414     7780.348     7852.094     85.00801     170.6319     342.1166      1.667     3.55     1039.011     60.35163     693.9536        31     1.489     1.054 -81.09   0
       282    799.6396    577.5972 307.5910379  +6.4490687     13952.86     21103.79     22052.98     84.87079     170.9731     342.0825      1.647     3.44     1038.538     60.35163     1774.532        43     1.525     1.074 -80.90   0
       283   1016.9355    578.1892 307.5007402  +6.4560789     1010.206     1423.403     1460.741     85.28178     171.0412     340.9904      1.239     3.34     1031.042     60.35163     195.4861         8     1.039     0.539 -83.07  16
       284    542.0063    577.4101 307.6980778  +6.4405242      1050.88     1917.167     2411.275     85.28178     171.0412     342.2528      1.921     5.69     1043.675     60.35163     122.9017        11     1.281     0.711 -74.46   0
       285    623.5604    576.0229 307.6642432  +6.4438286     2699.308     4367.073     4791.929     85.41835     171.0412     342.1506      1.737     4.34     1041.414     60.35163     329.0149        22     1.421     1.001 -88.65   0
       286    940.7249    572.1649 307.5326049  +6.4560236     1147.374      1515.79     1956.255     85.69082     171.3136      342.389      1.421     3.49     1034.367     60.35163     162.6426        11     1.067     0.669  87.00   0
       287    236.4535    569.5172 307.8252810  +6.4335284     1057.883     1680.583     2299.236     85.82673     171.2456     342.4911      1.790     4.30      1053.33     60.35163     179.9215        11     1.169     0.839 -86.94   0
       288    381.4403    569.8632 307.7650374  +6.4382552     697.8699     1341.698     1279.302     85.82673     171.1775     342.4571      1.890     5.11     1049.329     60.35163     103.4012         6     1.145     0.644  -4.12   0
       289    875.7954    560.9597 307.5599565  +6.4584820     2885.266     4259.237     4606.761     85.00801     170.9731     342.0825      1.555     3.64     1035.562     60.35163     389.3217        20     1.303     0.850 -89.72   0
       290    834.3875    558.4202 307.5772452  +6.4581473     2504.812     3625.315     4333.076      85.5547     170.9049     342.2869      1.658     3.37     1036.825     60.35163     346.9559        19     1.241     0.897 -83.90   0
       291    805.4561    554.3833 307.5894007  +6.4588472     2510.537     3872.589     4824.452     85.28179     171.1775     342.1166      1.781     4.08      1037.92     60.35163     316.3906        21     1.420     0.905  89.78   0
       292    262.5996    553.3765 307.8149640  +6.4410707     6558.622     11319.22     10975.79     85.41835     170.9049     342.1506      1.866     4.03     1051.624     60.35163     841.6228        39     1.611     1.193 -84.12   0
       293    747.4611    555.3494 307.6134630  +6.4565096     558.7501     992.2543     1016.195     85.82673     171.1775      342.389      1.510     3.39     1038.294     60.35163     87.16162         5     1.052     0.316 -20.83   0
       294    815.0610    549.5080 307.5855739  +6.4611811     155400.7     236895.7     247075.6     85.69082     171.3136     342.4911      1.652     3.63     1037.388     60.35163     20902.35       104     1.633     1.220 -80.76   0
       295    196.7450    547.8853 307.8425075  +6.4411240     50656.87      87966.2     93077.81     85.82673     171.2456     342.5592      1.867     4.02     1054.013     60.35163     6555.426        74     1.737     1.331 -82.00   0
       296    120.7904    544.1390 307.8741878  +6.4401157     5371.372     9175.535     9267.206     85.14501     171.1094     342.1166      1.789     3.88     1055.881     60.35163      683.532        35     1.555     1.176 -83.69   0
       297    985.9827    541.1420 307.5148415  +6.4703419     1392.846     1820.052     2002.726     85.28179     171.1775     342.1165      1.457     4.49     1029.554     60.35163     184.7618        13     1.263     0.717 -80.77   0
       298   1006.3265    540.3544 307.5064155  +6.4713457     690.1779     997.6949     1035.437     85.69082     171.3136      342.389      1.306     4.68     1027.957     60.35163     147.1147         8     1.060     0.586 -68.20   0
       299    851.6477    536.6858 307.5708036  +6.4676973     4437.944     6521.472      6771.93     85.82673     171.1775      342.389      1.609     3.55     1035.243     60.35163     590.6754        28     1.511     0.963 -70.49   0
       300    235.0955    538.8303 307.8268812  +6.4461516     613.5331     1058.673     438.5083     85.96242     170.9731      342.423      1.735     6.40     1051.732     60.35163     109.6119         8     1.366     0.843 -39.72   0
       301    172.1366    534.1878 307.8531933  +6.4459513     1660.138     2983.444     3531.261     85.28178     171.0412     342.1847      1.925     4.43     1054.683     60.35163     213.5479        15     1.277     0.823  83.52   0
       302    805.6116    530.1968 307.5901481  +6.4688381      5517.54      8621.73     8850.754     85.41835     170.9049     342.2528      1.657     3.57     1036.996     60.35163     706.9742        30     1.460     1.042 -86.14   0
       303    536.4438    529.9005 307.7019879  +6.4599523     5652.328     9552.368     9293.948     85.82672     171.1094     342.6272      1.807     4.10     1042.528     60.35163     646.6907        34     1.591     1.154 -86.46   0
       304    109.5909    531.1990 307.8792778  +6.4450809     924.3262     1278.469     1198.193     85.14501     170.9049     342.1506      1.454     6.00     1055.375     60.35163     108.7222        12     1.173     0.944  43.40   0
       305    370.1437    534.9981 307.7709059  +6.4522701     14499.56     25380.38     26376.98     85.14501     170.9049     342.0825      1.841     3.87     1047.984     60.35163     1740.708        52     1.652     1.275 -82.65   0
       306    394.7218    526.8000 307.7609714  +6.4564796     1155.013      1985.73     1957.691     85.00801     170.5636     342.0825      1.803     6.38     1046.463     60.35163     170.3293        17     1.401     1.056 -66.57   0
       307    581.1642    522.9323 307.6836429  +6.4643275     2099.535     3944.926     3368.086     85.69082     171.3136     342.4911      1.999     4.66     1040.845     60.35163     270.6639        27     1.522     1.174 -65.07   0
       308    183.5423    523.1489 307.8488279  +6.4508923     5661.157     9644.146     9594.066     85.82673     171.2456      342.389      1.813     4.00     1053.425     60.35163     761.2163        36     1.553     1.188 -73.97   0
       309    278.7448    519.5220 307.8093993  +6.4555898     74056.32     130010.8     138244.5     85.96242     171.2456      342.423      1.890     4.08     1048.916     60.35163     8394.926        85     1.774     1.362 -82.51   0
       310     55.1129    521.8305 307.9022263  +6.4471146     4389.859     7624.021     8221.547     85.96242     170.9731     342.3209      1.836     4.06      1055.97     60.35163     540.1605        31     1.576     1.084 -84.95   0
       311    822.0516    522.4341 307.5835783  +6.4725924     1335.474     1829.021     1732.567     85.69082     171.2456     342.2869      1.492     5.91     1035.982     60.35163     156.7245        14     1.200     0.847 -88.78   0
       312    801.7700    511.9626 307.5923564  +6.4762379     15575.11     23892.59     25142.81     85.41835     170.9731     342.2528      1.625     3.58     1036.315     60.35163     2083.444        45     1.583     1.077 -79.74   0
       313    568.0233    516.4572 307.6893203  +6.4665606     728.5678     1220.597     1505.123     85.41835     171.2456     342.1847      1.805     3.41     1041.049     60.35163     105.1285         5     0.745     0.611  85.97   0
       314    262.4673    514.8052 307.8163209  +6.4569902     1277.014     2178.264     2515.242     85.28179     170.9049     342.1847      1.886     5.90     1049.235     60.35163     147.2869        19     1.261     1.146 -15.88   0
       315    978.1401    513.1675 307.5190375  +6.4816300     1633.375      2518.48      2600.62     85.55469     171.3136     342.3209      1.620     4.40     1029.197     60.35163     247.3951        16     1.299     0.816 -89.03   0
       316    505.4086    510.3313 307.7155407  +6.4669913     34476.49     64800.84     69705.27     85.28179     170.9731     342.2869      2.003     4.06     1042.463     60.35163     3828.211        81     1.759     1.557 -82.97   0
       317    655.4442    509.2187 307.6532432  +6.4724764      793.864      1457.39      1173.39     85.28179     171.1094     342.1506      1.767     4.17     1038.406     60.35163     116.4999         7     1.005     0.494 -86.48   0
       318    218.0652    506.5690 307.8350457  +6.4588980     1557.698     2801.384     2586.062     85.55469     171.3136     342.3209      1.890     5.36     1050.722     60.35163     207.1028        18     1.426     1.006 -65.48   0
       319     53.1818    507.0419 307.9035287  +6.4531549     1087.611     1936.834     2094.359     85.28179     171.0412     342.1165      1.834     5.48     1055.487     60.35163     142.1241        16     1.350     0.910 -54.74   0
       320    675.3376    505.2403 307.6451118  +6.4747848     1536.359     2375.348       2850.2     85.82673     171.2456      342.423      1.636     4.27     1037.903     60.35163     204.2625        15     1.169     0.954 -67.38   0
       321    665.3992    505.4115 307.6492352  +6.4743815     2791.507     4752.523     5387.328     85.41835     170.9049     342.1847      1.824     4.23     1038.101     60.35163      334.124        23     1.411     1.040 -65.46   0
       322    727.6852    504.4647 307.6233888  +6.4768564     1272.943     2027.484     2601.055     85.96242     171.4496      342.423      1.843     3.73     1036.534     60.35163     169.6002        13     1.133     0.775 -63.04   0
       323    403.2028    501.0169 307.7583171  +6.4674087     1401.575     2354.902     2478.351     85.41835     170.7684     342.1847      1.748     3.96     1044.361     60.35163     190.3412        15     1.261     0.800 -72.86   0
       324    334.6418    499.3568 307.7868573  +6.4657925     3257.694     5770.528     5758.365      85.5547     171.2456     342.2528      1.848     4.40     1045.468     60.35163     416.7153        29     1.528     1.140 -82.57   0
       325    149.8412    497.9370 307.8636805  +6.4601672     22286.31      38767.9     40628.21     85.82673     171.1775     342.4911      1.846     4.01     1053.462     60.35163     2783.985        57     1.728     1.272 -84.43   0
       326    877.6065    498.1456 307.5613114  +6.4844761     1507.754     2180.892      1872.46     85.28179     170.9731     342.0825      1.453     4.71     1032.968     60.35163     195.9457        16     1.380     0.803 -78.45   0
       327    514.5097    498.6693 307.7121522  +6.4721110     1809.434     2973.282     3101.493     85.82673     171.3816      342.389      1.742     4.58     1041.906     60.35163     192.1057        21     1.382     1.009 -86.07   0
       328    115.0603    496.2320 307.8781876  +6.4597008     2360.233     3930.463      3644.83     85.55469     171.3136     342.3209      1.717     3.73     1053.904     60.35163     313.3922        27     1.389     1.139 -83.59   0
       329    975.3528    492.4235 307.5208909  +6.4901014     5359.375     7678.267     7716.298     85.41835     171.2456     342.2528      1.538     3.46     1028.548     60.35163     821.1771        28     1.449     0.914  88.49   0
       330    351.8540    494.4536 307.7798717  +6.4683947     1061.264     1814.006     1929.434      86.0979     171.1775      342.389      1.802     4.21     1044.466     60.35163     141.9116        10     1.101     0.903 -26.26   0
       331    548.4468    485.1709 307.6985068  +6.4788213     1281.689      2071.85     1844.647     85.41835     171.3816     342.2869      1.762     5.32     1040.687     60.35163     164.9733        15     1.201     0.988 -44.88   0
       332     14.1308    482.2829 307.9205895  +6.4620610     22485.73     37787.86     40013.81      86.0979     171.5176      342.423      1.802     3.77     1055.438     60.35163     2879.374        59     1.718     1.251 -82.92   0
       333    446.7917    479.0193 307.7409488  +6.4779529     35851.63     63136.18     66798.91     85.55469     170.9731     342.2188      1.861     4.04     1042.325     60.35163     4340.129        63     1.698     1.316 -81.49   0
       334    654.8091    478.7088 307.6545330  +6.4850514     10733.68     17829.14     18647.82     85.41835     170.9049     342.1166      1.757     3.85     1037.456     60.35163      1239.04        41     1.560     1.187 -77.53   0
       335    212.0200    476.6705 307.8385668  +6.4710381      15796.9      29537.2     31882.48     85.41835     171.1094     342.3209      1.969     4.12     1049.432     60.35163     1851.596        57     1.747     1.380  89.42   0
       336    177.7870    477.9541 307.8527457  +6.4693570     1294.198     2306.133     1996.832     85.14501     171.0412     342.1506      1.733     6.02     1051.295     60.35163     161.7987        16     1.504     0.823  84.32   0
       337    294.5595    478.7994 307.8042033  +6.4729333     786.4433     1385.794     1552.819     85.00801     170.9049     342.0825      1.970     4.73     1045.029     60.35163     85.55835         8     1.168     0.543  22.04   0
       338      1.5482    475.9835 307.9260300  +6.4642377     1353.986     2671.998     3711.183     76.79611     139.5154     261.2103      2.545     7.11     1055.306     60.35163     239.7272        20     2.091     0.798 -89.93  24
       339    988.6448    476.9283 307.5158875  +6.4969423     1220.041     1550.367      1794.76     85.69082     171.2456      342.389      1.420     4.17     1027.612     60.35163     196.8158        10     1.122     0.652 -62.06   0
       340    917.2839    476.5406 307.5455506  +6.4947208      754.236     1050.483     1358.132     85.96242     171.3136     342.4571      1.311     3.88     1029.712     60.35163     120.6473         7     0.979     0.672  83.96   0
       341    828.8259    476.9061 307.5822920  +6.4916155     936.9308     1170.389     1178.406     85.96242     170.9731     342.2188      1.540     3.04     1033.849     60.35163      152.036         9     0.801     0.767 -37.15   0
       342    576.6833    475.4197 307.6871034  +6.4837931     2449.533     3941.216     3748.656     85.41835     170.9049     342.3549      1.745     4.10     1038.943     60.35163     314.9736        23     1.405     1.034 -89.36   0
       343    950.4714    472.5406 307.5318955  +6.4974800     4976.448     6855.118     7078.671     85.96243     171.2456     342.4571      1.519     3.33     1028.359     60.35163     723.5396        24     1.339     0.909 -88.37   0
       344    623.5974    470.9011 307.6677635  +6.4872299     5731.444     9792.891     10866.39     85.55469     170.9731     342.0484      1.895     4.11     1037.396     60.35163     666.6543        40     1.780     1.157 -71.80   0
       345    111.5787    471.7354 307.8804622  +6.4696967     996.4615      1606.51     1926.961     85.41835     171.2456     342.2528      1.698     6.10     1052.964     60.35163     163.2545        12     1.282     0.815 -86.92   0
       346    973.0070    464.8201 307.5227908  +6.5014195     3342.994     4627.988     4653.545     85.41835     170.9731     342.1847      1.440     3.56     1027.406     60.35163     551.5953        15     1.329     0.670 -79.50   0
       347    535.7690    462.2484 307.7045458  +6.4878601     6407.949     10934.79     11589.28     85.41835     171.2456     342.2869      1.845     4.01     1038.989     60.35163      753.265        37     1.624     1.171 -82.69   0
       348    412.2464    463.4337 307.7558266  +6.4832284     614.1874     1151.833     1253.541      85.5547     171.2456     342.3209      1.883     4.66     1041.448     60.35163     114.0557         8     1.096     0.641  81.52   0
       349   1003.6378    460.5384 307.5102071  +6.5042092     458.2256     752.6182     659.7297     85.82673     171.3136      342.389      1.691     3.79     1026.251     60.35163     97.55212         5     1.019     0.405  73.89   0
       350    892.2327    458.1358 307.5565767  +6.5014830     2980.439     4350.155     5009.324     85.69082     171.3136     342.3549      1.588     3.59     1030.326     60.35163     437.8406        21     1.292     0.924 -79.52   0
       351    381.7605    462.5009 307.7685241  +6.4825903     2315.682     4057.211     4433.913     85.82673     171.1094     342.6272      1.920     4.42     1041.844     60.35163     270.0424        24     1.481     1.023 -82.14   0
       352    899.6494    452.4122 307.5536871  +6.5040937     2111.202     3285.081      3660.87     85.14501     171.1775     342.0484      1.645     3.53     1029.677     60.35163     317.4237        20     1.300     0.917 -84.43   0
       353    939.0193    451.6655 307.5373538  +6.5057164     1268.274     1621.881     2073.352     85.41835     171.2456     342.2869      1.422     4.61     1028.003     60.35163     188.6925        11     1.044     0.712 -81.31   0
       354    723.5602    448.4441 307.6269851  +6.4998469       2701.1     4234.721     4690.068      85.5547     171.2456     342.2528      1.706     3.83     1034.723     60.35163     333.8969        21     1.354     0.943 -82.08   0
       355    394.5790    446.7679 307.7637288  +6.4895159     3039.214     5464.695     5484.236     85.28179     171.0412     342.2188      1.869     4.44     1040.522     60.35163     342.5681        28     1.553     1.100 -83.12   0
       356     85.5493    447.3708 307.8920999  +6.4788792     1654.495     2677.896     3141.079     85.41835     171.3816     342.2869      1.736     4.35     1052.429     60.35163     223.9913        19     1.351     0.963 -88.90   0
       357    434.6350    447.0498 307.7470769  +6.4907436     1013.076     1598.254     2082.519     85.69081     171.2456     342.2869      1.637     5.71     1039.706     60.35163     126.3887        13     1.202     0.843 -55.36   0
       358    622.2504    443.2235 307.6692542  +6.4986117     8539.397     14921.95     15669.63     85.41835     171.2456     342.2869      1.850     4.11     1035.781     60.35163     989.5481        41     1.634     1.200 -77.66   0
       359    785.2243    439.5208 307.6016636  +6.5055931     15072.16     24158.04      26475.6     85.41835     170.9731      342.389      1.789     4.26     1032.653     60.35163      2005.14        56     2.060     1.189 -60.28   0
       360    304.7612    440.4658 307.8012584  +6.4891019     2221.907     3843.937     4410.443     85.69082     171.1775     342.4911      1.885     4.49     1042.747     60.35163     262.7169        26     1.461     1.131 -63.67   0
       361    813.9982    437.1484 307.5897876  +6.5075343      1149.56     1927.761     1784.588     85.14501     170.8367     341.9462      1.737     4.66     1031.578     60.35163     154.9451        12     1.251     0.672 -72.75   0
       362    387.4928    437.1494 307.7669972  +6.4932491     1211.609     1989.936     3342.547     85.69082     171.1094     342.5932      1.927     4.58     1040.021     60.35163     150.3052        11     1.091     0.820 -31.37   0
       363    970.1290    434.6242 307.5249988  +6.5137903     2009.671      2744.12     2550.483     85.41835     171.1094     342.3209      1.506     3.38      1026.11     60.35163     365.8635        16     1.269     0.754 -81.60   0
       364    122.3638    431.9412 307.8773267  +6.4864883     3676.064     6678.339      7502.75     85.82672     171.2456      342.389      1.942     4.38     1050.964     60.35163     485.1172        34     1.604     1.233 -78.39   0
       365    760.4976    430.6779 307.6122346  +6.5084172     2058.207     3292.794     3090.739     85.41835     171.5176      342.423      1.684     4.19     1033.143     60.35163     275.1271        19     1.368     0.886 -74.58   0
       366   1023.3550    429.3697 307.5030589  +6.5177352     2874.078     3955.484     3720.214     78.59627     141.3414      263.122      1.404     3.88     1023.307     60.35163     482.2723        17     1.399     0.705  88.91  24
       367    280.6060    428.8550 307.8116861  +6.4930838     1279.364     2310.556     2679.514     85.28179     170.9731     342.0484      1.863     4.49      1043.16     60.35163     159.8719        16     1.245     0.942 -68.08   0
       368    358.3986    426.4740 307.7794453  +6.4966797     2663.768     4950.622     5207.897     85.28179     170.6319     342.2528      1.943     4.74     1040.237     60.35163     340.7856        26     1.531     1.124 -88.64   0
       369    714.1913    424.4673 307.6316837  +6.5094325     1425.034     2174.907     1518.518     85.28179     170.9731     342.2869      1.621     4.20     1034.066     60.35163     164.5931        14     1.097     0.888 -69.70   0
       370    555.6810    416.7538 307.6978041  +6.5073099     781.3427     1299.935     1716.915     85.82673     171.2456      342.389      2.083     5.23      1034.32     60.35163     114.4332         8     1.208     0.638  83.73   0
       371    840.5117    414.6325 307.5795269  +6.5177162      1417.94     2311.667     2307.838     85.96243     171.0412      342.389      1.690     4.65     1029.502     60.35163     174.1847        16     1.275     0.893 -76.91   0
       372    478.0559    415.6429 307.7300944  +6.5051664     1246.497     2220.015      2086.16     85.69081     171.2456      342.423      1.819     6.73     1036.006     60.35163      146.173        17     1.376     0.956  29.24   0
       373    826.1522    413.4751 307.5855324  +6.5177142     1907.397     2877.962     2914.173     85.69082     171.3136      342.389      1.638     3.84     1029.768     60.35163     258.8281        16     1.185     0.904 -87.26   0
       374    723.4140    411.5129 307.6282870  +6.5150894     13400.07     21680.55     22892.73     85.41835     171.0412     342.2869      1.774     3.82     1033.333     60.35163     1586.275        46     1.588     1.193 -82.64   0
       375    616.9195    402.7565 307.6728305  +6.5151401     10805.91     24946.41     30595.56     85.82672     171.2456     342.3549      2.504     6.08     1033.109     60.35163     1440.653        76     2.403     1.556  42.04   0
       376    644.6425    407.5459 307.6611504  +6.5140910     2256.176     3706.808     4264.237     85.82673     171.2456      342.389      1.822     4.36     1033.355     60.35163     244.1976        24     1.407     1.101  80.40   0
       377    948.6308    401.4748 307.5350431  +6.5267590     3839.411     5594.383     5973.031     85.69082     171.3136      342.389      1.557     3.49      1025.55     60.35163     524.2439        22     1.415     0.821 -81.27   0
       378    387.9095    397.4514 307.7681627  +6.5096523     23811.52      43361.2     45795.13     85.82672     171.0412     342.5592      1.932     4.25     1037.456     60.35163     2592.532        61     1.738     1.344 -79.65   0
       379    134.0284    397.1199 307.8736576  +6.5012565     1814.417     3651.588      4164.59     85.69082     171.1775     342.3209      2.278     5.33     1049.044     60.35163     226.8729        25     1.502     1.228 -71.91   0
       380    904.1804    396.9735 307.5536642  +6.5271335     1418.522     2393.478     2866.612     85.28179     171.0412     342.2869      1.991     4.46     1027.131     60.35163     216.1925        18     1.328     1.037 -81.99   2
       381    917.4262    391.8274 307.5483329  +6.5297004     4970.802     7344.774      6319.18     85.28179     171.0412     342.2188      1.519     3.21     1026.503     60.35163     718.7188        26     1.405     0.904 -82.29   0
       382     67.4333    392.5356 307.9014811  +6.5009072     1297.035     2346.493     3044.194     85.69082     171.2456     342.3549      2.462     6.47     1050.551     60.35163     175.7084        19     1.506     1.090 -58.69   0
       383    245.4720    388.0430 307.8276615  +6.5087520     11520.03     20811.33     22006.39     85.69082     171.2456      342.423      1.935     4.34     1042.982     60.35163     1383.094        47     1.722     1.270 -82.86   0
       384    739.7610    381.6161 307.6224993  +6.5279793     739.9221     1414.069     1410.669     85.41835     171.0412     342.1506      1.905     4.63     1030.537     60.35163     93.78918         7     0.863     0.704 -69.31   0
       385    968.6081    380.4128 307.5274483  +6.5361214     1014.319     1336.893     1570.757     85.41835     171.0412     342.3209      1.511     5.25     1023.336     60.35163     141.6095        11     1.167     0.700  83.08   0
       386    707.8453    381.0290 307.6357805  +6.5271540     691.7516     936.7372     922.8273     85.41835     171.3136     342.2528      1.435     3.95     1030.596     60.35163     114.1299         7     0.826     0.715  34.92   0
       387    358.3436    377.8338 307.7811088  +6.5167588     1094.435      1745.21     1506.002     85.69082     171.2456      342.389      1.704     4.37     1037.766     60.35163     145.6927        12     1.028     0.911 -45.67   0
       388    145.7079    376.6714 307.8694962  +6.5100914     4422.942     8073.227     8475.482     85.69082     171.4496      342.389      1.927     4.34     1047.611     60.35163     514.7698        37     1.693     1.213 -80.57   0
       389    250.3650    375.7079 307.8260450  +6.5140089      1087.34     1836.392     1517.188     85.96242     171.1094      342.423      1.812     5.37       1042.2     60.35163     149.7118        15     1.214     1.134  53.45   0
       390    167.8229    372.2947 307.8604556  +6.5126423     1966.234      3786.52     4108.498     85.82673     171.0412     342.2528      2.091     5.47     1046.229     60.35163     228.4514        27     1.659     1.177 -74.96   0
       391    831.5153    372.8269 307.5846686  +6.5346754     851.3093     1003.006     579.4414     85.96242     170.9731     342.2528      1.579     5.81     1027.856     60.35163      99.6698        10     1.270     0.748 -82.15   0
       392    563.1931    371.6603 307.6962008  +6.5261786     706.8466     1415.912     1295.132     85.14501     171.0412     342.1506      2.046     7.23      1031.25     60.35163     100.2885         9     1.585     0.923 -73.13   0
       393    391.1947    367.6634 307.7678021  +6.5220604     1625.181     2983.067     3678.625     85.14501     171.0412     342.1506      2.003     5.79     1035.603     60.35163     186.5283        21     1.589     0.947 -76.49   0
       394    979.5197    366.5383 307.5233793  +6.5422137     967.2255     1736.019     2223.916     85.96243     171.2456      342.389      1.953     5.52     1022.039     60.35163     128.5623        10     1.476     0.581 -69.76   0
       395     10.4582    367.5022 307.9259998  +6.5093227     836.7707     1467.661     952.9781      85.5547     171.1775     342.5592      1.792     4.55     1050.248     60.35163     137.1448         7     1.310     0.450  79.96   0
       396     41.4205    361.7735 307.9133295  +6.5127308     2808.724     5433.026     5779.977     85.41835     171.0412     342.2869      2.025     4.59     1049.942     60.35163     344.4583        34     1.691     1.229 -84.54   0
       397    445.0077    360.7982 307.7456739  +6.5267005     5938.439     10951.95     11490.24     85.14501     170.9049     342.1506      1.941     4.42     1032.997     60.35163     669.6729        38     1.673     1.236 -80.89   0
       398    785.6281    358.0563 307.6042320  +6.5392399     11694.49     18859.93     19910.83     85.41835     171.3136     342.2869      1.723     3.74     1027.798     60.35163     1440.397        41     1.563     1.131 -80.35   0
       399    777.6067    359.5678 307.6075143  +6.5383476     1827.175     3021.699     3825.078     85.14501     171.0412     342.1847      1.859     4.06     1028.041     60.35163     253.0199        20     1.360     0.953  77.09   0
       400    349.4124    357.1514 307.7855174  +6.5249975     915.1214     1504.712     1995.134     85.14501     171.1775     342.0484      1.751     5.23     1037.124     60.35163     132.4865         9     1.074     0.720 -48.99   0
       401    193.5314    349.4785 307.8505450  +6.5229265       821.71     1177.378     1348.128     85.96243     171.5176      342.389      1.667     5.67     1043.776     60.35163     122.5062         8     1.063     0.852 -32.66   0
       402    465.3786    345.1753 307.7377361  +6.5338337     1950.865     3569.647     3605.539     85.41835     171.0412      342.389      1.960     4.87     1031.344     60.35163     256.3947        23     1.510     1.023 -77.28   0
       403    493.1093    344.5171 307.7262357  +6.5350355     2557.837     4529.874     4560.104     85.55469     171.5176     342.4911      1.910     4.32     1030.598     60.35163      309.525        29     1.440     1.225 -78.20   0
       404    850.9615    341.0113 307.5776562  +6.5484605     31542.87     50694.67      53288.5     85.28179     171.0412     342.0825      1.693     3.87     1026.108     60.35163     4048.846        54     1.666     1.124 -80.81   0
       405    342.6292    337.2146 307.7890084  +6.5330005     650.6116     1447.949     1283.056     85.41835     170.9731     342.2869      1.872     4.36     1036.354     60.35163     105.1973         5     1.128     0.480 -87.00   0
       406    622.8594    333.4941 307.6726926  +6.5439343     2335.402       4084.5     4506.445     85.69082     171.2456     342.4911      1.985     4.55     1028.247     60.35163     281.2374        26     1.488     1.141  72.32   0
       407     31.1286    333.9093 307.9185485  +6.5238874     944.9621     1776.309     2343.327     85.69082     171.4496      342.389      2.219     5.77     1049.733     60.35163     113.1195        12     1.384     0.678 -74.03   0
       408    153.7921    332.4799 307.8676309  +6.5286074     604.7222     963.9917      886.809     85.41835     170.7684     342.2188      1.561     4.63     1045.804     60.35163      90.1405         5     1.184     0.514  61.52   0
       409    707.4264    327.0557 307.6377689  +6.5494231     71809.98     117973.1     123826.5     85.41835     171.3136     342.2188      1.772     3.82     1027.334     60.35163     8881.371        74     1.663     1.270 -82.47   0
       410    865.4420    328.3478 307.5720640  +6.5541725     1209.708     1998.899     1638.904     85.82673     171.3136      342.423      1.733     4.56     1025.132     60.35163     173.7372        13     1.129     0.855  65.30   0
       411     87.1026    326.5695 307.8955401  +6.5288027     1090.021      2044.19     2642.441     85.96242     170.9731     342.4571      2.173     4.79     1048.717     60.35163      159.729        16     1.452     0.937 -78.85   0
       412    948.9615    324.4807 307.5374877  +6.5585579     842.1558     1314.321     1019.388     85.82672     171.3136     342.3209      1.785     5.34     1021.279     60.35163      161.994         8     1.428     0.563  67.88   0
       413    569.9796    323.8435 307.6949905  +6.5461472     2349.573     4242.025     4320.676     85.28179     171.1094     342.2188      1.942     4.44     1028.276     60.35163     285.4929        26     1.471     1.106 -70.95   0
       414    107.2299    322.7067 307.8873079  +6.5310750     5023.183     8988.135     9092.912     85.96242     170.9731     342.2869      1.904     4.23     1047.943     60.35163     638.8721        37     1.617     1.247  89.77   0
       415    553.2457    320.0260 307.7020724  +6.5471625     5917.701     10375.09      10475.7     85.28178     171.3136     342.2528      1.838     4.02     1028.102     60.35163     723.8057        38     1.566     1.250 -84.29   0
       416    282.5093    317.6470 307.8146493  +6.5390592     2256.805     3776.125     3818.613     85.82673     171.1775     342.5251      1.823     4.10     1038.341     60.35163     271.5498        22     1.352     1.045 -76.72   0
       417    416.1266    315.1844 307.7592121  +6.5445630     20868.81     38925.09     41028.19     85.28178     170.9731     342.2869      1.948     4.30     1031.944     60.35163     2316.859        55     1.735     1.330 -82.62   0
       418    595.0054    314.7761 307.6848967  +6.5507291     627.1695     852.1775     838.0499     85.28179     170.9731     342.2188      1.511     4.31     1027.808     60.35163      86.8916         5     1.042     0.507  35.93   0
       419    523.4532    313.9802 307.7146557  +6.5486600     1100.468     1977.944     1571.823     85.28178     171.2456     342.1847      1.886     5.84     1028.058     60.35163     128.9709        17     1.372     1.053 -89.67   0
       420    396.0923    313.5520 307.7675918  +6.5445645     967.6571     1542.975     2036.299     85.69082     171.1094     342.5251      1.619     5.31      1032.78     60.35163     138.3976        10     1.112     0.720 -78.22   0
       421    495.3010    310.6547 307.7264657  +6.5490891     922.2494     1650.777     1542.057     85.69082     171.2456     342.6953      2.023     5.01     1028.284     60.35163     131.5448        12     1.222     0.863 -81.70   0
       422    810.7621    307.4153 307.5954887  +6.5609875     926.1838     1377.752     1266.523      85.5547     171.0412     342.1166      1.500     4.96      1025.37     60.35163     143.0021         9     1.110     0.627 -85.90   0
       423    505.2238    305.5438 307.7225147  +6.5515318     7140.861     12926.17     13649.67     85.41835     171.2456     342.1847      1.923     4.24     1027.797     60.35163     788.6361        44     1.682     1.263 -77.16   0
       424    392.5645    307.7867 307.7692521  +6.5468263     607.8547     1066.124     1449.522     85.28179     171.0412     342.1847      1.834     3.50     1032.651     60.35163     94.68274         5     0.763     0.464  73.19   0
       425    774.3202    304.2927 307.6107369  +6.5610585     2803.669     4382.073     4727.958      85.5547     171.5176     342.4571      1.725     3.84     1025.818     60.35163     384.9965        23     1.365     1.047  87.70   0
       426    929.5995    303.9548 307.5462220  +6.5663859       968.52      1507.21     1219.229     85.00801     170.9731     341.9462      1.463     3.71     1021.327     60.35163     149.0562         9     1.048     0.582 -78.28   0
       427    721.5450    304.1705 307.6326714  +6.5593438     789.7563     1175.474      1359.56      85.5547     171.3136     342.3209      1.525     5.25      1026.45     60.35163     111.6052         9     1.149     0.725   1.23   0
       428    331.6954    302.7242 307.7947153  +6.5468725     794.0275     1340.292     1326.693     85.41835     171.4496     342.4571      1.707     3.72     1035.149     60.35163     127.5963         7     1.007     0.647  -5.53   0
       429    167.3312    296.6764 307.8632155  +6.5438439      859.626     1665.612      1864.62     85.96242     171.3816      342.389      1.912     2.92     1044.779     60.35163      152.371         8     0.888     0.628  -0.42   0
       430    395.0447    289.6805 307.7688321  +6.5543846     6041.496     11218.39     11136.03     85.82672     171.2456      342.389      1.979     4.45     1031.794     60.35163     635.9064        40     1.708     1.265 -80.47   0
       431    251.0268    290.3782 307.8286515  +6.5492588     1685.755     3198.284     3213.653     85.28178     171.0412     342.3209      2.011     5.11     1039.234     60.35163     183.6155        21     1.412     1.039 -80.90   0
       432    748.0786    289.7868 307.6221289  +6.5661697      936.306     1411.429     1999.943     85.41835     170.9731     342.1847      1.725     5.69     1025.568     60.35163      119.817        11     1.334     0.683  80.89   0
       433    762.9294    285.5698 307.6160993  +6.5684074     49981.27      80211.4     83475.48     85.69082     171.2456     342.3549      1.721     3.75     1025.223     60.35163     6066.437        65     1.639     1.208 -82.35   0
       434    434.6543    285.1015 307.7525274  +6.5576044     1943.989     3669.742     3641.074     85.69082     171.2456     342.6272      1.929     4.85     1029.583     60.35163      270.244        26     1.602     1.102 -82.28   0
       435    997.6508    282.7430 307.5186541  +6.5774144     1817.261     2542.776     2788.702     85.82673     171.2456      342.389      1.514     3.35     1015.838     60.35163     249.9507        17     1.208     0.804 -88.78   0
       436    938.6393    281.8599 307.5432066  +6.5758098     2384.703     3613.459     4170.267     85.82673     171.3136     342.4911      1.646     3.62      1019.49     60.35163     334.7683        19     1.344     0.841 -72.49   0
       437    581.1290    282.3434 307.6917545  +6.5636541     942.3001     1676.492     1472.858     85.96242     171.1775     342.3549      1.459     5.36     1026.137     60.35163      139.415         9     1.272     0.637 -47.67   0
       438    421.0400    280.6969 307.7583331  +6.5589659     1452.456     2877.965      2875.57     85.82673     171.1094     342.5932      1.932     5.71     1030.197     60.35163      185.775        22     1.574     1.025 -76.29   0
       439    472.1844    281.3184 307.7370599  +6.5604252     815.2633         1256     1343.508     85.41835     170.9731     342.2528      1.480     3.41     1027.061     60.35163     132.8073         5     0.751     0.448  12.22   2
       440    471.8278    277.7033 307.7373299  +6.5619057     705.5761     1309.704     1929.461     85.96242     170.9731     342.3209      2.549     5.07     1026.871     60.35163     112.0706         8     1.207     0.603 -65.13   2
       441    842.2458    275.1367 307.5834894  +6.5753662     1214.644     1818.536      1891.25     85.69082     171.1775      342.423      1.579     3.78     1022.838     60.35163      193.872        13     1.142     0.781  88.41   0
       442    974.5765    273.0414 307.5285682  +6.5806499     589.3044     1052.848     1584.659     85.41835     171.0412     342.1506      2.259     4.26      1016.89     60.35163     83.14594         5     0.802     0.645  -6.09   0
       443    451.8211    272.4124 307.7458217  +6.5634190     916.8484     1647.559     1826.852     85.55469     170.9049     342.2869      2.065     6.76     1027.727     60.35163     111.1379        12     1.163     1.101 -59.23   0
       444    197.9608    272.1897 307.8513159  +6.5549834     1811.115     3209.287     3294.476     85.14501     171.0412     342.1166      1.853     5.11     1042.209     60.35163     248.2795        17     1.288     0.939 -61.78   0
       445    761.4806    270.2072 307.6172176  +6.5747015      5632.99     9291.006     9394.384     85.41835     170.7684     342.2188      1.767     3.85     1024.433     60.35163     717.3368        33     1.494     1.117 -81.28   0
       446     93.6840    269.7455 307.8947274  +6.5524832       806.41     1377.902     1733.227     85.82673     171.2456     342.5592      2.041     6.03     1047.411     60.35163     114.4927        10     1.304     0.784 -65.33   0
       447    777.6906    267.9951 307.6105558  +6.5761568     2556.002     4022.508     3925.869     85.28178     170.9049     342.0825      1.700     4.30     1024.128     60.35163     313.7517        26     1.538     1.014 -84.29   0
       448     80.9087    263.6687 307.9002413  +6.5545618     1233.762     2040.829     2310.481     85.82673     171.3816      342.389      1.760     5.00     1047.743     60.35163     149.0607        15     1.113     1.007  58.97   0
       449    367.3268    262.7619 307.7812577  +6.5645673     1305.599     2980.704     3531.831     85.69082     171.1775     342.4571      2.349     7.08      1031.69     60.35163     166.7256        26     1.763     1.198 -29.57   0
       450   1015.9871    258.8846 307.5118339  +6.5878762     6113.451     8912.443     9590.719     85.41835     171.1094     342.2188      1.521     3.40      1014.33     60.35163     942.0747        28     1.427     0.931  87.84  16
       451    494.0026    258.8851 307.7287494  +6.5704185     1725.549      3127.29     3302.031     85.14501     170.8367     342.0825      1.880     5.23     1024.973     60.35163       197.62        19     1.421     0.948 -73.53   0
       452    256.7672    254.5885 307.8274748  +6.5642272     4794.762     8886.158     9851.621     85.28179     170.9049     342.2188      1.967     4.52     1038.463     60.35163     526.3029        33     1.590     1.209 -85.53   0
       453    775.5532    248.2440 307.6121076  +6.5842397     692.5289     993.9376     1271.168     85.82673     171.1775     342.3549      1.414     3.52     1023.115     60.35163     134.9698         7     0.888     0.614 -15.61   0
       454    390.7945    245.5570 307.7720862  +6.5724581     1298.633     2366.512       2495.7     85.14501     170.9049     342.0484      1.878     5.38     1029.688     60.35163     149.4515        18     1.435     0.908 -74.67   0
       455    977.7580    244.1702 307.5282141  +6.5926758     1007.408     1700.285     2272.761     85.41835     171.1094     342.2188      1.971     4.63     1015.621     60.35163     175.0469        12     1.375     0.695 -75.52   0
       456    160.6091    241.1604 307.8678852  +6.5665369     1432.008     2803.727     3309.624     85.14501     171.0412     342.1166      2.081     6.11     1043.435     60.35163     154.4651        22     1.583     1.030  84.88   0
       457    313.2352    240.8892 307.8044729  +6.5717805     944.4031      1478.08     1605.858     85.96242     171.1775      342.389      1.636     5.11     1034.792     60.35163     127.1158        10     1.161     0.637  49.16   0
       458    570.2274    236.8994 307.6978145  +6.5820504     1949.073     3523.124     3261.484     85.82672     170.9731     342.2869      1.913     4.64     1023.306     60.35163     238.2882        24     1.430     1.147  80.22   0
       459    913.5980    235.9921 307.5551517  +6.5939106      1701.82     3086.155     3788.501     85.14501     170.9049     342.1506      2.038     5.04     1017.706     60.35163     224.7217        21     1.337     1.217  78.61   0
       460    733.7379    234.3339 307.6299520  +6.5885840     4665.739     7624.513     7675.247     85.82673     171.2456      342.389      1.764     3.75     1022.969     60.35163     546.3036        31     1.511     1.105 -81.20   0
       461    674.5449    233.9647 307.6545630  +6.5867557     1922.064     3096.984     2953.024     85.69082     171.2456      342.423      1.799     4.50     1023.141     60.35163     230.3705        20     1.341     1.015 -80.02   0
       462    971.4550    233.8631 307.5311791  +6.5967209     822.1079     1415.626     1637.023     85.96242     171.1775     342.3549      1.989     3.62     1015.483     60.35163     140.0623         7     0.950     0.627  43.39   0
       463    929.5544    226.7572 307.5488305  +6.5982561     1129.478     1803.824     1646.123     85.82673     171.2456     342.3209      1.670     4.07      1016.43     60.35163     144.5445         9     1.164     0.493  86.77   0
       464    233.4408    219.7846 307.8383434  +6.5778114     1908.883     3464.308     3803.874     85.28179     171.0412     342.1506      2.012     4.49     1039.224     60.35163     232.7529        22     1.352     1.095 -55.68   0
       465    875.9478    218.7586 307.5713766  +6.5997682     1629.263     2217.988     2725.007     85.82672     171.3136      342.389      1.461     3.77     1018.413     60.35163     235.1725        14     1.218     0.725 -86.93   0
       466    766.3759    217.9738 307.6169385  +6.5964300     1594.029     2617.143     2193.655     85.28178     171.0412     342.2528      1.716     4.51     1021.766     60.35163     228.2538        21     1.445     0.983 -86.28   0
       467    467.2666    209.5375 307.7415225  +6.5898948     18874.18     34335.76     36285.58     85.82673     171.2456      342.389      1.940     4.34     1023.121     60.35163     2103.621        58     1.735     1.344 -80.16   2
       468    472.9792    203.8393 307.7393406  +6.5924389     1024.859     1884.375     2120.312     85.41835     171.0412     342.1165      1.850     5.60     1022.496     60.35163     133.2816        13     1.168     0.871 -89.64   2
       469    793.2507    208.6318 307.6060838  +6.6011855      12338.5      19733.8     21564.92     85.69082     171.3136     342.3209      1.759     3.79     1020.999     60.35163     1619.661        47     1.545     1.294 -71.35   0
       470    732.1762    204.1557 307.6316154  +6.6009910     761.8094      1307.19     1603.866     85.28178     171.2456     342.2188      1.813     6.04     1021.579     60.35163     114.9286         8     1.156     0.888  18.51   0
       471    155.6686    202.8942 307.8712317  +6.5821683      2054.01      3701.68     4101.087     85.69082     171.3816      342.423      2.027     4.33     1042.594     60.35163     233.8171        21     1.353     1.010 -78.28   0
       472    182.7197    201.4390 307.8600400  +6.5836792      628.912     1043.008     784.7379     85.82673     171.3136     342.3209      1.849     5.00     1041.322     60.35163     75.81531         7     1.274     0.554 -67.16   0
       473    130.8396    201.7651 307.8815873  +6.5817987     1058.189     1739.514     2027.322     85.55469     171.1094     342.1847      1.998     3.94     1044.116     60.35163     169.6017        12     1.021     0.883  76.25   0
       474    929.7015    198.9223 307.5497032  +6.6097528      1476.03      2148.44     2044.942     85.41835     171.5176      342.423      1.530     4.06     1015.546     60.35163     211.3057        12     1.118     0.722 -81.99   0
       475    311.7636    196.3093 307.8065892  +6.5901355     973.5995     1806.222     1099.822     85.96242     171.1775      342.423      1.910     5.62     1035.163     60.35163     131.4723        11     1.297     1.067 -83.27   0
       476    591.3764    195.3632 307.6904241  +6.5999072      3993.83     6778.088      7557.51     85.41835     170.9731     342.1506      1.834     4.37     1021.366     60.35163     437.3108        29     1.477     1.117 -83.07   0
       477    554.0245    195.1371 307.7059541  +6.5987489     1769.639     2941.762      3141.91     85.41835     171.2456     342.3209      1.762     5.10     1021.226     60.35163      199.738        21     1.365     1.103  85.49   0
       478    396.0009    194.4363 307.7716469  +6.5937378     1206.609     2021.878     2054.372     84.87079     171.0412     342.1847      1.774     5.11     1026.963     60.35163     158.1831        13     1.202     0.891 -45.57   0
       479    952.1565    192.2935 307.5405935  +6.6132391     2745.901     3749.274     3718.969     85.82673     171.2456     342.5251      1.478     3.53     1014.822     60.35163      433.228        18     1.298     0.837 -82.97   0
       480    898.3171    191.7829 307.5629857  +6.6116524     11031.83     16849.33     17794.27     85.41835     170.9049     342.3209      1.653     3.44     1016.394     60.35163     1584.195        43     1.541     1.115 -81.01   0
       481    325.7912    192.1584 307.8009000  +6.5923204      882.974     1474.768     1130.999     85.14501     171.0412     342.1166      1.998     5.21     1033.751     60.35163      128.864         9     1.158     0.662  61.12   0
       482    573.2210    191.9152 307.6980850  +6.6007224     772.1769     1269.138     1297.265     85.55469     170.9049     342.3209      1.744     5.61     1021.169     60.35163     107.2153         9     1.163     0.762  50.60   0
       483     24.5293    188.5113 307.9262117  +6.5836900     22309.87     38748.16     41961.78     85.96243     171.5176      342.423      1.898     4.17     1048.733     60.35163     2745.352        60     1.748     1.313 -82.73   0
       484    984.8932    189.6135 307.5270782  +6.6154381     10123.91     14322.06     14856.61     85.55469     170.9731     342.1847      1.509     3.50     1013.998     60.35163     1576.163        29     1.383     0.925 -84.70   0
       485    696.4011    189.4433 307.6469775  +6.6058680     2417.743     4344.668     4783.131     85.14501     170.9049     341.9803      1.920     4.21     1021.555     60.35163     328.8693        26     1.503     1.074 -80.97   0
       486    270.9173    189.2802 307.8238004  +6.5916647     923.2631     1594.706     1633.156     85.82673     171.5176     342.4571      1.701     5.56     1038.275     60.35163     141.2395        10     1.256     0.693  41.91   0
       487    505.0451    184.8439 307.7266552  +6.6013565     1564.698     2762.093     2449.575     85.82673     171.2456     342.3549      1.887     5.77     1021.035     60.35163     168.9014        20     1.457     0.982 -87.49   0
       488    889.0199    180.3563 307.5672330  +6.6160594      2044.01     2918.231     2888.534     85.28178     171.1094     342.2188      1.526     3.88     1016.174     60.35163     271.5823        19     1.344     0.874 -83.18   0
       489    836.7858    181.1336 307.5889149  +6.6139934     1939.937      2824.47     2947.021     85.28178     171.1094     342.3209      1.608     3.64     1018.157     60.35163     256.3607        17     1.220     0.900 -89.51   0
       490    516.9614    180.6526 307.7218443  +6.6034864     2107.133      3529.87     3545.053     85.55469     171.3136      342.389      1.784     4.18     1020.756     60.35163     237.4029        21     1.361     0.994 -76.74   0
       491    748.4947    177.7413 307.6257217  +6.6124420     36759.77     59672.01     62614.07     85.69082     171.2456     342.5251      1.769     3.87      1020.18     60.35163     4557.849        61     1.619     1.234 -83.23   0
       492    351.5897    177.2248 307.7906831  +6.5993522     5192.222     11360.88     13071.89     85.41835     171.0412     342.2528      2.314     6.26     1030.988     60.35163     506.3416        52     2.236     1.285 -81.50   0
       493    982.3540    176.4294 307.5285756  +6.6207966     3021.823      4393.08     4491.734     85.28179     171.3136     342.2528      1.564     3.43     1013.781     60.35163     471.3904        24     1.365     0.950 -75.76   0
       494   1020.4582    175.2328 307.5127797  +6.6225618     1831.195     2519.264     2364.233     85.69082     171.3136     307.5258      1.456     3.93     1012.963     60.35163      264.525        14     1.268     0.704 -83.96  16
       495    916.3245    174.9111 307.5560681  +6.6192193      7540.49     11232.97     11681.43     85.82673     171.5855     342.4911      1.592     3.44     1015.226     60.35163     1084.391        32     1.444     1.002 -87.17   0
       496    459.9642    173.9998 307.7457549  +6.6043214     3988.087     7468.666     7379.545     84.73335     171.0412     342.1847      1.947     4.62     1021.746     60.35163     466.9739        35     1.638     1.223 -81.78   0
       497    235.1912    171.0878 307.8392610  +6.5979742     666.1934     1162.956       1012.8     85.41835     170.9049     342.1506      1.642     4.36     1039.428     60.35163     105.2037         5     1.036     0.522  55.75   0
       498    117.3397    165.4535 307.8884252  +6.5963350     3969.986     6949.155     7216.786     85.82673     171.1775     342.3549      1.886     4.12     1043.604     60.35163     495.9823        31     1.519     1.170 -81.97   0
       499    936.5278    164.8759 307.5480084  +6.6240370     958.5547     1419.113     1853.431      86.0979     171.5176      342.389      1.631     5.36     1014.427     60.35163     118.8121        11     1.209     0.735  81.18   0
       500    263.0079    163.1453 307.8279698  +6.6021884     5372.367     9949.575     10561.88     85.28179     171.0412     342.0825      1.959     4.41     1038.955     60.35163     611.3772        38     1.691     1.229 -78.04   0
       501    287.6585    162.0128 307.8177641  +6.6034844      27454.6     51144.32      53973.1       85.145     171.1775     342.0825      1.970     4.45     1038.518     60.35163     3141.946        65     1.780     1.360 -81.23   0
       502    716.8415    161.8859 307.6394094  +6.6179291     872.0342     1366.016     929.1898     85.82672     171.1775      342.389      1.545     5.15     1020.168     60.35163     119.4491        10     1.106     0.678 -65.71   0
       503    613.5369    162.5041 307.6823207  +6.6142154     622.8983     1146.078     1819.938     85.69082     171.3816     342.4571      2.176     3.73     1020.376     60.35163     87.21722         6     0.972     0.412 -71.41   0
       504    167.6743    158.7993 307.8677334  +6.6007762     3347.871     6097.389     6263.967     85.00801     170.5636     342.1847      1.897     4.59      1040.95     60.35163     411.0287        30     1.648     1.122 -85.56   0
       505    411.6956    157.4652 307.7663716  +6.6095278     41604.93     75679.09        79658     85.82673     171.3816      342.423      1.943     4.27     1023.552     60.35163     4485.771        74     1.772     1.389 -83.32   0
       506    428.9336    158.1803 307.7591838  +6.6098112     1194.433       2144.3     2101.665     85.41835     171.2456     342.2869      1.843     4.78     1022.417     60.35163      164.924        15     1.314     0.945 -77.03   0
       507    315.6951    155.2050 307.8063429  +6.6072371      15124.9     27493.92      29411.1     85.55469     170.9049     342.1166      1.922     4.38     1035.246     60.35163     1670.843        51     1.717     1.300 -84.39   0
       508    750.9236    153.6441 307.6255222  +6.6224719     30369.54     49328.53     52085.95     85.69082     171.3136      342.423      1.741     3.79      1018.96     60.35163     3707.766        60     1.615     1.253 -85.44   0
       509    699.0344    155.8493 307.6470129  +6.6198254     826.3968     1452.712     1369.411     85.69082     171.2456     342.3209      1.933     5.78     1020.403     60.35163     107.5195        10     1.335     0.850  59.00   0
       510    323.3864    155.0788 307.8031509  +6.6075476     1712.398     3610.841     4854.305     85.41835     170.9731     342.1847      2.608     5.95     1034.395     60.35163     205.1832        31     1.801     1.240 -78.75   0
       511    799.4765    153.8991 307.6053352  +6.6239902     1182.378     2089.179     2577.169     85.41835     171.3816      342.389      1.977     5.49     1018.405     60.35163     145.7725        14     1.449     0.744 -73.17   0
       512     67.9016    150.9782 307.9094590  +6.6006460     7774.365     13610.58     13792.37     85.69082     170.9731     342.1506      1.840     4.02     1045.927     60.35163     989.6678        41     1.604     1.239 -80.06   0
       513    101.9368    149.0967 307.8953791  +6.6025690     1293.636     2092.851     2162.088     85.69082     171.3816     342.4571      1.724     5.11     1043.648     60.35163     154.1229        15     1.212     0.988  77.00   0
       514   1009.3785    148.3217 307.5182866  +6.6333026     1074.077     1788.996     1948.767     85.41835     170.9731      342.389      1.762     3.49     1011.944     60.35163     186.3832        11     1.087     0.735 -86.82   0
       515    735.5845    142.2422 307.6322803  +6.6266661     595.4314     812.8802     631.3577     85.28179     170.9731     342.1506      1.626     4.56     1018.518     60.35163     103.7594         5     0.812     0.728  26.40   0
       516      1.8304    136.7415 307.9373969  +6.6042971      650.384     802.9323     655.7828     80.79008     144.2795     266.4673      1.512     5.01     1050.465     60.35163     93.50366         6     1.060     0.670 -89.73  24
       517   1010.2437    134.2923 307.5183974  +6.6391236     2213.931     3030.686     3681.491     85.82673     171.1775     342.5251      1.516     3.94     1010.808     60.35163     358.3994        17     1.268     0.791  88.41   0
       518    593.2947    132.2241 307.6917524  +6.6260384     1077.689     1699.729     2162.797     85.96242     170.9731     342.2528      1.879     5.63      1019.31     60.35163     118.4714        11     1.028     0.870  83.38   0
       519    601.8260    130.1369 307.6882771  +6.6271859     1779.537     2943.603     3626.745     85.41835     171.2456     342.3209      1.783     4.18     1019.295     60.35163     194.9694        21     1.252     1.130 -73.71   0
       520    345.9781    130.3424 307.7945973  +6.6185187     774.6893     1588.935     1641.453     85.41835     171.1775     342.1847      2.025     4.56     1031.196     60.35163     147.1654        10     1.357     1.034  21.81   0
       521    286.5401    128.2974 307.8193673  +6.6173658     25356.95     46122.59     49053.65      85.5547     171.2456     342.5251      1.938     4.45     1038.555     60.35163     2822.948        65     1.743     1.390 -81.19   0
       522     31.8911    126.8268 307.9252407  +6.6094032     3886.098     6604.831     6825.813     85.96242     170.9731     342.2528      1.819     4.19     1048.073     60.35163     430.8728        32     1.642     1.090 -81.42   0
       523    718.1592    124.8952 307.6401055  +6.6332448     7456.893     11986.91     12559.97     85.82672     171.1775     342.5251      1.714     3.93     1018.054     60.35163      950.006        35     1.517     1.097 -85.82   0
       524    196.3272    126.3378 307.8569236  +6.6151415     825.7014     1320.483     1102.778     85.96242     171.2456     342.4571      1.657     4.77     1039.896     60.35163      136.677         7     1.124     0.594 -57.28   0
       525    129.0001    121.9886 307.8850496  +6.6146712     4095.736     7476.696     7957.282     85.41835     170.9049     342.1847      1.906     4.26     1041.489     60.35163     479.4341        35     1.656     1.226  86.62   0
       526    656.4305    119.4931 307.6659418  +6.6334089     718.2892     1005.597     1360.561     85.96243     170.9731     342.3209      1.499     4.66      1018.81     60.35163     83.57983         7     0.912     0.677  70.28   0
       527    590.8119    119.4843 307.6932131  +6.6312148     522.9611     919.5663     1375.184     85.41835     171.0412     342.2188      1.421     3.68     1018.978     60.35163     81.58142         5     1.031     0.377 -83.91   0
       528    467.9072    119.4124 307.7442940  +6.6271240     1231.009     1941.003     2659.665     85.55469     170.9731     342.1847      1.788     6.08     1020.223     60.35163     140.9009        13     1.056     0.983 -63.19   0
       529    399.7311    118.0774 307.7726722  +6.6253872     3226.505     6495.485     6755.275     85.96242     171.3816      342.389      2.109     4.97     1024.836     60.35163     357.0446        37     1.680     1.328 -83.84   0
       530    575.8940    117.3683 307.6994842  +6.6315885     656.7281     1431.074     1820.464     85.96242     171.0412     342.4571      2.656     7.12     1018.906     60.35163     88.54651        10     1.666     0.853 -41.92   0
       531    364.0588    116.9389 307.7875355  +6.6246594     2642.024     4864.533     4898.805     85.82673     171.1775      342.423      1.921     4.49     1028.836     60.35163     348.5011        29     1.503     1.235 -85.21   0
       532    118.4534    116.8718 307.8896055  +6.6164286     1533.354     2555.147     2390.204     85.69082     171.1775     342.3209      1.850     6.06      1041.62     60.35163     166.6188        19     1.494     1.039 -67.49   0
       533    679.5772    114.1408 307.6565020  +6.6363935     704.3344     1043.707     1125.043     85.41835     171.1775     342.2528      1.474     4.19     1018.252     60.35163     115.6656         5     0.915     0.548  42.42   0
       534   1010.7806    110.9694 307.5189562  +6.6487705     1582.668     2267.149     2126.886     85.28178     171.0412     342.2528      1.487     4.48     1008.941     60.35163     248.4987        13     1.269     0.675 -87.68   0
       535    215.9631    105.8176 307.8494569  +6.6242734     4661.851     8277.295     8699.729     85.41835     171.1094     342.1506      1.896     4.30     1039.293     60.35163      519.699        34     1.648     1.177  89.46   0
       536    854.2145    106.5165 307.5841772  +6.6453818     472.7255     764.3934     1141.893     85.41835     170.9731     342.2188      2.502     3.77     1013.085     60.35163     83.72772         5     1.029     0.396  83.36   0
       537    677.7395    104.6238 307.6575859  +6.6402611     5686.934      9441.84     9760.771     85.41835     171.1775     342.2869      1.783     3.86     1017.705     60.35163     674.4307        35     1.560     1.129 -87.94   0
       538     98.7217    105.4688 307.8981911  +6.6204717     1818.998     3177.281     4075.546     85.96242     171.5176     342.3549      2.062     5.21     1041.526     60.35163      223.525        24     1.525     1.085 -69.05   0
       539    825.6376    104.6830 307.5961158  +6.6451838      1068.05     1682.854     1511.791     85.82673     171.1775     342.3549      1.754     4.62     1013.783     60.35163     139.9869        12     1.159     0.802  82.70   0
       540    629.8519    101.9780 307.6775773  +6.6397500     8073.376     13970.05     14599.68     85.28179     171.2456     342.1847      1.833     3.96     1018.225     60.35163     994.2662        43     1.674     1.226 -83.88   3
       541    633.4228     93.3979 307.6763820  +6.6434118     47156.02     79948.96     85072.52     85.41835     170.9049     342.1847      1.830     4.10     1017.886     60.35163     5192.313        69     1.695     1.293 -80.63   3
       542     28.9454    101.6943 307.9273156  +6.6196794     879.1601     1510.734     1544.158     85.69082     171.2456     342.6272      1.990     4.36     1048.088     60.35163      174.369         9     1.222     0.721 -53.66   0
       543    568.6661    100.5978 307.7030529  +6.6382699     581.6001     1034.589     1222.854     85.14501     170.8367     342.1506      1.740     3.42     1018.566     60.35163      79.8866         5     1.063     0.319 -21.55   0
       544    357.0659     97.6675 307.7910920  +6.6323806     3173.844     6293.927     7045.127     85.82672     171.2456      342.423      2.134     4.93     1029.292     60.35163     359.7343        33     1.700     1.234 -65.97   0
       545   1003.2039     96.4302 307.5225927  +6.6545204     857.6861     1317.905     1361.383     85.28179     171.1094     342.1847      1.652     6.12     1008.122     60.35163     145.9279        12     1.552     0.678 -80.40   0
       546    538.8115     96.9279 307.7155841  +6.6387843     1561.263     2779.014     2898.114     85.28178     170.8367     342.1847      1.809     4.36     1018.602     60.35163     192.2935        20     1.309     1.025  85.99   0
       547      9.2729     96.1711 307.9356778  +6.6212965     565.2413     1703.443     3750.642     85.69082     171.2456     342.3549      3.279     4.27         1050     60.35163     96.02722         5     1.122     0.464  30.77   0
       548    312.6738     87.1358 307.8098964  +6.6352371     3123.871     5676.661     6484.896     85.96242     171.2456      342.389      1.941     4.89     1035.219     60.35163     361.6766        32     1.667     1.153 -68.19   0
       549    712.2895     82.3480 307.6439757  +6.6506140     833.0375     1275.756     1067.216     85.82673     171.0412     342.5251      1.575     5.53     1016.014     60.35163     120.1455         9     1.012     0.852  -5.61   0
       550    590.6252   1014.4877 307.6631802  +6.2617028     178540.3     245276.9     254076.9     85.96243     171.0412     342.2528      1.474     3.38     1061.194     60.35163     27336.16        90     1.505     1.077 -84.04  19
       551    683.6232     80.5881 307.6559491  +6.6503811     1210.861     2149.739      2161.51     85.41835     171.0412     342.2869      1.934     4.92     1016.699     60.35163     166.4873        15     1.296     0.857 -80.29   0
       552    697.8939     77.3662 307.6501263  +6.6521889     2842.949     4792.224     4962.351     85.96242     171.1094     342.4911      1.763     4.17     1016.217     60.35163     362.8121        24     1.400     1.002 -69.94   0
       553    439.7086     68.3324 307.7577354  +6.6472658      3548.58     6281.372     6444.915     85.82673     171.3816      342.389      1.884     4.37     1021.566     60.35163      411.002        31     1.509     1.194  89.25   0
       554    894.0165     64.7466 307.5690370  +6.6639563      2195.49     3180.639     3016.135     85.28179     171.3136     342.0825      1.517     4.24     1010.321     60.35163     324.0715        14     1.286     0.747  89.12   0
       555    912.0256     63.6242 307.5615896  +6.6650211     3948.119     5914.933     5705.583     85.28178     171.0412     342.2869      1.576     3.49     1010.068     60.35163     601.8585        24     1.356     0.943 -85.09   0
       556    604.0817     62.3501 307.6896216  +6.6552470     1572.991     2806.688      2784.99     85.82673     171.3136      342.423      1.880     4.73     1017.632     60.35163     198.6584        21     1.399     1.106 -75.92   0
       557    250.6024     62.7527 307.8365163  +6.6432170     712.6263     1393.732     1981.563     85.14501     170.9049     341.9462      2.266     3.84     1038.766     60.35163     112.9865         7     0.943     0.713  41.42   0
       558    403.3057     60.6174 307.7731249  +6.6492290     1590.437     2868.164     2730.969     85.69082     171.0412     342.2188      1.921     5.26      1024.42     60.35163     180.4824        20     1.445     0.949 -78.88   0
       559    150.8047     57.3112 307.8781754  +6.6421061     2789.853     5043.302     5428.646     85.28179     170.9049     342.0825      1.937     4.53     1039.561     60.35163     323.6152        30     1.559     1.195 -80.00   0
       560     32.8292     54.9570 307.9272839  +6.6391047     10882.21     19130.62     21153.52     85.41835     171.2456     342.2528      1.872     4.17     1045.334     60.35163     1305.851        47     1.691     1.241 -84.19   0
       561    299.3394     55.7209 307.8164988  +6.6477583     1072.081     1907.644      2247.91     85.96242     171.2456     342.3549      1.858     5.79     1037.151     60.35163     139.5812        15     1.373     1.010  39.68   0
       562    559.5187     54.7319 307.7083993  +6.6568988      799.529     1464.065     1315.811     85.96242     171.5176      342.423      1.985     5.47     1017.649     60.35163     99.23474         9     1.043     0.810 -47.76   0
       563    767.1625     54.1209 307.6221183  +6.6641033     683.2751      1352.38     2184.122     85.69081     171.3136      342.389      2.403     3.67     1012.791     60.35163     114.9638         6     1.031     0.645 -15.18   0
       564    834.4297     49.5590 307.5943132  +6.6682356     6147.041     9143.733     9075.299     85.41835     171.1094     342.2528      1.601     3.42     1010.534     60.35163     809.5065        29     1.379     1.037 -83.08   0
       565    779.4588     49.8767 307.6171502  +6.6662667     3211.825     5065.837      5247.97     85.96242     171.2456     342.3549      1.702     4.03     1012.092     60.35163     387.9589        23     1.464     0.920 -84.85   0
       566    424.7611     50.8299 307.7645380  +6.6539899     932.0367     1586.985     1400.951     85.28179     170.9731     342.2528      1.779     5.57      1022.46     60.35163     126.4017        13     1.290     0.848  74.24   0
       567    900.9816     50.0814 307.5666344  +6.6702434     561.2964     886.5642      809.355     85.41835     170.9049     342.3209      1.476     5.10     1009.384     60.35163     99.79724         7     1.101     0.669 -69.12   0
       568    541.8244     48.3048 307.7159699  +6.6589591     950.2762     1362.801     1854.832     85.96242     170.9731     342.2528      1.633     5.30     1017.638     60.35163      123.712         9     0.977     0.811 -53.58   0
       569     73.0381     46.8672 307.9108476  +6.6437991     2766.279     4708.681     4653.643     85.69082     171.1775     342.4911      1.779     4.22      1042.05     60.35163     302.2203        31     1.543     1.163 -84.70   0
       570    662.0615     47.8171 307.6660131  +6.6631887     571.3368     841.2509     1047.057     85.28178     171.1775     342.1847      1.589     4.36     1016.549     60.35163     103.8937         5     0.866     0.624 -33.24   0
       571     58.0165     47.9777 307.9170527  +6.6428346     862.3859     1635.104     2205.906     85.41835     171.0412     342.3209      2.004     2.75     1043.157     60.35163     155.9064         6     0.839     0.659  43.13   0
       572    434.5112     46.5879 307.7606288  +6.6560684     734.1178     1231.815      1181.13      85.5547     170.9049     342.2869      1.726     5.65     1021.854     60.35163     117.2408         7     1.104     0.816  40.09   0
       573    596.7103     43.2535 307.6933282  +6.6628840     1116.538     2175.827     1940.403     85.82673     171.0412     342.5251      1.974     5.36     1017.245     60.35163     151.5968        18     1.498     0.979 -87.33   0
       574     15.6076     42.3332 307.9348683  +6.6437357     2362.277     3931.218     4784.908     85.28179     170.9731     342.2188      1.794     4.22     1045.779     60.35163     343.4667        23     1.475     1.009 -75.83   0
       575    774.0968     37.7147 307.6197876  +6.6711085     1872.092     2879.498     3422.082     85.82673     171.6534     342.4571      1.697     3.99     1011.648     60.35163     258.1193        18     1.280     0.950  89.59   0
       576    415.1181     37.6761 307.7689893  +6.6590966     954.3123     1603.154     1362.983      86.0979     171.5176     342.5251      1.818     5.63     1023.155     60.35163     129.2427        12     1.129     0.824  57.29   0
       577     88.3483     38.3549 307.9047729  +6.6478290     677.3164     865.7765     828.2962     85.96242     171.1775      342.389      1.579     4.24     1040.789     60.35163     84.42786         6     1.096     0.467  -6.01   0
       578    665.7628     36.3646 307.6648601  +6.6680408     613.3749     882.4089     719.6992      85.5547     171.1094     342.1506      1.339     5.09     1016.272     60.35163     98.90955         5     1.046     0.701 -74.65   0
       579    112.1612     35.9546 307.8949577  +6.6496218      815.825     1251.714     1377.771     85.55469     171.2456     342.2869      1.659     4.55     1039.893     60.35163     113.0066         8     0.903     0.650  37.97   0
       580    100.8457     31.2068 307.8998209  +6.6512008     8156.222     14361.01     15016.45     85.28178     170.9731     342.0143      1.857     4.28     1040.012     60.35163     961.9088        40     1.697     1.165 -78.40   0
       581    429.8841     30.8807 307.7630816  +6.6623977     2146.066     3637.693     3220.355     85.55469     171.5176     342.4571      1.750     3.98     1022.151     60.35163     259.4807        24     1.342     1.105 -74.97   0
       582    267.3742     25.4574 307.8308058  +6.6591777      1320.43     2219.593     2557.529     85.41835     171.2456     342.2188      1.910     4.79     1038.621     60.35163     136.1606        17     1.223     0.980 -76.75   0
       583    592.3841   1007.3232 307.6626906  +6.2647195     81576.95     116199.5     121980.5     85.28179     170.9731     342.2528      1.505     3.29     1060.852     60.35163     11818.63        68     1.512     1.057 -82.87   3
       584    224.5956   1017.4235 307.8150894  +6.2482140     4267.991     5852.939     6169.741     85.41835     170.9731     338.2104      1.486     3.22     1062.701     60.35163     602.5389        21     1.327     0.845 -89.10  16
       585    407.6748   1017.7161 307.7390499  +6.2542391     715.4838     1019.025     652.8319     85.96242     171.5855     336.4483      1.170     2.36      1063.12     60.35163     127.8718         5     0.697     0.457  78.80  16
       586    766.0527   1017.0789 307.5902374  +6.2665014     954.9755     1206.766     1356.971     85.82673     171.2456     340.3746      1.268     3.02     1055.201     60.35163     165.9614         8     0.868     0.658  88.06  16
       587    972.7021   1014.3903 307.5045034  +6.2745113     775.0189     1114.785     552.6305      85.5547     170.8367     342.1847      1.377     4.86     1051.507     60.35163     119.3474         8     1.330     0.503 -38.27   0
       588    801.5241   1011.3896 307.5756967  +6.2700357     7446.173     10307.11     10904.36     85.41835     170.7685     342.1847      1.407     3.30     1054.032     60.35163     1148.381        24     1.356     0.803 -82.95   0
       589    899.6853   1007.9362 307.5350448  +6.2747396     1534.422     2170.583     1997.002     85.96242     171.3816      342.389      1.421     3.74     1052.339     60.35163     264.6465        13     1.252     0.645 -79.75   0
       590    222.2251   1006.8143 307.8164317  +6.2525143     2435.127     3479.703     3641.996     85.55469     171.0412     342.3209      1.494     3.16     1062.701     60.35163     411.6133        17     1.345     0.727  88.03   0
       591    758.3031   1005.8720 307.5938320  +6.2708693     889.0439     1580.203     1581.891     85.69082     171.3816     342.3549      1.987     6.05     1055.186     60.35163     121.3274        13     1.512     0.681  73.56   0
       592    329.4525     15.6730 307.8053358  +6.6653034     876.4938     1514.003     1355.196     85.69082     171.3136      342.423      1.872     5.30      1033.01     60.35163     105.5281        11     1.167     0.999 -55.13   0
       593    725.4112   1003.8373 307.6075607  +6.2706096     8446.363     11624.69     12077.83     85.28179     171.0412     342.0484      1.466     3.45     1055.832     60.35163     1260.732        27     1.362     0.874 -83.31   0
       594    440.2483   1004.1327 307.7259797  +6.2609394     4283.755     6163.573     6461.048     85.82673     171.1775      342.423      1.481     3.25     1062.358     60.35163     623.6143        24     1.342     0.908 -77.21   0
       595    581.4575   1002.8294 307.6673795  +6.2662090      4486.59     6369.873     7177.462     85.41835     171.3136     342.2869      1.475     3.28     1060.612     60.35163     626.2847        23     1.407     0.824 -84.45   0
       596    717.8521   1003.1700 307.6107224  +6.2706324     1391.205     1890.703     2488.229     85.55469     171.3816     342.3209      1.378     3.01     1055.866     60.35163     217.4551        11     0.936     0.789  68.07   0
