#   1 NUMBER                 Running object number                                     
#   2 X_IMAGE                Object position along x                                    [pixel]
#   3 Y_IMAGE                Object position along y                                    [pixel]
#   4 ALPHA_J2000            Right ascension of barycenter (J2000)                      [deg]
#   5 DELTA_J2000            Declination of barycenter (J2000)                          [deg]
#   6 FLUX_APER              Flux vector within fixed circular aperture(s)              [count]
#   9 FLUXERR_APER           RMS error vector for aperture flux(es)                     [count]
#  12 FLUX_RADIUS            Fraction-of-light radii                                    [pixel]
#  13 FWHM_IMAGE             FWHM assuming a gaussian core                              [pixel]
#  14 BACKGROUND             Background at centroid position                            [count]
#  15 THRESHOLD              Detection threshold above background                       [count]
#  16 FLUX_MAX               Peak flux above background                                 [count]
#  17 ISOAREA_IMAGE          Isophotal area above Analysis threshold                    [pixel**2]
#  18 A_IMAGE                Profile RMS along major axis                               [pixel]
#  19 B_IMAGE                Profile RMS along minor axis                               [pixel]
#  20 THETA_IMAGE            Position angle (CCW/x)                                     [deg]
#  21 FLAGS                  Extraction flags                                          
         1    659.9198     24.6473 307.6805337  +6.6763100     2890.852     5206.822     6468.684     84.65536     168.9084     337.7161      2.182     6.07     988.2892     59.52795     332.7877        31     1.866     1.117  84.90   0
         2    478.9491     26.0637 307.7556953  +6.6696727     18940.19     33850.12     35838.62     84.65536     168.8412     337.7497      1.906     4.11     992.3148     59.52795     2116.203        52     1.652     1.332 -58.18   0
         3    299.5252     26.4496 307.8302467  +6.6635014     7804.613     13804.89     15516.47     84.65536     168.9755     337.7497      1.952     4.17     1004.279     59.52795      987.138        45     1.620     1.351 -55.21   0
         4    287.5446     23.1505 307.8353371  +6.6644616     2561.023     4427.449     5420.285     84.65536     168.9084     337.7497      1.995     5.13     1005.724     59.52795     289.5984        27     1.607     1.139 -49.38   0
         5    977.4382     16.0763 307.5488603  +6.6904406     998.9652     1422.255      1253.99     84.52131     168.9755     337.7161      1.441     4.05     975.7122     59.52795     153.8915         8     1.084     0.490 -85.48   0
         6    294.7115     10.6462 307.8327816  +6.6698646     766.0933     1263.139     1161.356     84.65536     168.7741     337.7832      1.861     5.08     1005.199     59.52795       105.96         7     1.148     0.671 -84.94   0
         7    217.1100      8.5448 307.8651018  +6.6681283     9011.413      16214.1      17331.1     84.52131     168.7069     337.8504      1.928     4.23      1005.48     59.52795     1066.784        49     1.702     1.291 -52.89  16
         8     30.8714      9.3596 307.9424682  +6.6615344     765.4926     1322.233     628.8914     84.52131     168.9084     337.7832      1.836     5.63     1010.644     59.52795     105.1282        10     1.182     0.757 -28.49   0
         9    962.6424      6.1923 307.5553417  +6.6940288     4346.189     6528.145     7235.591     84.11786     168.7069     322.1117      1.622     3.31     976.5046     59.52795     619.8248        29     1.400     1.021 -55.60  16
        10    561.2083      6.6606 307.7221640  +6.6804363     2606.296     4589.053     4713.207     83.98295     168.7069     326.5519      1.885     4.26     989.4316     59.52795     321.3608        28     1.424     1.235 -46.96  16
        11    763.6608      4.7284 307.6380898  +6.6879986     1781.624     2680.438      2841.72     84.78921     168.9084     305.8231      1.666     4.10     984.1208     59.52795     241.7839        16     1.304     0.819 -45.98  16
        12    499.5031      5.1670 307.7478587  +6.6789884     1578.268     2517.656     2165.679     84.78921     168.7741     311.1165      1.705     3.74     991.8129     59.52795     251.5514        17     1.168     0.959 -69.66  16
        13    746.2113      1.1198 307.6454634  +6.6889060     1253.856      1610.51     2037.314     69.99029     130.1581     250.1421      1.110     2.82     985.0988     59.52795     391.2581         8     1.177     0.323   1.49  24
        14    477.8952   1003.4053 307.7231661  +6.2661125     964.9263      1183.49     1306.467     84.38704     168.5724     337.4474      1.456     3.99     1024.292     59.52795     156.5504        10     1.079     0.636 -42.81   0
        15    831.5634   1022.5237 307.5756569  +6.2700275     7676.851     9874.215     10123.79     84.52131     151.2713     273.5696      1.386     3.16     1019.693     59.52795     1243.735        22     1.266     0.855 -40.82  24
        16    621.2076   1023.8370 307.6629661  +6.2624666      35831.2     40173.29     41661.57     70.15211     131.1129     250.8663      0.845     1.87     1024.365     59.52795     13059.54        22     1.288     0.404  -0.28  27
        17    622.4028   1018.5724 307.6626470  +6.2646802     81015.52     115219.9     122235.7     84.11787     168.6396     324.4268      1.543     3.21     1024.085     59.52795     11928.81        84     1.618     1.162 -49.41  19
        18    770.3589   1001.7742 307.6017705  +6.2765541     1245.112     1679.919     1378.722     84.25256     168.7741     337.5146      1.318     3.02     1019.884     59.52795     216.6486        11     1.043     0.675 -55.22   0
        19    401.3297   1000.3374 307.7550639  +6.2648173     1939.413     2767.611     2491.544     84.65536     168.9084     337.7497      1.471     3.81     1025.963     59.52795     290.0115        17     1.247     0.824 -47.64   0
        20    553.8369    991.7685 307.6920224  +6.2734562     1246.287     1610.129     1074.368     84.25256     168.6396     337.4474      1.405     5.59     1023.886     59.52795     170.1444        12     1.238     0.711 -55.05   0
        21    583.7324    990.2896 307.6796576  +6.2750659     4667.872       6955.1     7996.774     84.78921     169.1097     337.6825      1.631     3.59     1023.679     59.52795     658.4012        25     1.436     0.892 -64.57   0
        22    334.0096    989.0385 307.7834001  +6.2672282     16139.58     23650.85     25424.03     83.98295     168.7069     337.4138      1.535     3.37     1026.271     59.52795     2462.564        50     1.742     1.052 -43.71   0
        23    788.2529    989.6703 307.5947463  +6.2821484     8968.358     12323.96     12706.51     84.52131     168.7741     337.6489      1.414     3.07     1019.157     59.52795     1426.067        28     1.325     0.879 -52.13   0
        24     30.3790    990.3927 307.9094350  +6.2564842     779.1756     1184.526     1558.157     84.25256     168.7069     337.5146      1.580     3.88     1024.042     59.52795       130.66         6     0.888     0.485 -89.25   0
        25    849.5337    989.0536 307.5693183  +6.2844459     1384.471     2021.113      1831.41     84.65536     168.8412     337.6825      1.431     3.63     1017.819     59.52795     206.5315        11     1.180     0.599 -59.92   0
        26    458.0291    989.6710 307.7318787  +6.2711186     1149.345      1605.88     1673.281     84.52131     168.9084     337.7161      1.466     4.59     1024.617     59.52795     195.6033        10     1.122     0.644 -48.06   0
        27    305.4777    986.4160 307.7953366  +6.2673552     965.1352     1442.262     1283.767     84.25256     168.6396     337.5818      1.585     3.29     1026.221     59.52795     179.8706         8     0.999     0.610 -48.78   0
        28    949.5336    983.1896 307.5279866  +6.2901981     10176.75     13790.57     14193.54     84.11787     168.7741     337.5482      1.418     3.09     1014.592     59.52795     1606.025        30     1.303     0.939 -49.27   0
        29    580.8759    982.5271 307.6811052  +6.2781755     9348.854     12878.52      13340.2     84.92284     169.1767     337.7497      1.481     3.51     1023.436     59.52795     1397.371        27     1.328     0.906 -49.80   0
        30     32.6470    981.9715 307.9087783  +6.2600372     497.8844     915.8809     1587.053     84.25256     168.9755     337.6489      2.964     4.24     1024.067     59.52795     90.70996         6     1.278     0.402 -77.67   0
        31    923.1584    979.3276 307.5390695  +6.2909144     14125.76     19594.98     20597.13     84.52131     168.9084     337.7497      1.483     3.26     1014.886     59.52795     2255.395        43     1.530     1.013 -47.59   0
        32    635.9791    979.7413 307.6583160  +6.2811664     1426.907     2172.007      2453.99     84.25256     168.7741     337.5146      1.627     3.18     1021.875     59.52795     230.5626        12     1.048     0.744 -53.25   0
        33    567.6583    978.3635 307.6867343  +6.2794529      4316.11     6323.691     7163.621     84.65536     168.9084     337.7497      1.659     3.44     1023.393     59.52795     634.7062        26     1.618     1.131  -7.19   0
        34    676.9315    977.5284 307.6413839  +6.2834475     1686.787       2269.3     2035.659     84.65536     169.0426     337.6825      1.403     3.10     1020.238     59.52795     275.3328        13     1.058     0.810 -77.23   0
        35    102.2300    976.6312 307.8800655  +6.2645787     978.4775     1316.186     1213.989     84.11787     168.6396     337.4474      1.448     5.87     1024.562     59.52795     141.5719        11     1.136     0.854 -64.56   0
        36    520.4298    974.9655 307.7064614  +6.2792772     2264.229     3177.342     3055.348     84.11786     168.6396     337.5146      1.437     3.90     1023.728     59.52795     346.3484        18     1.400     0.751 -54.83   0
        37    832.8732    976.2756 307.5766663  +6.2891666     589.3813     542.6578     746.6799     84.92284     169.1767     337.7497      1.262     4.28       1017.6     59.52795     100.9011         5     1.026     0.510 -34.40   0
        38    954.9021    966.8806 307.5263043  +6.2971108     50759.64     69822.84     72060.51     84.52131     169.2437     337.7832      1.439     3.13     1014.159     59.52795     8156.692        57     1.428     1.025 -51.08   0
        39     27.8676    966.7992 307.9112765  +6.2661408     3464.062     5252.463     5774.889     83.98295     168.4378      337.481      1.592     3.49     1024.034     59.52795     468.0636        22     1.286     0.942 -53.16   0
        40    262.2460    965.1989 307.8140053  +6.2746665     1674.177     2664.146     2854.259     83.98295     168.5724     337.2457      1.732     4.26     1025.391     59.52795     237.0061        16     1.316     0.824 -58.33   0
        41    150.3828    964.4745 307.8604814  +6.2712140     702.0625     1027.999       493.55     84.11787     168.6396     337.5818      1.524     4.97     1024.773     59.52795     94.02942         7     1.246     0.560 -35.97   0
        42    661.0128    963.2601 307.6484747  +6.2888072     853.6458     1189.134     1420.824     83.98295     168.8412     337.3801      1.424     4.88     1020.556     59.52795     142.0667         8     1.070     0.698 -46.77   0
        43    852.9424    960.6197 307.5688576  +6.2962997     2493.996     3476.832     3772.611     84.25256     168.7741     337.5146      1.438     3.50     1016.278     59.52795     393.3466        17     1.268     0.783 -49.69   0
        44    801.0609    958.5953 307.5904715  +6.2954061     7243.094     10208.85     10776.69     83.98295     168.7741      337.481      1.487     3.55     1017.922     59.52795     1130.482        32     1.479     0.939 -61.33   0
        45      7.8193    960.8160 307.9198040  +6.2679375     615.4873     609.6049     953.4308     84.38704     168.6396     335.1884      1.384     3.35     1023.886     59.52795     123.0186         5     0.955     0.340 -43.92   0
        46    587.8887    958.1641 307.6790132  +6.2884689     904.6265     1290.134      1421.75     84.65536     168.8412     337.7161      1.613     5.37     1022.368     59.52795     126.5859         9     1.363     0.598 -41.01   0
        47    270.5285    957.7034 307.8108191  +6.2780388     1672.262     2574.687     2791.349     84.52131     169.0426     337.6825      1.713     4.24     1025.472     59.52795     232.0314        17     1.396     0.817 -60.09   0
        48    235.3045    957.3833 307.8254570  +6.2769902     813.2128     1441.288     889.0742     84.52131     168.7069     337.5482      1.769     6.43     1024.954     59.52795     116.2515        10     1.315     0.883 -24.13   0
        49     95.4754    955.7042 307.8835783  +6.2729921     2899.434     4080.765     3895.958     84.25256     169.1097     337.7832      1.530     3.59     1024.536     59.52795     419.5557        20     1.329     0.919 -58.55   0
        50    989.2261    953.6513 307.5124933  +6.3037156     8192.153     11100.94     11605.99     84.25256     169.0426     337.6153      1.409     3.10     1013.417     59.52795      1254.19        27     1.291     0.886 -50.44   0
        51      5.7991    952.8466 307.9209127  +6.2711599     662.6432     1070.812     1165.658     83.98295     168.5724     317.9305      1.425     3.57     1023.874     59.52795     118.6563         5     1.107     0.332 -77.72  16
        52    245.9578    949.5532 307.8212977  +6.2805802     709.0172     1123.978     816.7872     84.65536     168.9084     337.6489      1.497     5.25     1025.103     59.52795     106.5085         8     1.206     0.645 -43.62   0
        53    671.7357    947.8781 307.6445392  +6.2955163     805.1459     1186.836     1360.646     84.92284     168.9755     337.7161      1.524     4.73     1020.117     59.52795     124.6725         7     1.063     0.598 -68.04   0
        54    963.0419    945.2427 307.5236497  +6.3063159     2521.097     3555.596     3464.803     84.38704     168.9084     337.5818      1.476     3.39     1013.508     59.52795     396.2255        18     1.263     0.787 -54.84   0
        55     20.8788    943.8990 307.9149539  +6.2753607     1316.059     1969.265     2650.687     84.38704     169.2437     337.7497      1.699     4.02     1023.989     59.52795     214.0176        14     1.222     0.781 -67.28   0
        56    295.9775    941.5474 307.8007967  +6.2855621     4684.296     6992.833     7496.026     84.11786     168.9084     337.5146      1.600     3.66     1025.432     59.52795     609.6777        27     1.449     0.960 -54.89   0
        57    822.4020    941.6354 307.5821785  +6.3031202     1420.991     1939.606     2139.528     83.71247     168.7069     337.5146      1.481     4.01      1016.54     59.52795     237.4292        13     1.299     0.750 -54.00   0
        58    683.7262    941.2628 307.6397822  +6.2986480     5052.962     6904.936     7260.947     84.92284     168.9084     337.7161      1.475     3.24     1019.863     59.52795     838.0991        26     1.371     0.885 -51.95   0
        59    505.9514    939.6544 307.7136637  +6.2933725     1318.476     1676.823     1520.565     84.65536     168.9084     337.7832      1.437     4.28     1023.335     59.52795     195.3016        12     1.170     0.736 -44.63   0
        60     64.7155    939.0158 307.8969161  +6.2788494     2480.469      3575.68      3180.61     84.25256     168.6396     337.6153      1.512     3.47     1024.315     59.52795     334.6091        17     1.237     0.831 -48.87   0
        61    915.6017    938.0778 307.5435921  +6.3076946     1312.752     1473.203      1715.53     83.98295     168.3031     337.5146      1.299     3.54     1013.982     59.52795     195.6844        12     1.024     0.819 -38.23   0
        62    331.8788    935.2399 307.7861009  +6.2893692     890.6135     1230.125      1299.74     84.52131     168.9084     337.7161      1.451     5.09     1025.202     59.52795     151.3789        10     1.520     0.483 -56.72   0
        63    987.0193    935.0138 307.5140349  +6.3113375     938.6773     1301.463     1224.933     84.38704     168.6396     337.6153      1.484     5.21     1012.878     59.52795     143.4398        10     1.227     0.624 -47.34   0
        64   1007.8866    935.1506 307.5053640  +6.3119754     679.7238     728.4283     906.6229     84.65536     168.8412     337.8168      1.193     3.34     1012.553     59.52795     150.6089         5     0.960     0.364 -57.23   0
        65    608.4482    933.7944 307.6712957  +6.2992178      1820.44     2562.308     2982.611     83.98295     168.7069     337.3802      1.463     3.39     1020.768     59.52795     290.9818        13     1.125     0.722 -56.40   0
        66    647.6945    930.1610 307.6551194  +6.3020288     1450.906      2173.83     1897.055     84.78921     168.7741     337.8504      1.496     3.69     1020.208     59.52795     236.1166        15     1.315     0.736 -63.26   0
        67    327.7692    928.0549 307.7880501  +6.2921980         1539      2277.98     2308.173     84.52131     168.9755     337.6825      1.612     4.92     1025.092     59.52795     207.3829        15     1.331     0.768 -65.04   0
        68     92.7219    929.0750 307.8856227  +6.2838940     706.6461     918.2158     1407.037     84.92284     169.1767     337.7832      1.370     4.27     1024.521     59.52795     111.7744         7     0.743     0.699  84.13   0
        69    595.6190    926.0112 307.6768856  +6.3020027     617.2032     799.0778     409.0672     84.25256     168.6396     337.6153      1.496     4.33     1020.882     59.52795     90.86499         7     1.215     0.439 -33.90   0
        70    794.6494    924.3399 307.5942852  +6.3093361     854.1985     1260.994     1581.582     84.65536     168.8412     337.7832      1.556     4.94     1016.973     59.52795     142.0362         8     1.083     0.638  83.93   0
        71    931.8856    920.5554 307.5374174  +6.3154718     8018.422     10699.02     11197.26     84.65536     168.7741     337.6825      1.411     3.21     1013.467     59.52795     1244.364        25     1.310     0.845 -50.58   0
        72    170.4272    921.2455 307.8536195  +6.2897346     747.3714     1158.901     713.0732     84.11787     168.9755     337.6153      1.639     3.33     1025.142     59.52795       107.88         5     0.721     0.479  76.85   0
        73    467.9516    917.7670 307.7301822  +6.3011384     2116.355     2937.429     2562.059     84.38704     168.9084     337.6489      1.508     3.55     1023.372     59.52795     314.2249        17     1.184     0.928 -54.88   0
        74    369.5991    916.1493 307.7710809  +6.2985146      9906.84     14749.36     15527.84     83.98295     168.5051     337.2457      1.590     3.44     1024.684     59.52795     1327.404        32     1.397     1.016 -53.00   0
        75    636.5541    917.1651 307.6601833  +6.3070226     538.6316     572.9019     483.7693     84.25256     168.8412     337.5818      1.251     3.45     1019.993     59.52795     95.42072         5     0.784     0.440 -69.10   0
        76    289.5971    915.1437 307.8043379  +6.2962498     7246.562     10724.44     10948.33     83.98295     168.7069     337.3802      1.581     3.54     1025.216     59.52795     943.9941        30     1.357     1.032 -57.82   0
        77    617.7660    909.3921 307.6682476  +6.3096044     1177.524     1762.009      1819.72     84.11787     168.7069      337.481      1.563     3.71     1020.127     59.52795     188.9133        13     1.049     0.933 -72.34   0
        78    947.8169    905.4028 307.5313094  +6.3222587     1238.554     1741.142      1810.58     84.25256     168.4378     337.5146      1.621     3.32     1012.853     59.52795     194.0341        10     0.991     0.695 -46.29   0
        79    180.6414    905.4563 307.8499117  +6.2965963     669.6353     997.8247     481.3778     84.52131     168.9084     337.7497      1.598     4.80     1025.159     59.52795     100.3892         6     0.962     0.679 -74.36   0
        80    904.1746    904.5110 307.5494646  +6.3211735     941.9564     1333.914     1326.488     84.78921     168.7069     337.5482      1.419     3.42     1013.486     59.52795     185.8321         8     0.935     0.721 -23.18   0
        81    446.3649    903.4127 307.7396308  +6.3063428     702.5507     940.3445      422.211     84.11787     168.7069     337.5146      1.521     5.24     1023.379     59.52795     89.63544         9     1.308     0.592 -50.91   0
        82   1015.1347    900.9812 307.5034996  +6.3263250     799.1691     1063.442     1493.108     84.25256     168.9084     337.6153      1.390     3.87     1011.286     59.52795     136.4326         7     0.906     0.509 -43.70   0
        83    783.9254    898.8962 307.5995940  +6.3194840     1889.798     2765.947     2937.219     84.38704     169.1097     337.7497      1.586     3.65     1016.428     59.52795     288.1348        16     1.241     0.800 -52.12   0
        84    802.5917    908.6902 307.5915126  +6.3160625     774.7899     852.2728     483.7044     84.25256     168.5724      337.481      1.352     3.42      1016.22     59.52795     121.5828         5     1.020     0.332 -67.94   0
        85    876.8755    899.0989 307.5609839  +6.3224987     682.2509     781.6048     768.1924     84.11786     169.0426     337.6489      1.375     2.78     1013.674     59.52795     145.5024         5     0.998     0.542 -60.33   0
        86    648.0760    895.5490 307.6561258  +6.3163324     912.9738     947.2445     326.9764     84.65536     168.9755     337.7161      1.332     3.47     1019.261     59.52795     152.3167         9     0.988     0.790 -41.77   0
        87     34.5051    895.5820 307.9109315  +6.2957670     1104.049     1821.797     1178.129     84.52131     168.7069     337.5482      1.743     4.22     1024.089     59.52795     159.2288        11     1.164     0.776 -35.34   0
        88   1015.3677    894.6166 307.5036162  +6.3289607     1384.591     2053.994     2770.021     84.25256     168.6396     337.5818      1.685     3.64     1011.082     59.52795     209.8278        11     1.059     0.750 -54.10   0
        89    568.7983    894.4370 307.6890874  +6.3141430     1113.569     1680.587     1866.866     83.71247     168.7069     337.5146      1.514     4.35     1020.966     59.52795     183.9972        12     1.262     0.842 -49.91   0
        90    702.7697    892.1622 307.6335251  +6.3195568      2737.44     4156.951     4311.795     84.25256     168.6396     337.5818      1.567     3.36     1018.081     59.52795     409.7154        21     1.309     0.981 -48.63   0
        91    993.0515    889.7564 307.5130476  +6.3302248     756.8691     767.2225     763.5649     84.65536     168.8412     337.7497      1.655     3.98     1011.449     59.52795      128.452         6     1.181     0.384 -33.21   0
        92    863.3818    888.5755 307.5669415  +6.3263941     879.5321     1146.969      1187.68     84.25256     168.7741     337.6489      1.503     5.07     1013.771     59.52795     124.6649         8     1.126     0.645 -42.28   0
        93    242.8122    887.0967 307.8247142  +6.3062615      2266.69     3392.803     3938.267     84.38704     168.6396      337.481      1.603     3.55      1025.17     59.52795     352.3204        18     1.283     0.856 -47.14   0
        94    116.6440    887.4907 307.8770957  +6.3018661     1998.471     2991.466     3605.415     84.65536     168.8412     337.8168      1.717     3.52     1024.549     59.52795     270.0627        17     1.169     0.910 -53.37   0
        95    980.8000    887.1050 307.5182248  +6.3309118     874.9018     1290.992      574.843     84.11786     168.5051     337.2793      1.653     3.48      1011.66     59.52795     148.2137         8     0.958     0.595 -33.11   0
        96     99.1967    888.1194 307.8843197  +6.3010208     2953.008     4547.721     4998.012     83.98295     168.4378     337.4138      1.718     3.81      1024.28     59.52795     394.7113        25     1.568     0.973 -62.55   0
        97    381.5590    883.6236 307.7672117  +6.3123442     906.7496      1088.19     1020.872     84.25256     168.7069      337.481      1.619     4.38     1024.259     59.52795     125.4376         7     0.965     0.565 -32.71   0
        98    277.0456    883.8552 307.8106071  +6.3087474     878.6607     1421.194     1210.065     84.65536     168.9084     337.7161      1.569     2.78     1025.209     59.52795     145.5504         6     0.736     0.564 -41.10   0
        99    697.2653    881.2020 307.6361798  +6.3238984     7599.323     10641.18     11533.54     83.98295     168.5051      337.481      1.486     3.32     1017.787     59.52795     1125.778        27     1.326     0.932 -51.60   0
       100    834.9062    881.6931 307.5789991  +6.3282867     983.6077      1452.95     1385.965     84.65536     169.4446     337.6825      1.475     3.40     1014.452     59.52795     181.7437         8     0.991     0.619 -38.63   0
       101     57.4497    879.4186 307.9019505  +6.3032112     1160.753     1834.288     2012.809     84.11787     168.9755     337.5146      1.636     5.42      1024.12     59.52795     172.0745        13     1.476     0.693 -40.93   0
       102     70.6124    878.0886 307.8965295  +6.3042024     1132.757     1429.834     1414.782     84.38704     168.6396     337.5818      1.401     3.81     1024.138     59.52795     198.5618        10     1.064     0.639 -50.57   0
       103    934.9395    877.3256 307.5375998  +6.3334229     3320.157      4484.39     4529.485     84.92284     168.9084     337.7161      1.417     3.42     1012.636     59.52795     533.5853        17     1.178     0.848 -52.13   0
       104    965.9996    876.3611 307.5247322  +6.3348552     565.6082     767.7571     302.7052      83.5769     168.7069     337.4138      1.505     4.02     1011.772     59.52795     112.8427         6     1.373     0.336 -42.86   0
       105    380.2827    874.3770 307.7680538  +6.3161193     16574.51     25144.03     26616.23     84.52131     168.5724     337.6489      1.646     3.44     1024.214     59.52795     2058.473        46     1.519     1.126 -55.84   0
       106    114.5247    875.5131 307.8783810  +6.3067401     1422.042     2030.732     2199.142     84.65536     169.2437     337.7832      1.494     4.23     1024.466     59.52795     229.1174        15     1.387     0.871 -39.60   0
       107    251.2503    873.9722 307.8216534  +6.3119632     1239.052     1816.796     1536.699     84.25256     169.0426     337.6489      1.521     4.46     1025.204     59.52795     167.5776        13     1.240     0.740 -47.72   0
       108    431.0604    873.3455 307.7470007  +6.3182449     895.2728     1251.078     1078.146     84.78921     168.8412     337.6825      1.535     5.63      1023.23     59.52795     109.5582        10     1.235     0.751 -59.31   0
       109    711.6036    861.1809 307.6308983  +6.3326434     822.5561     1179.324     1588.574     84.25256     168.4378     337.5146      2.169     5.24     1016.972     59.52795     127.2441        10     1.282     0.604 -59.60   2
       110    143.8605    865.0460 307.8665525  +6.3120464     1734.869     2804.785     2593.187     84.52131     168.8412     337.7832      1.653     4.47     1024.951     59.52795     226.3932        19     1.346     0.953 -66.95   0
       111    458.2197    865.3856 307.7359899  +6.3224402     1181.874     1851.934     1980.808     84.38704     168.6396     337.6153      1.653     4.42     1022.346     59.52795     152.2192        11     1.037     0.789 -50.75   0
       112    539.0322    861.7465 307.7025506  +6.3266455     664.2266     1055.627     1483.432     84.52131     168.9084     337.6489      2.185     4.28     1020.498     59.52795     91.07666         5     1.019     0.514 -33.94   0
       113    925.4982    858.8674 307.5421405  +6.3407297      2145.99     2971.724     3305.871     84.65536     169.0426     337.7497      1.483     3.38     1012.367     59.52795     319.6838        15     1.304     0.667 -59.31   0
       114    896.0933    858.6478 307.5543606  +6.3398410     2381.889     3326.022     3499.031     84.52131     168.7741     337.8504      1.513     3.29     1012.773     59.52795     380.8188        16     1.275     0.712 -45.13   0
       115    127.1863    858.5461 307.8736969  +6.3141704     2553.932     3752.542     3731.925     83.98295     168.8412     337.4474      1.571     3.99     1024.615     59.52795     319.9056        20     1.339     0.932 -63.53   0
       116    859.4272    858.0781 307.5696082  +6.3388545     3297.989     4657.102     4983.889     84.52131     168.8412     337.6825      1.452     3.24     1013.292     59.52795     484.8978        19     1.301     0.867 -41.96   0
       117    595.3135    849.5677 307.6795865  +6.3335550     347767.9     512036.9     536218.2     84.65536     168.7069     337.7161      1.619     3.48     1019.305     59.52795     47979.73       156     1.654     1.266 -51.41   0
       118    375.3315    856.2454 307.7707218  +6.3234397     592.1387     704.6408     1088.539     84.65536     168.8412     337.6825      1.588     4.57     1024.132     59.52795      96.1969         5     1.196     0.496 -30.04   0
       119    439.5675    852.1651 307.7441820  +6.3272746     7616.572     11655.97     12072.85     84.25256     168.6396     337.4474      1.654     3.61     1022.472     59.52795     949.1527        36     1.533     1.067 -53.85   0
       120    683.0912    852.6883 307.6430258  +6.3351982     1207.614     1784.102     1727.612     84.65536     169.3777     337.8504      1.604     3.40     1017.196     59.52795     201.0821        11     1.051     0.731 -74.78   0
       121    382.8014    850.5353 307.7678123  +6.3260474     12642.87     18962.21     20094.61     83.98295     168.6396      337.481      1.628     3.43     1023.897     59.52795     1592.294        40     1.497     1.075 -52.28   0
       122    701.1974    846.7939 307.6357042  +6.3382364     3656.861      5393.47         6089     83.98295     168.5724     337.5482      1.574     3.67     1016.815     59.52795      496.572        21     1.293     0.913 -49.79   0
       123    933.3824    845.6522 307.5393095  +6.3464488     5964.805     8190.015      8699.13     84.11787     168.9755     337.4474      1.489     3.55     1011.566     59.52795     946.8217        30     1.491     1.087 -22.87   0
       124    773.0611    843.1317 307.6059805  +6.3421463     803.5812     1236.677     1203.067     84.78921     168.8412     337.7161      1.758     3.94     1015.082     59.52795     146.9877         7     1.173     0.608 -87.15   0
       125    676.0451    840.8356 307.6463510  +6.3398568     3415.369     5171.479     4946.214     84.38704     168.8412     337.6153      1.556     3.26     1017.147     59.52795     534.2715        23     1.291     0.965 -42.89   0
       126    864.4875    839.9382 307.5681157  +6.3465129     1529.388      1891.96     1888.974     84.65536     169.1097     337.7497      1.296     3.54     1012.253     59.52795     239.3191        12     1.214     0.652 -46.60   0
       127    666.4073    839.7783 307.6503894  +6.3399716     999.3257     1585.249     2152.794     84.11787     168.7069     337.5146      1.649     4.27     1017.349     59.52795     161.9592         9     1.094     0.674 -43.93   3
       128    668.9456    835.3329 307.6494847  +6.3418918     2207.752     3253.781     3885.705     84.65536     168.8412     337.6153      1.573     3.77     1017.212     59.52795     356.1478        18     1.452     0.753 -42.69   3
       129    991.0736    838.8400 307.5155768  +6.3511821     906.9298     1178.547     1232.039     84.52131     168.9084     337.7832      1.402     4.70     1009.591     59.52795     179.1591         9     1.176     0.534 -45.74   0
       130    952.3951    833.5231 307.5318199  +6.3520899      3687.45     4978.693      4684.54     84.25256     168.3705     337.5818      1.406     3.26     1010.455     59.52795     535.1597        20     1.299     0.786 -53.02   0
       131    362.7065    833.7332 307.7767248  +6.3323117     975.8952     1387.197     1573.052     84.52131     169.1097     337.7161      1.601     4.06      1024.26     59.52795     123.2947         9     1.040     0.652 -43.23   0
       132    410.8305    829.5560 307.7568794  +6.3356477     2548.269     3906.115     4097.002     84.25256     168.9084     337.5818      1.617     3.80      1022.71     59.52795     315.0475        23     1.386     0.955 -52.21   0
       133    891.1830    825.2401 307.5575217  +6.3534712     532.0748     715.4746     731.9072     84.25256     168.7069      337.481      1.463     3.47     1011.126     59.52795     77.01843         5     0.994     0.349 -44.56   0
       134    546.7520    819.4393 307.7007699  +6.3443716      3106.28     4683.236     4834.329     84.52131     168.9755     337.5482      1.651     3.59     1018.904     59.52795     455.6536        25     1.434     0.965 -45.71   0
       135    891.5393    818.2672 307.5576078  +6.3563622     1162.108      1577.93     2163.344     84.78921     168.8412     337.7161      1.689     5.64     1010.761     59.52795      161.187        11     1.390     0.645 -44.17   0
       136    612.1060    817.0173 307.6737082  +6.3475557     835.4961     1017.417     1196.051     84.52131     168.7069     337.5818      1.331     4.84     1017.531     59.52795     136.0682         9     1.181     0.561 -66.18   0
       137    593.7607    815.3997 307.6813820  +6.3476106     5927.107     9024.715     10048.85      83.5769     168.7069     337.4138      1.624     3.49     1017.781     59.52795     783.3617        30     1.403     1.023 -53.05   0
       138    600.8127    814.6189 307.6784794  +6.3481687     1272.357     2026.965     2135.815     84.38704     168.6396     337.6153      1.824     5.37     1017.634     59.52795     162.0284        13     1.186     0.843 -34.94   0
       139    511.6963    814.1131 307.7155088  +6.3453986     1712.553     2490.339      2283.26     84.65536     169.3107     337.7497      1.623     4.39     1019.423     59.52795     215.0345        15     1.284     0.799 -40.96   0
       140    153.2319    813.6022 307.8644006  +6.3336006     1397.083     2368.105     1635.245     83.98295     168.7069      337.481      1.805     4.46     1024.909     59.52795      189.052        17     1.290     0.966 -50.44   0
       141    929.3600    813.2892 307.5420664  +6.3596773     1423.005     1851.579     2207.384     84.65536     168.9084     337.7497      1.375     3.54      1010.08     59.52795     240.0117        12     1.144     0.703 -47.55   0
       142    729.7214    812.4025 307.6250141  +6.3533882     734.0646     834.6424     109.3051     83.98295     168.3705      337.481      1.327     4.87     1015.304     59.52795     124.4143         6     1.072     0.626  79.11   0
       143    564.4063    809.2464 307.6937810  +6.3491703     19672.97     29833.06     31388.14     84.11787     168.7069     337.3465      1.643     3.44     1018.186     59.52795     2541.955        49     1.528     1.152 -53.57   0
       144    405.7530    810.4858 307.7596316  +6.3433515     618.3425     971.8006     863.9517     84.65536     168.8412     337.7161      1.349     4.07      1022.39     59.52795     105.3814         6     1.088     0.435 -55.46   0
       145    978.0475    807.5349 307.5220373  +6.3636743     4345.387     5772.899     5604.133     84.52131     168.8412     337.7832      1.392     3.48     1008.533     59.52795     645.9782        21     1.244     0.813 -53.18   0
       146    211.0040    808.9667 307.8405645  +6.3374528     567.1532     750.6878     652.3854     83.84782     168.7741      337.481      1.633     5.12     1025.023     59.52795     84.64502         7     1.439     0.515 -45.30   0
       147     74.8554    799.8699 307.8974150  +6.3366390     1640.641     2481.845     2651.116     84.65536     168.7741     337.6489      1.614     3.73     1023.872     59.52795     246.5242        16     1.175     0.964 -56.18   0
       148    357.2310    798.1548 307.7801998  +6.3468179     3331.866     5212.354     4908.208     84.25256     168.9755     337.5818      1.649     3.49       1024.2     59.52795     488.3705        26     1.394     1.057 -65.23   0
       149    822.5665    793.7906 307.5870774  +6.3641697     59566.95     84067.08     87803.29     84.11787     168.7069     337.5482      1.512     3.24     1012.031     59.52795     8616.196        62     1.488     1.067 -49.78   0
       150     57.0933    796.0861 307.9049196  +6.3376046     2016.295     2883.405     2921.025     84.65536     169.3777     337.8168      1.514     4.28     1023.796     59.52795     266.8283        16     1.271     0.874 -52.53   0
       151    761.0905    795.5161 307.6125531  +6.3614070     609.3904      851.417     1091.997     84.38704     169.2437     337.8504      1.390     3.75     1013.957     59.52795     135.6543         6     1.240     0.326 -18.45   0
       152    279.7949    791.6549 307.8125799  +6.3469070     4902.922     8349.226     11180.55     83.98295     168.6396     337.3801      2.015     3.88     1024.906     59.52795     634.1879        36     1.685     1.132 -48.36   0
       153    466.3171    792.5034 307.7350844  +6.3528030     734.8005     1181.435     656.1069     84.52131     169.3107     337.7832      1.780     6.97     1019.901     59.52795     98.09418        11     1.352     1.008 -49.83   0
       154    947.8912    789.0577 307.5351828  +6.3702995     9527.064     13207.27     13971.29     84.52131     168.8412     337.8168      1.439     3.28     1008.732     59.52795     1530.232        31     1.322     0.944 -51.38   0
       155    750.8381    788.4283 307.6170497  +6.3639915     22284.26     32559.34     34409.49     84.11786     168.5724     337.5818      1.574     3.52     1013.687     59.52795     3273.942        45     1.490     1.056 -50.90   3
       156    744.5385    784.8925 307.6197851  +6.3652412     92193.76     133966.2     140232.2     84.52131     168.9084     337.7832      1.557     3.36     1013.619     59.52795     12654.77        85     1.569     1.169 -50.39   3
       157      1.6521    787.0753 307.9282493  +6.3394619     3179.944      4405.38     4779.343     77.66972     139.4124      259.793      1.399     3.71     1023.611     59.52795     449.1597        15     1.305     0.683 -87.86  24
       158    389.4094    785.7753 307.7672532  +6.3530068     19720.74     31182.13     32866.62     84.25256     168.7069     337.5818      1.713     3.77     1022.296     59.52795     2428.673        49     1.535     1.205 -53.25   0
       159    438.7119    785.8851 307.7467729  +6.3546118     1234.562     1680.988     2127.141     84.38704     169.1097     337.8168      1.490     4.04     1020.504     59.52795     171.8605        13     1.124     0.833 -50.04   0
       160    451.3085    783.6148 307.7416177  +6.3559707     21446.52     33757.32     35281.71     84.38704     168.7069     337.5146      1.718     3.64     1020.104     59.52795     2690.881        50     1.555     1.192 -51.26   0
       161    279.3170    770.2581 307.8135012  +6.3557252     773694.2      1865651      2072721     84.78921     168.9084     337.7832      2.355     5.43     1024.638     59.52795     62413.78       509     2.374     2.013 -66.48   4
       162    944.7652    780.4705 307.5367694  +6.3737410     7535.076     10489.08     11002.22     84.52131     168.8412     337.7161      1.486     3.31     1008.598     59.52795     1167.342        27     1.366     0.877 -55.71   0
       163    917.3666    780.8609 307.5481364  +6.3726674      676.407     975.0516     1453.683     84.38704     168.9755     337.6489      1.654     4.16     1009.155     59.52795     129.8238         6     1.179     0.496 -60.58   0
       164    685.3603    779.4989 307.6445459  +6.3654931     6714.118     9836.723     10547.85     84.65536     168.7741      337.951      1.628     3.53     1015.004     59.52795     912.4829        30     1.418     0.975 -47.72   0
       165    474.1745    777.6620 307.7323215  +6.3591936     1583.546     2733.805     2440.245     84.25256     168.8412     337.6489      1.835     4.93     1019.322     59.52795     200.6406        18     1.477     0.827 -54.16   0
       166    199.2390    776.9984 307.8465313  +6.3502571     766.2946     1173.865     955.1744     83.71247     168.6396     337.4474      1.517     3.99     1024.178     59.52795     129.8606         7     1.197     0.521 -25.54   0
       167    988.3511    782.6852 307.5185914  +6.3742776     2344.508     3166.187     3297.133     84.65536     168.9084     337.7497      1.523     3.29     1007.702     59.52795     362.6589        17     1.250     0.772 -52.54   0
       168    165.2268    770.4734 307.8608777  +6.3518099     861.2364     1725.741     1936.708     84.25256     168.8412     337.6489      2.096     6.73      1023.99     59.52795     111.4041        13     1.653     0.769 -67.18   0
       169    638.3363    771.4315 307.6643486  +6.3672538     906.2186     1146.003     1254.858     84.38704     168.9755     337.6825      1.366     3.76     1015.474     59.52795     160.7101        10     1.162     0.574 -52.96   0
       170    189.9119    770.9703 307.8506088  +6.3524330     970.8651     1516.443     1398.623     84.78921     168.6396     337.6153      1.665     4.24     1023.986     59.52795     158.2491        11     1.152     0.798 -63.43   0
       171    913.8740    770.9291 307.5499205  +6.3766518     791.7736     1187.525     1455.934     84.92284     169.0426     337.7497      1.695     4.53      1008.97     59.52795     129.2533         7     1.041     0.631 -63.44   0
       172    720.4758    769.5510 307.6302955  +6.3707726     2524.737     3535.595     3393.437     84.52131     168.9755     337.7161      1.552     3.81      1013.36     59.52795     346.7484        18     1.338     0.821 -49.14   0
       173    454.2491    766.3052 307.7409802  +6.3632159     50860.59     81173.96     85985.35     84.52131     168.7741     337.8839      1.740     3.74     1019.525     59.52795     6202.796        73     1.657     1.248 -53.54   0
       174    996.9784    768.1460 307.5154957  +6.3805680     854.7654     1247.746     933.2101     84.11786     168.9084     337.5146      1.525     4.34     1007.324     59.52795     131.5348         9     1.022     0.638 -33.12   0
       175    572.0021    765.3240 307.6921058  +6.3675591     6996.306     10409.49     10670.89     84.11786     168.3705     337.6153      1.587     3.44     1016.451     59.52795      892.488        33     1.436     1.031 -43.92   0
       176    488.9214    763.9278 307.7266596  +6.3653576     4310.816     6825.157     7453.923     84.92284     169.1767     337.6825      1.641     3.68     1018.603     59.52795     537.0378        28     1.433     1.053 -48.06   0
       177    817.1284    761.9537 307.5904060  +6.3771336     12159.93     17793.62     18158.38     84.65536     168.9084     337.7161      1.524     3.29     1011.009     59.52795     1907.703        35     1.464     0.977 -48.30   0
       178    485.5503    757.2942 307.7282834  +6.3679837     2228.548     3540.282     3921.433     84.52131     168.7741     337.8504      1.780     3.90      1018.54     59.52795     309.3539        20     1.301     0.965 -48.51   0
       179     46.6487    757.9147 307.9105497  +6.3530135     1098.633     1988.375     2083.948     84.65536     168.8412     337.7497      1.894     6.97     1023.071     59.52795      125.412        17     1.419     1.074 -62.51   0
       180    838.9211    756.2969 307.5815442  +6.3801958     1235.535     1746.848      1375.74     84.38704     169.1767     337.8168      1.407     4.63     1010.244     59.52795     169.4308        14     1.404     0.660 -50.36   0
       181    183.0506    754.2930 307.8540224  +6.3590884     2786.416     4427.137     5265.352     84.52131     168.7069     337.9175      1.686     3.92     1023.431     59.52795     336.4955        25     1.460     1.005 -49.82   0
       182    174.9676    753.9589 307.8573907  +6.3589551        10706     17646.71     19145.29     84.25256     168.8412     337.5818      1.738     3.68     1023.449     59.52795     1329.902        44     1.522     1.245 -51.64   0
       183    962.6266    750.4688 307.5303572  +6.3867233     7272.477     9699.025     10191.62     84.25256     168.7741     337.6153      1.442     3.33     1007.636     59.52795     1116.479        29     1.331     0.929 -48.15   0
       184    167.2926    751.2429 307.8606702  +6.3598190     2680.377     4571.993     5542.328     84.65536     168.9084     337.8504      1.862     3.86      1023.37     59.52795     358.1165        25     1.526     1.004 -52.42   3
       185    167.3595    745.0436 307.8608521  +6.3623807     1855.789     3008.118     3308.493     84.38704     168.9084     337.5818      1.826     3.93     1023.175     59.52795     300.3738        16     1.260     0.860 -70.46   3
       186   1011.7792    750.5594 307.5099378  +6.3883219      1516.49     2077.883     2467.151     84.25256     168.7069     337.5146      1.626     4.73     1006.891     59.52795      228.344        13     1.179     0.756 -55.54   0
       187    718.2854    748.1075 307.6319266  +6.3795533     1657.563     2530.247     2522.784     84.38704     169.3777     337.8168      1.633     3.82     1012.055     59.52795     262.8611        14     1.285     0.692 -47.65   0
       188    605.1041    747.5323 307.6789562  +6.3760112     2276.841     3600.979     4026.463     84.52131     169.0426     337.7161      1.721     3.83     1015.381     59.52795     284.7859        23     1.443     0.973 -50.22   0
       189    452.7843    747.3355 307.7422283  +6.3709992     1157.332     2007.113     1562.068     84.11787     168.7741     337.5818      1.863     4.38     1019.023     59.52795      142.833        12     1.011     0.854 -66.67   0
       190    956.8585    742.5058 307.5330204  +6.3898192     3295.482     4253.392     4619.905     84.52131     168.9084     337.8504      1.399     3.46     1007.586     59.52795     494.8616        17     1.191     0.772 -56.50   0
       191    986.4399    741.8412 307.5207555  +6.3910783      3402.33     4657.783     4699.087     84.38704     168.9755     337.5818      1.424     3.23      1007.17     59.52795     487.2018        19     1.247     0.819 -58.48   0
       192    708.9780    741.6842 307.6360086  +6.3818948     1493.168     2217.188     2499.563     84.52131     168.5724     337.6153      1.595     4.18     1011.961     59.52795     189.3419        16     1.138     0.958 -57.84   0
       193   1017.2942    741.5595 307.5079489  +6.3922215       2104.8     2824.543     3146.197     84.78921     168.8412     334.6466      1.428     3.49     1006.746     59.52795     339.7407        15     1.248     0.710 -53.27  16
       194    856.4139    739.7706 307.5748336  +6.3876024     1213.692     1758.405     784.6405     84.25256     168.7069     337.6153      1.613     4.42     1009.555     59.52795     162.6069        13     1.241     0.797 -62.66   0
       195    931.6926    738.1545 307.5436195  +6.3907777     775.1724     1478.087     2170.743     84.65536     168.8412     337.8504      2.273     5.41     1007.805     59.52795     134.2542        12     1.224     1.044  -3.60   0
       196    281.9278    736.8300 307.8135462  +6.3696144     1609.885     2727.474     3169.484     84.52131     168.9084     337.6825      1.787     4.42     1024.326     59.52795     222.3198        17     1.324     0.957 -53.48   0
       197    719.2075    732.7626 307.6320598  +6.3859199     808.6929     1518.767       2167.2     83.84782     168.6396     337.4474      2.466     5.96     1011.252     59.52795     114.3292        10     1.566     0.638 -69.68   2
       198    721.0921    728.4400 307.6314224  +6.3877675     912.4281     1279.519     1483.727     84.78921     168.8412     337.7832      1.716     4.66     1011.084     59.52795     133.7169         8     1.169     0.633 -45.15   2
       199    974.8646    731.9426 307.5258956  +6.3947801     1074.672       1433.5     1293.647     84.78921     168.8412     337.7497      1.249     2.86     1006.874     59.52795     203.2043         7     0.864     0.497 -52.54   0
       200    198.0993    731.6918 307.8485365  +6.3689248     724.0744     967.0868     1074.278     84.65536     169.3777     337.6825      1.603     5.68     1022.632     59.52795      89.6676         9     1.097     0.864  50.75   0
       201   1001.3330    729.7734 307.5149741  +6.3965568     2968.687      3911.12     3606.184     84.25256     168.7741     337.6153      1.323     2.97     1006.315     59.52795     479.1105        19     1.260     0.777 -44.51   0
       202    948.5880    730.8425 307.5368471  +6.3943595     1103.839     1581.399     1255.104     83.98295     168.7069     337.4138      1.482     4.08     1007.202     59.52795     217.0748         9     1.037     0.620 -67.80   0
       203    441.8564    724.4960 307.7475375  +6.3800635     590.5532     858.9354     567.1415     84.52131     168.9084      337.951      1.485     3.32     1018.539     59.52795     116.3124         5     1.209     0.264 -55.27   0
       204    844.1594    721.6932 307.5805311  +6.3946580     1208.306      1866.56     1756.571     84.78921     168.8412     337.8168      1.821     4.24      1008.91     59.52795     204.2767        12     1.156     0.744 -31.23   0
       205    669.6045    722.1927 307.6530186  +6.3886281     583.7841     851.4017     749.5528     83.98295     168.5724     337.5482      1.486     3.49     1012.365     59.52795     86.85168         5     0.775     0.454 -73.28   0
       206    930.7048    718.9221 307.5446755  +6.3986858     1576.973     2247.396     2866.964     84.38704     169.1097     337.7497      1.368     3.35     1006.856     59.52795      288.059        12     1.173     0.662 -57.83   0
       207    905.2864    714.0596 307.5553969  +6.3998468     1032.303     1522.329      1305.87     84.65536     169.0426     337.8504      1.405     3.00     1007.218     59.52795     163.4111         9     0.867     0.683 -33.11   0
       208    690.7711    713.5469 307.6445177  +6.3929046     667.5529     857.8383     1035.592     84.38704     169.0426     337.6153      1.427     3.25     1011.538     59.52795     109.4393         5     0.727     0.472  16.69   0
       209    887.5468    710.3646 307.5628896  +6.4007815     1627.569     2540.625     2092.382     84.52131     168.9084     337.7497      1.624     3.24     1007.417     59.52795       272.38        15     1.168     0.760 -53.48   0
       210     86.6998    709.2905 307.8955619  +6.3744343     2371.198     3496.497     3608.292     84.65536     169.3107     337.6825      1.626     3.64     1021.815     59.52795     292.1473        20     1.236     0.985 -60.60   0
       211    150.5704    707.3644 307.8690996  +6.3773740     896.2169     1935.716     2589.462     84.25256     168.6396     337.5146      2.524     7.85      1022.01     59.52795     108.4685        16     1.582     1.089  71.60   0
       212    699.2607    697.7936 307.6415215  +6.3996924     5923.923     9068.828     9330.523     83.98295     168.7069      337.481      1.627     3.56     1010.902     59.52795     836.2001        28     1.365     1.036 -55.27   0
       213    556.6882    697.6955 307.7007449  +6.3949700     708.3916     1104.932     950.3534     84.65536     169.3107     337.7832      1.597     6.06     1014.326     59.52795     105.4157        10     1.283     0.805 -63.81   0
       214    646.2114    697.0638 307.6635812  +6.3982223     1374.151     2448.871     3038.894     84.11786     168.7069     337.5146      2.015     4.92     1012.335     59.52795     181.2825        15     1.254     0.894 -42.44   0
       215    673.2309    693.4669 307.6524791  +6.4006098     2154.722     3383.398     3319.669     84.38704     168.9084     337.6825      1.683     4.32     1011.282     59.52795     279.8682        23     1.429     1.010 -39.88   0
       216    162.3622    693.6636 307.8646655  +6.3834264     3562.545     5868.656     6534.346     84.65536     168.8412     337.7497      1.818     3.94     1021.664     59.52795     425.2059        27     1.335     1.173 -64.52   0
       217    284.2803    694.1886 307.8140097  +6.3872990     550.6069     851.5969     614.9153     84.25256     168.6396     337.5482      1.767     4.35     1021.398     59.52795     93.27661         6     1.137     0.548 -23.87   0
       218    816.1645    689.8994 307.5932279  +6.4068521     20379.92     30179.31     31930.93     84.65536     168.7741     337.8839      1.554     3.39     1007.874     59.52795     3047.173        46     1.504     1.069 -54.26   0
       219    946.1638    689.6568 307.5392365  +6.4112841     4034.967     5355.492     3982.064     84.52131     168.9084     337.7497      1.472     3.18     1004.827     59.52795      622.563        22     1.326     0.849 -55.27   0
       220    544.0762    690.0784 307.7062402  +6.3976934     949.0067     1491.335     1595.893     84.92284     169.1767     337.8168      1.628     4.88     1014.241     59.52795      139.604        11     1.130     0.862 -50.54   0
       221    515.3177    690.0975 307.7181848  +6.3967238      1241.57     2103.851     1947.704     84.65536     169.3107     337.7832      1.711     4.11     1015.087     59.52795     186.5697        14     1.165     0.839 -61.81   0
       222    361.3113    689.5717 307.7821707  +6.3917863     737.8547     1243.746     851.7156     84.78921     168.6396     337.6153      1.826     5.34     1019.559     59.52795     97.77289         8     1.088     1.052 -74.72   0
       223   1005.3834    685.8370 307.5147656  +6.4148328     499.6224     722.4663     1833.101     84.11786     168.7741     337.4474      1.555     4.38     1002.426     59.52795     80.12769         5     1.131     0.482 -35.59   0
       224    289.6944    683.6581 307.8121168  +6.3918282      5492.65     9307.113     10053.07     84.52131     168.9084     337.8504      1.831     4.06     1020.709     59.52795     632.5647        35     1.612     1.113 -53.36   0
       225    696.7054    682.6979 307.6430908  +6.4058399     6873.462     10243.68     9717.167     84.65536     169.5115     337.5482      1.628     3.51     1010.529     59.52795     865.4398        31     1.495     0.973 -50.40   0
       226    678.8512    684.0555 307.6504614  +6.4046833     835.1177     1111.386     1786.838     84.65536     168.9084     337.7161      1.660     4.25     1010.873     59.52795     127.8398         9     0.992     0.773 -57.90   0
       227    956.7397    675.1447 307.5353304  +6.4176283     1295.529     1833.468     2221.314     84.78921     168.9084     337.7161      1.517     3.98      1003.48     59.52795     187.1041        13     1.140     0.777 -27.76   0
       228     79.1588    674.9279 307.8998572  +6.3883683     483.8033     861.9301     980.3711     84.52131     168.9084     337.7832      1.676     4.61     1020.709     59.52795     95.19043         5     0.929     0.651 -64.83   0
       229    768.3881    671.1976 307.6137021  +6.4129805     3552.285     5557.911     6004.715     84.25256     168.5724     337.5146      1.690     3.41     1008.522     59.52795      480.951        28     1.347     1.129 -47.13   0
       230    723.8649    671.3302 307.6321918  +6.4114401     1047.894     1460.478     1297.528     84.65536     168.9755     337.7161      1.575     4.80     1009.778     59.52795     147.6235        10     1.095     0.613 -42.59   0
       231    973.2628    668.3348 307.5286954  +6.4209902     2770.923     3847.722     4213.342     84.65536     168.9084     337.7161      1.509     3.68     1002.643     59.52795     443.9246        17     1.301     0.764 -55.65   0
       232     53.8543    667.7117 307.9106115  +6.3904975     1467.284     2656.288     3004.981     84.65536     168.7741     337.8504      1.989     4.94       1020.6     59.52795     166.4042        17     1.385     0.937 -20.98   0
       233   1023.2322    667.6461 307.5079615  +6.4229377     603.4863     489.9872     490.2099     78.82903     141.0297     261.6631      1.071     3.61     1000.545     59.52795     141.7938         6     1.134     0.347 -61.19  24
       234    470.9302    666.1954 307.7374279  +6.4051078     530.9903     729.9406     746.9263     84.11786     168.5051     337.5482      1.580     4.84     1015.499     59.52795     98.76733         6     1.448     0.458 -43.08   0
       235    112.1672    662.6822 307.8865619  +6.3945327     23479.88     38890.03     41405.91     84.65536     168.8412     337.6489      1.789     3.85     1020.615     59.52795      2777.69        61     1.673     1.279 -57.08   0
       236    573.3267    663.6348 307.6949814  +6.4095894     1740.511     2900.292     2837.584     84.52131     168.8412     337.6489      1.810     5.05     1012.911     59.52795     218.0301        19     1.342     0.993 -59.62   0
       237    542.1147    661.0884 307.7080319  +6.4095973     1211.442     1904.519     1685.278     84.38704     169.1767     337.8504      1.601     4.64     1013.406     59.52795     161.3365        15     1.273     0.885 -53.75   0
       238    963.1074    659.7456 307.5332022  +6.4241985     951.6466     1309.704     1111.698     84.52131     168.8412     337.8839      1.435     4.97     1003.012     59.52795     151.1627        10     1.290     0.542 -36.96   0
       239    582.2858    656.8565 307.6914883  +6.4126875     923.0842     1582.647     1401.909     84.65536     168.9084     337.8839      1.626     5.62      1012.47     59.52795     132.5641        11     1.238     0.718 -63.80   0
       240    758.0413    654.8409 307.6185500  +6.4193888     3373.343     5271.416     5271.249     84.38704     168.9084     337.5818      1.634     3.80     1008.359     59.52795     475.6044        20     1.397     0.843 -51.28   0
       241    780.2170    653.0251 307.6093995  +6.4208783     4182.085     6334.333     6230.286     84.38704     168.7069     337.6489      1.568     3.32     1007.606     59.52795      663.162        27     1.394     0.993 -49.88   0
       242    611.5402    650.9993 307.6795339  +6.4160835     2963.014     4750.063     4610.555     83.84782     168.7069     337.3801      1.717     3.98     1011.505     59.52795     374.8168        24     1.374     1.064 -46.33   0
       243    272.1104    650.7615 307.8205319  +6.4048210     1384.528     2514.074     2945.947     84.65536     168.8412     337.7497      1.983     6.01     1019.086     59.52795     165.0297        21     1.506     1.093 -60.69   0
       244    447.5415    651.5906 307.7476355  +6.4103552     1281.412     1693.437     1255.057     83.98295     168.8412     337.4138      1.502     3.92     1015.966     59.52795     160.3945        12     0.940     0.888  79.67   0
       245    355.8698    649.9828 307.7857675  +6.4079495     1242.734       2306.5     2279.998     84.11786     168.7741     337.6153      1.909     5.68     1017.989     59.52795     165.9077        16     1.263     1.078 -31.39   0
       246   1018.3258    648.0791 307.5106559  +6.4308535     9112.693     12391.54     12781.44     84.92284     169.1767     326.9337      1.422     3.13     1000.817     59.52795      1365.31        28     1.315     0.895 -51.19  16
       247    737.9235    646.7721 307.6271782  +6.4220491     870.2414     1410.872     1631.324     84.52131     168.9084     337.6825      1.629     2.69      1008.71     59.52795     168.2351         8     0.824     0.662 -53.84   0
       248    463.7150    642.1010 307.7412375  +6.4148145     2590.959     4534.942     4864.581     84.65536     169.3777     337.7832      1.892     7.80     1014.981     59.52795     291.2295        27     1.664     1.160  86.80   0
       249    176.8622    641.5801 307.8604047  +6.4054170     21297.54     36139.68     38167.46     84.25256     168.9084     337.6153      1.811     3.96      1020.29     59.52795     2450.894        56     1.600     1.307 -52.57   0
       250    845.1253    642.0511 307.5828059  +6.4275738     1195.105     1631.112     1742.014     84.65536     168.9755     337.7161      1.386     4.45     1005.737     59.52795     174.0337         8     0.893     0.630 -40.38   0
       251    396.4939    636.3426 307.7693539  +6.4149419     854.7432      1550.05     1772.916     84.52131     168.9084     337.8839      1.664     5.64     1016.782     59.52795     96.01343         9     1.517     0.590  59.13   0
       252   1013.2104    631.0469 307.5133522  +6.4377159     7565.063     11821.81     12952.06     84.11786     168.7741     337.3465      1.656     3.16     1001.047     59.52795     1084.137        34     1.320     1.184 -59.61   0
       253     58.2420    630.3508 307.9100543  +6.4060701     1114.859     1804.436     2025.875     84.65536     168.8412     337.6825      1.867     5.97     1020.249     59.52795     142.8236        13     1.253     0.844 -48.88   0
       254    606.8568    626.3524 307.6823095  +6.4261034     43676.62     71039.27      74846.7     84.65536     168.9084     337.8168      1.756     3.79     1010.376     59.52795     5032.675        68     1.638     1.261 -53.82   0
       255    971.6115    627.8182 307.5307411  +6.4376643      671.638     775.5458     1035.834     84.25256     168.5724     337.6153      1.206     4.28     1002.493     59.52795      115.436         7     1.093     0.593 -49.75   0
       256    250.1100    628.3209 307.8304286  +6.4133485     562.5168      1013.24     1048.808     84.38704     169.1767     337.8168      1.743     3.96     1018.796     59.52795     83.80927         6     1.076     0.418 -12.11   0
       257     21.1670    627.5428 307.9255486  +6.4059835      560.534     765.9753     691.9121     84.52131     168.9755     337.6825      1.043     3.49     1020.318     59.52795      111.074         5     0.767     0.458 -18.54   0
       258    566.7712    626.0188 307.6989719  +6.4249014     623.8339     959.7187     1158.478     84.25256     168.7069     337.6489      1.740     4.47     1011.727     59.52795     83.98682         6     1.322     0.429 -35.72   0
       259     14.8866    625.8337 307.9282151  +6.4064781     872.4152     1272.827     1197.784     84.65536     168.7741     337.7161      1.529     4.24     1020.318     59.52795     125.3583         8     0.804     0.703 -29.66   0
       260    214.4153    623.1749 307.8454289  +6.4142760      2478.86      4168.93     4600.123     84.38704     168.7069     337.6489      1.843     4.64     1019.557     59.52795      279.316        24     1.475     1.063 -53.14   0
       261    107.0242    617.5763 307.8902248  +6.4129829     1126.318     2290.737     2654.752     84.11786     168.7069     337.6153      2.070     7.16     1020.036     59.52795     137.9378        16     1.660     0.865 -41.98   0
       262    504.1218    610.1851 307.7255295  +6.4293439      55650.2     94672.42     100179.9     84.25256     168.6396     337.5482      1.812     3.95     1012.903     59.52795     6667.052        78     1.692     1.310 -55.47   0
       263     48.0996    611.7004 307.9148986  +6.4134295     1760.039     2788.882     3767.458     84.65536     169.3107     337.5482      1.824     4.19     1020.116     59.52795     253.8403        17     1.285     0.928 -69.68   0
       264    690.1468    607.4627 307.6483471  +6.4366848      884.798     1607.553     1033.527     84.65536     168.8412     337.6825      1.842     5.27     1007.443     59.52795     117.6437        10     1.171     0.671 -46.07   0
       265    178.3525    605.3469 307.8610113  +6.4204267       1587.1     2701.947     3862.049     84.65536     168.9084     337.7497      2.134     4.53     1019.621     59.52795      185.292        19     1.285     1.011 -57.91   0
       266    973.8416    602.3911 307.5306680  +6.4482373     740.6247     910.1621     1059.365     83.98295     168.7069     337.4474      1.326     5.37     1001.933     59.52795      100.087         9     1.141     0.713 -80.32   0
       267    650.6825    601.9203 307.6649272  +6.4376552     672.8663     1361.772     1174.399     84.78921     169.1767     337.8504      1.953     5.13     1008.042     59.52795      109.469         6     1.152     0.647 -70.99   0
       268    457.5011    603.1672 307.7451320  +6.4306817     769.5682     1264.162     1486.517     84.65536     168.7741     337.8504      1.877     3.70     1013.793     59.52795     115.9186         5     1.080     0.364  -4.67   0
       269     50.2786    601.3637 307.9143436  +6.4177704     709.9836     1063.837       1030.3     84.52131     168.9755     337.7161      1.819     6.28     1020.053     59.52795       94.125         8     1.338     0.827 -60.41   0
       270    349.4570    599.0735 307.7901503  +6.4287541     1795.209     3205.639     3753.518     84.65536     168.8412     337.6825      1.920     5.64     1015.737     59.52795     209.3856        24     1.621     1.041 -56.37   0
       271    501.6655    598.3292 307.7269496  +6.4341568     809.2173     1262.165     1691.999     84.65536     168.9755     337.7161      1.636     5.27     1012.459     59.52795      115.022         9     1.094     0.717 -45.65   0
       272    776.1954    593.5256 307.6130708  +6.4453110     5097.887     7841.762      7700.34     84.25256     168.3705     337.5818      1.665     3.31     1006.124     59.52795     746.9246        30     1.476     1.005 -49.82   0
       273    829.6743    588.9070 307.5910103  +6.4490015     13818.24     20786.98     22098.44     84.65536     169.0426     337.6825      1.615     3.49     1004.933     59.52795     1815.307        39     1.479     1.041 -50.61   0
       274    571.8336    588.9545 307.6981179  +6.4403739     1215.762     2003.433     2150.497     84.25256     168.8412     337.6153      2.022     5.79     1010.023     59.52795      155.324        12     1.138     0.830 -64.05   0
       275    653.5713    586.8369 307.6642350  +6.4439795     2513.554     4097.302     4271.487     84.25256     168.6396     337.5146      1.762     3.85     1007.725     59.52795     349.5739        23     1.466     0.954 -49.59   0
       276     75.0675    588.4603 307.9044842  +6.4239307     681.9647     1192.665     1153.075     84.78921     168.8412     337.7161      1.508     3.77     1019.939     59.52795     132.2012         6     1.166     0.349 -47.70   0
       277    970.7434    583.1086 307.5326023  +6.4560958     1151.339     1641.694     2387.235     84.52131     168.7741     337.8168      1.546     4.41     1000.942     59.52795     189.6344        11     1.180     0.665 -49.16   0
       278    412.0797    581.3035 307.7647374  +6.4381883     743.7021     1325.129      1489.87     84.38704     169.1767     337.8504      2.118     5.86     1013.968     59.52795     112.9437         8     1.163     0.854  -3.06   0
       279    266.2495    580.5729 307.8253384  +6.4336037     1149.213     1696.397     1140.312     84.25256     168.9755     337.6489      1.716     6.61     1016.765     59.52795     127.3391        15     1.275     0.963 -44.35   0
       280    905.7352    572.1138 307.5599773  +6.4584703     2945.214     4317.291     4576.691     84.78921     169.1097     337.7497      1.598     3.73      1002.66     59.52795     439.4518        21     1.354     0.939 -53.06   0
       281    201.4665    572.1804 307.8525320  +6.4348958     633.2126     1145.866     2021.621     84.25256     168.9084     337.6153      2.265     4.33     1017.993     59.52795     91.24084         6     1.082     0.494 -85.78   0
       282    864.4105    569.6533 307.5772272  +6.4581092     2536.274     3799.832     3859.152     83.98295     168.8412     337.4474      1.607     3.52     1004.091     59.52795     345.1668        21     1.365     0.907 -42.97   0
       283    835.4637    565.5737 307.5893895  +6.4588287     2593.253     3886.605     4412.527     84.25256     168.9084     337.6489      1.734     3.66     1004.463     59.52795     323.5346        21     1.322     0.993 -86.95   0
       284    845.0664    560.7825 307.5855613  +6.4611271       154551     235903.7     247478.4     84.11786     168.8412     337.5818      1.605     3.39     1004.242     59.52795     21982.32       113     1.634     1.258 -52.82   0
       285    292.5360    564.5856 307.8149596  +6.4410858       6781.8     11810.61      12783.5     84.11787     168.7741     337.5818      1.877     4.05     1015.652     59.52795     764.9844        38     1.572     1.226 -60.34   0
       286    226.8016    559.1373 307.8424492  +6.4411309     49344.79     87223.02     93381.64     83.98295     168.7069     337.4474      1.893     3.99     1016.773     59.52795     5383.081        83     1.717     1.426 -52.31   0
       287      4.9203    557.6073 307.9346664  +6.4343115     3859.554     6706.976     7392.363     84.25256     168.4378     308.0029      1.859     4.14     1019.963     59.52795     472.0751        30     1.534     1.131 -56.54  16
       288    150.7911    555.4553 307.8741476  +6.4401004     5356.532     9232.604     10240.52     83.98295     168.8412     337.4138      1.847     3.92     1018.636     59.52795     625.9213        37     1.537     1.248 -45.43   0
       289   1015.8465    552.5107 307.5148919  +6.4702308     1425.991     1918.354     2126.211     84.65536     168.7741     337.8504      1.418     3.51     997.4556     59.52795     213.2806        12     1.106     0.717 -57.62   0
       290    881.6438    548.0562 307.5707937  +6.4676008      4551.67     6439.338     6599.365     84.65536     168.9084     337.7497      1.516     3.25     1002.958     59.52795     602.4048        23     1.262     0.936 -53.82   0
       291    400.1809    546.3085 307.7708613  +6.4522386     14339.07      25495.3      27378.9     84.52131     168.6396     337.5818      1.907     4.25     1012.479     59.52795       1550.8        51     1.674     1.293 -51.89   0
       292    490.8330    546.5271 307.7331963  +6.4551827     598.7809      1082.77     949.0577     84.52131     168.9084     337.6825      1.413     3.43     1010.785     59.52795     79.72156         5     1.229     0.276 -54.47   0
       293    202.4140    545.0377 307.8530564  +6.4461341     1666.737     3142.595     4464.364     84.25256     168.7069     337.4474      2.523     6.27     1016.844     59.52795     217.8254        22     1.632     1.067 -40.90   0
       294    835.4927    541.3660 307.5901911  +6.4688248     5790.859     8924.705     9192.543     84.78921     168.7741     337.7832      1.705     3.50     1003.925     59.52795     783.5784        35     1.524     1.121 -43.13   0
       295    566.5189    541.1759 307.7019357  +6.4599233     5675.541     9497.903     9744.007     84.38704     168.6396     337.6153      1.775     4.04     1007.974     59.52795     641.6033        34     1.553     1.133 -54.86   0
       296    278.0758    543.0784 307.8216931  +6.4494808     871.5795     1439.915     1698.817     84.92284     169.1767     337.8168      1.891     5.29     1015.309     59.52795     108.1371         9     1.141     0.692  26.55   0
       297    139.5736    542.2360 307.8792545  +6.4451817     752.8946     1012.196     899.6169     84.11787     168.7069      337.481      1.608     4.20     1018.575     59.52795     122.1419         8     1.026     0.947  80.77   0
       298    424.9085    538.0579 307.7608677  +6.4564731     1163.442     2125.265      1803.44     84.52131     168.8412     337.8168      1.880     7.02     1011.716     59.52795     130.1212        17     1.506     0.916 -73.02   0
       299    213.5243    534.4320 307.8487999  +6.4508857     5532.125     9706.708     10243.29     84.52131     168.9755     337.6825      1.886     4.43     1015.906     59.52795     569.9308        38     1.612     1.227 -57.48   0
       300    611.2318    534.2256 307.6835953  +6.4642875     2067.305     3612.678     3755.257     84.11786     168.7069     337.5482      1.831     4.18      1007.08     59.52795     264.5101        23     1.453     1.012 -45.84   0
       301    308.7279    530.8108 307.8093747  +6.4555734      70852.3     128165.8     136948.4     84.11786     168.5051     337.5482      1.918     4.21     1013.904     59.52795     7978.759        90     1.757     1.422 -56.79   0
       302     10.5834    535.5758 307.9330606  +6.4435979     1105.342     1630.125     1733.068     84.38704     168.7741     337.6489      1.620     3.76     1020.004     59.52795     142.7737        11     0.922     0.840  80.08   0
       303     85.1767    533.0598 307.9021609  +6.4471434     4405.715     7761.945     8418.537     84.25256     168.8412     337.5482      1.864     4.12     1019.391     59.52795     514.6238        33     1.516     1.219 -55.57   0
       304    894.0634    533.8476 307.5661115  +6.4738813     616.5682      801.233     913.5377     84.52131     168.7741     337.7497      1.370     5.05     1001.759     59.52795     91.26929         8     1.026     0.702  24.30   0
       305    852.1297    533.7852 307.5835343  +6.4725095     1424.752     2114.761     2364.065     84.11786     168.8412     337.6153      1.547     4.18     1003.305     59.52795     201.3502        15     1.291     0.754 -37.01   0
       306    597.4191    528.1953 307.6895366  +6.4663157      715.309     1314.477     2062.365     84.25256     168.5051     337.5146      2.061     3.89     1007.161     59.52795     101.7137         6     0.933     0.635 -60.57   0
       307    292.5730    526.0962 307.8162448  +6.4569784     1355.511     2274.293     2185.985     84.78921     168.6396     337.6489      1.766     5.16      1014.11     59.52795     176.3011        15     1.187     0.921 -48.44   0
       308   1008.1573    524.5156 307.5190256  +6.4815340     1673.136     2295.269     1945.008     84.65536     168.7741     337.6825      1.507     4.28     996.9681     59.52795     240.0596        13     1.248     0.703 -52.78   0
       309    831.8374    523.1633 307.5923214  +6.4762187     15666.78     23807.97     24776.67     84.38704     168.7741     337.5482      1.606     3.41     1003.132     59.52795     2155.397        45     1.499     1.110 -53.32   0
       310    535.4771    521.5909 307.7154912  +6.4669717     34688.43     64401.43     69531.25     84.25256     168.3705     337.5482      1.993     4.19      1008.08     59.52795     3762.023        72     1.766     1.474 -37.53   0
       311    686.2084    519.6825 307.6529378  +6.4727967     848.3906     1598.349     1412.093     84.25256     168.5051     337.5482      1.979     5.82     1006.051     59.52795     137.1149         8     1.157     0.823 -35.35   0
       312    248.1724    517.8766 307.8349669  +6.4588832     1509.953     2920.087     3220.075     84.52131     168.9084     337.6825      2.037     6.00     1014.336     59.52795       165.52        20     1.495     0.970 -70.13   0
       313     83.5345    518.1899 307.9033466  +6.4532275     1077.197      1544.17     1735.129     84.11787     168.7069     337.5818      1.643     5.19     1018.893     59.52795     122.3445        11     1.115     0.823 -47.12   0
       314    705.6081    516.6584 307.6449803  +6.4746930      1318.63      2087.72     2124.462     83.98295     168.7741     337.4474      1.682     5.82     1005.392     59.52795     152.4871        15     1.282     0.934 -68.24   0
       315    695.5505    516.5919 307.6491608  +6.4743847      2834.53     4500.331     4940.848     84.11787     168.7069     337.3801      1.719     4.05     1005.681     59.52795     365.8195        24     1.443     1.032 -45.64   0
       316    757.8604    515.3798 307.6233159  +6.4769649     1244.138     2222.326     2568.079     84.25256     168.7741     337.6489      1.965     4.92      1004.13     59.52795     186.8163        14     1.289     0.927 -56.71   0
       317    433.1277    512.2786 307.7583234  +6.4673920     1543.153     2563.821     2454.962     84.92284     169.1767     337.6825      1.726     4.85     1010.599     59.52795     207.1835        16     1.362     0.848 -32.67   0
       318    364.6924    510.5623 307.7868105  +6.4658088     3341.155      5952.69     6519.906     84.78921     168.8412     337.7832      1.878     4.27     1011.381     59.52795     375.4937        29     1.488     1.156 -57.14   0
       319    179.8346    509.1718 307.8636490  +6.4601845     21520.12     38281.89     41022.46     84.11786     168.6396      337.481      1.904     4.12     1016.141     59.52795     2355.535        62     1.715     1.342 -57.72   0
       320    115.2871    513.3787 307.8903196  +6.4562805     721.4421     1138.494     985.9993     84.65536     168.6396     337.5818      1.748     4.18     1018.067     59.52795     115.3923         6     0.935     0.532 -40.61   0
       321    544.6642    510.0082 307.7120651  +6.4720612     1744.367     3033.449     3373.239     84.11786     168.6396     337.5482      1.868     4.28     1007.259     59.52795     220.9237        20     1.311     1.014 -45.36   0
       322    907.6997    509.3095 307.5612706  +6.4844673     1387.735      2335.22     2584.299     84.65536     169.3107     337.6825      1.627     4.69     1000.156     59.52795     218.9177        16     1.512     0.730 -48.59   0
       323    145.1443    507.2832 307.8781233  +6.4597997     2357.063     4077.051     3725.507     84.65536     168.9084     337.8168      1.788     4.22     1017.234     59.52795     266.5251        26     1.445     1.112 -66.20   0
       324     25.1205    507.3960 307.9279769  +6.4557210      1802.63      3145.99     2808.522     84.25256     168.3705     337.4474      1.811     4.26     1020.025     59.52795     225.2042        20     1.319     1.051 -80.70   0
       325    382.1918    505.7411 307.7797037  +6.4683856     926.7969     1591.154     1953.354     83.98295     168.7741     337.4474      2.178     5.41     1010.971     59.52795     127.3701        10     1.172     0.705 -52.22   0
       326   1005.3344    503.7321 307.5208958  +6.4900214     5475.634     7653.346     8019.369     84.65536     168.9084     337.7497      1.497     3.32     996.7521     59.52795      823.524        25     1.297     0.915 -51.69   0
       327    578.7932    496.3043 307.6983488  +6.4788604     1346.074     2220.698     2470.406     84.38704     168.5724     337.5146      1.717     5.18     1006.589     59.52795     203.6926        16     1.413     0.812 -37.83   0
       328     44.1562    493.5925 307.9205372  +6.4620598     21887.58     37962.18     40653.68     84.11786     168.7069     337.4138      1.842     4.02     1019.434     59.52795     2517.177        57     1.666     1.301 -61.81   0
       329    476.7966    490.2638 307.7409250  +6.4779431     35293.55     62970.29     67271.53     83.98295     168.7069      337.481      1.901     4.17     1008.956     59.52795     3821.996        73     1.713     1.380 -54.25   0
       330     26.7037    487.7827 307.9279838  +6.4638719     169294.7     287444.4     305488.5     84.52131     168.7069     337.5146      1.831     3.91     1020.026     59.52795      20747.2       121     1.741     1.421 -58.21   0
       331    684.8569    489.9209 307.6545011  +6.4850397     10968.83     17983.21     18337.84     84.65536     168.9084     337.7161      1.743     3.76      1005.28     59.52795     1313.407        40     1.530     1.178 -54.71   0
       332    207.6663    488.8961 307.8527734  +6.4694897     1417.529     2520.986     2829.637     84.65536     168.9755     337.7497      1.886     6.71      1013.93     59.52795     164.4865        23     1.619     1.096 -65.75   0
       333   1018.3784    488.7360 307.5159798  +6.4966473     1039.878     1929.586       1761.2     84.25256     168.9084     326.3782      1.943     5.89     996.1028     59.52795     168.3311        12     1.645     0.653 -52.33  16
       334    324.8066    490.3239 307.8040633  +6.4728284     783.0249     1483.816     1277.845     84.25256     168.3705     337.5818      1.914     4.53     1011.196     59.52795     105.6959         7     0.980     0.640  89.75   0
       335    242.0579    487.8893 307.8385207  +6.4710592     15531.22     29395.66     31574.43     84.52131     168.8412     337.8504      2.019     4.27     1012.775     59.52795     1614.331        61     1.673     1.495 -54.68   0
       336    947.4159    487.4359 307.5455052  +6.4948217     775.0977     1078.216     1257.737     84.25256     168.6396     337.5146      1.492     4.67     998.3219     59.52795     123.2294         7     0.921     0.671  70.11   0
       337    606.7496    486.6624 307.6870596  +6.4837759     2603.339     4163.358     4707.203     84.65536     168.8412     337.7832      1.761     4.00     1006.292     59.52795     311.9826        21     1.296     1.021 -68.37   0
       338    858.7980    487.4856 307.5823199  +6.4918485     701.5903     869.9922     798.2045     83.98295     168.5051     337.4138      1.227     3.16     1000.402     59.52795     135.8494         5     0.740     0.453 -21.20   0
       339    980.4050    483.8219 307.5319210  +6.4974124     4931.848     6923.173     7516.695     84.25256     168.6396     337.5146      1.485     3.20     997.2197     59.52795     734.7899        23     1.297     0.910 -46.19   0
       340    653.6533    482.2345 307.6677232  +6.4871712     5814.977     9645.053      10194.3     84.52131     168.9084     337.6825      1.777     3.84      1005.75     59.52795     651.5164        33     1.414     1.227 -56.53   0
       341    141.4871    482.5414 307.8804799  +6.4698921     844.3726     1358.232     1337.825     84.65536     168.9084     337.8168      1.760     3.96     1016.467     59.52795     134.1656        10     1.164     0.966 -89.08   0
       342   1003.0327    476.0599 307.5227807  +6.5013705     3556.799     4914.655     4969.575     84.38704     168.9755     337.6489      1.472     3.11     996.1952     59.52795     552.2661        22     1.297     0.902 -57.12   0
       343    565.7830    473.5083 307.7045220  +6.4878376     6335.345     11077.23     11905.05     84.38704     168.6396     337.6153      1.899     4.09     1005.868     59.52795     678.8101        38     1.542     1.257 -53.16   0
       344    922.1893    469.4470 307.5565898  +6.5014089     3079.579     4645.821     5642.245     84.11787     168.7741     337.3465      1.658     3.48     998.4957     59.52795     420.1145        21     1.342     0.900 -49.17   0
       345    411.9872    473.8790 307.7684017  +6.4825386      2108.77     3724.458     3786.415     84.25256     168.5724      337.481      1.837     4.31     1009.263     59.52795     245.2365        25     1.401     1.127 -48.82   0
       346    929.7038    463.6939 307.5536611  +6.5040346     2243.979      3105.15     3458.092     84.65536     169.5115     337.6153      1.520     3.47     998.1715     59.52795     296.8472        18     1.238     0.861 -65.60   0
       347    969.0073    463.0034 307.5373551  +6.5056287     1236.569     1450.277     1416.163     83.98295     168.5724     337.5482      1.327     4.13      996.741     59.52795     183.7563        13     1.270     0.679 -73.56   0
       348    149.1439    463.2758 307.8779512  +6.4781033     598.9907     1177.936     1293.247     84.65536     168.8412     337.6489      1.505     3.45     1015.297     59.52795     82.52863         5     0.987     0.349 -43.89   0
       349    753.5255    459.8026 307.6269865  +6.4997675     2575.317     4035.725     3940.295     84.11787     168.3705     337.5818      1.669     4.32     1002.315     59.52795     338.4091        20     1.395     0.905 -55.80   0
       350    115.7023    458.7384 307.8919969  +6.4788537     1623.996     2877.332     2933.258     84.38704     168.9755     337.7832      1.803     5.44     1015.913     59.52795     194.6855        21     1.517     0.975 -56.07   0
       351    424.6198    458.0325 307.7636885  +6.4895043     2960.569      5442.64     5261.826     84.11786     168.7069     337.5146      1.904     4.47     1007.997     59.52795     329.9912        31     1.531     1.229 -54.14   0
       352    464.8921    458.1009 307.7469556  +6.4908242     845.8798     1302.611     1321.251     84.65536     169.4446     337.6825      1.572     2.94     1007.108     59.52795     137.3218         5     0.773     0.510  40.54   0
       353    652.3080    454.5570 307.6692141  +6.4985539     8752.249     14691.33     15745.36     84.65536     168.9084     337.8168      1.845     3.92     1004.481     59.52795     1013.538        44     1.656     1.200 -49.92   0
       354    815.2869    450.7225 307.6016326  +6.5055769     15242.17     24204.07     26791.91     84.65536     169.2437     337.8168      1.789     4.27     1000.654     59.52795      2046.95        62     2.170     1.131 -49.13   0
       355    334.6398    451.3857 307.8012938  +6.4892346      2191.37     4054.797     3834.851     84.11787     168.7069     337.4474      1.920     5.27     1008.349     59.52795     258.3444        28     1.683     1.126 -41.83   0
       356    458.7387    451.5615 307.7497326  +6.4933182     547.0778     857.1075     933.9787     84.65536     168.9755     337.7497      1.655     4.45     1006.801     59.52795     106.0291         5     1.059     0.532 -40.78   0
       357    844.0049    447.9953 307.5897931  +6.5076605     1154.941      1659.59     1751.049     83.98295     168.5051     337.5818      1.587     4.02     999.7842     59.52795     161.7501        14     1.165     0.842 -85.40   0
       358    418.0349    447.7899 307.7667699  +6.4935128     1262.649     2337.879     2751.092     84.11786     168.6396      337.481      2.062     5.73      1007.48     59.52795      142.322        16     1.214     1.010 -63.56   0
       359   1000.2639    445.9388 307.5249419  +6.5137152     2119.432     2739.242     2495.719     84.65536     168.9084     337.7497      1.389     3.53     994.7613     59.52795     321.0166        17     1.358     0.716 -51.14   0
       360    152.4829    442.9923 307.8772506  +6.4865899     3760.335      6940.89       7732.7     84.25256     168.5724     337.5482      1.997     4.35      1014.12     59.52795     418.5995        34     1.554     1.260 -47.83   0
       361    790.5964    441.8299 307.6121896  +6.5084251     2263.097     3380.491     3266.603     84.11786     168.7069     337.5482      1.638     3.90     1000.876     59.52795     288.6636        19     1.293     0.926 -67.58   0
       362    406.1948    442.4289 307.7718697  +6.4953298     449.1625     796.7114     1097.035     84.11787     168.7069     337.5146      1.808     3.72     1007.144     59.52795     67.51794         5     1.031     0.386 -84.73   0
       363    310.7182    439.7472 307.8116248  +6.4932381     1384.599     2206.015     2515.201     84.65536     168.9084     337.7497      1.797     6.43     1008.087     59.52795      162.603        15     1.358     0.925 -47.94   0
       364    388.4498    437.6716 307.7794023  +6.4966996      2653.38     4591.356     4892.745     84.65536     168.9084     337.7497      1.839     4.78     1006.949     59.52795     306.9176        29     1.492     1.296 -34.15   0
       365    744.1603    435.7124 307.6316878  +6.5094015     1407.122     2337.387     2174.604     84.65536     168.8412     337.7497      1.747     5.08     1002.089     59.52795     163.5281        19     1.392     1.006 -56.50   0
       366   1018.3187    434.1145 307.5178374  +6.5191983     618.1601      864.241     1173.656     84.38704     169.2437      327.003      1.470     3.43     993.3541     59.52795      116.144         5     0.973     0.350 -44.76  16
       367    585.8735    428.2784 307.6976998  +6.5071840     856.7068     1438.902     1571.861     84.92284     169.1767     337.7497      1.853     5.65     1003.558     59.52795     100.9562        11     0.994     0.906 -15.19   0
       368    508.1122    426.6902 307.7300596  +6.5052393     1142.614     2221.121     1584.364     84.38704     169.3777     337.8504      1.968     6.68     1004.085     59.52795     138.0468        20     1.533     1.005 -26.12   0
       369    870.5045    425.2910 307.5795465  +6.5179183     1462.849     2120.685     2035.384     84.65536     169.3777     337.6825      1.573     3.87     998.6888     59.52795     202.1263        18     1.296     0.906 -50.44   0
       370    856.1271    424.8471 307.5855348  +6.5176223     1971.374     3048.912     3568.831     84.65536     168.9755     337.7161      1.779     3.75     998.9899     59.52795     274.8588        18     1.210     0.966 -52.10   0
       371    753.4475    422.7679 307.6282648  +6.5150561     13825.22     22045.75      23481.5     84.38704     168.9084     337.6489      1.725     3.66     1001.523     59.52795     1833.777        45     1.531     1.190 -51.36   0
       372    674.5443    418.7817 307.6611806  +6.5140678     2410.564     3969.103     4207.585     84.11787     168.8412      337.481      1.814     4.04     1002.577     59.52795     294.2955        23     1.270     1.154 -67.83   0
       373    646.9252    413.8880 307.6728201  +6.5151657     11147.18     25117.71     30299.86     84.65536     169.2437     337.8168      2.443     5.89     1002.508     59.52795     1497.826        69     2.276     1.561  31.12   0
       374    978.7180    412.4925 307.5350163  +6.5268076      3849.57     5634.343     5577.645     84.38704     169.2437     337.7832      1.562     3.16     994.1216     59.52795     574.3594        25     1.330     0.950 -53.12   0
       375    417.8489    408.6542 307.7681682  +6.5096649     23139.79      42533.3     45759.93     84.65536     168.9084     337.7832      1.967     4.38     1004.773     59.52795     2513.789        66     1.739     1.410 -51.82   0
       376    164.1500    408.2519 307.8735794  +6.5013249     1942.323     3355.467     2991.708     84.78921     168.7741     337.6825      1.796     4.73     1011.983     59.52795     224.3811        22     1.286     1.175 -46.12   0
       377    934.4794    408.2972 307.5535374  +6.5270666     1417.086     2342.453     2687.035     84.38704     169.1767     337.7497      1.907     3.56     996.0858     59.52795     210.3979        13     1.181     0.739 -60.15   0
       378     97.1519    403.9183 307.9015593  +6.5008641     1298.901     2462.486     2847.477     84.65536     168.9084     337.7497      2.101     6.60     1014.833     59.52795     141.7957        19     1.452     1.085 -24.56   0
       379    947.5276    403.0644 307.5482919  +6.5296618     5122.361     7265.363     7500.978     84.65536     168.9084     337.7497      1.502     3.24     995.2035     59.52795     668.6189        23     1.291     0.918 -44.90   0
       380    275.4360    399.2094 307.8276526  +6.5087922        11193     20731.95     22136.42     84.11787     168.6396      337.481      1.960     4.30     1006.795     59.52795     1165.303        53     1.692     1.390 -52.39   0
       381   1003.2795    400.9630 307.5251984  +6.5323858     574.7519     979.6763     1229.826     84.52131     168.9755     337.7161      1.517     3.83     992.6133     59.52795     92.20752         5     1.317     0.319 -26.57   0
       382    770.6346    392.6769 307.6221364  +6.5280538     757.5221     1223.418      1639.41     84.52131     168.9755     337.7161      1.684     3.75      999.711     59.52795     132.8517         7     0.863     0.674 -64.81   0
       383    111.5281    393.4465 307.8959416  +6.5056705      745.698     1351.665     1190.435     84.65536     168.9755     337.7161      1.838     5.13     1013.954     59.52795     92.74774         7     1.064     0.698   3.23   0
       384    998.4896    391.2982 307.5275130  +6.5362168     985.8254     1638.418      1773.36     84.65536     169.3777     337.7161      1.685     5.70     992.5035     59.52795     130.7114        11     1.313     0.698 -41.26   0
       385    738.2961    391.9415 307.6355971  +6.5272782     735.8059     1153.721     1390.092     84.52131     168.9084     337.8504      1.872     5.39      1000.69     59.52795     102.6407         8     1.109     0.741 -36.77   0
       386    388.4783    388.8815 307.7810379  +6.5168449      1241.51     2112.842     2196.201     84.78921     169.1767     337.8839      1.967     5.34      1003.68     59.52795     136.7126        18     1.206     1.122 -33.87   0
       387    175.7594    387.9856 307.8694422  +6.5100819     4100.116      7661.19     7985.024     84.11786     168.7069     337.4474      1.943     4.39     1010.956     59.52795     477.5518        38     1.595     1.287 -65.44   0
       388    280.7410    386.4889 307.8258786  +6.5142221     1171.574     2244.232     2213.519     84.52131     168.9755     337.8168      1.952     6.10     1005.896     59.52795     135.6793        16     1.237     1.063   1.25   0
       389    197.7808    383.7738 307.8604361  +6.5125600     2031.723     4267.425     4126.325     84.25256     168.7069     337.6153      2.142     5.85     1009.855     59.52795     208.8684        30     1.757     1.204 -71.17   0
       390    861.6633    384.0049 307.5846074  +6.5346702     888.1715     1484.939     1623.526     83.98295     168.7069      337.481      1.836     5.50     997.3939     59.52795     128.8919         9     1.152     0.819 -45.96   0
       391    593.7496    382.2245 307.6959796  +6.5264621     718.9638     983.8497     761.2808     84.25256     168.9084     337.6153      1.595     4.90     1001.215     59.52795     121.8146         8     0.965     0.705 -62.74   0
       392     14.0319    379.7943 307.9369073  +6.5080306     1995.153     3585.906     4229.094     83.98295     168.7069      337.481      2.020     4.64     1015.015     59.52795     251.8279        22     1.304     1.141 -54.67   0
       393    421.5302    378.6260 307.7676525  +6.5221861      1758.82     2812.425     2805.879     84.25256     168.7741     337.6489      1.792     4.57     1002.368     59.52795     194.0907        20     1.323     1.029 -60.31   0
       394   1009.7404    377.9666 307.5232858  +6.5420958     899.9039     1672.428     1734.646     84.52131     168.9755     337.6489      1.816     4.29     991.5811     59.52795     148.9766         8     1.148     0.535 -75.96   0
       395     40.7524    378.1239 307.9258633  +6.5096185     726.9072     1001.849     820.3566     84.52131     168.9755     337.6825      1.467     4.25     1014.801     59.52795     105.8948         7     0.747     0.690 -79.16   0
       396     22.4706    377.0874 307.9334933  +6.5094318      779.904     1169.079     1304.951     84.78921     169.1767     337.7161      1.640     5.59     1014.934     59.52795     113.7173         8     1.034     0.852 -64.43   0
       397    475.0975    372.1187 307.7456167  +6.5266661     6043.403     11049.23     11616.81     84.52131     169.2437     337.8168      1.920     4.28     1000.998     59.52795     670.1379        40     1.654     1.233 -57.20   0
       398     71.3751    372.8662 307.9133196  +6.5128184     2649.152     4859.953     5188.217     84.25256     168.9084     337.6153      1.965     4.25     1014.508     59.52795     362.2533        28     1.524     1.182 -57.69   0
       399    807.6471    370.8943 307.6074911  +6.5382823     1804.942     2847.589     3012.918     84.52131     168.8412     337.8504      1.630     4.08     998.0626     59.52795     257.2631        20     1.396     0.891 -58.15   0
       400    815.6472    369.3225 307.6042200  +6.5391981     12098.05     18949.67     20525.13     84.52131     168.9755     337.6825      1.700     3.59     997.8254     59.52795     1521.835        39     1.480     1.125 -53.66   0
       401    379.5670    367.3618 307.7854669  +6.5254314     778.2766     1273.319     1392.392     84.25256     168.7069      337.481      1.650     4.57     1002.394     59.52795     107.4839         7     1.081     0.565  49.80   0
       402    990.3974    360.8956 307.5318957  +6.5485004     692.9838     807.4802     521.3551     84.25256     168.5724     337.3801      1.289     4.40     991.7852     59.52795     103.3541         7     0.886     0.622  67.67   0
       403    224.7117    360.1715 307.8500461  +6.5232084     640.1168     1165.292     579.9654     84.78921     168.6396     337.5818      1.850     5.54     1007.174     59.52795     108.0035         5     1.171     0.738 -85.86   0
       404     29.2485    359.0405 307.9312891  +6.5171106     911.4948     2409.256     4289.131     84.52131     168.8412     337.6153      4.853    10.15     1014.722     59.52795     130.4432        21     2.289     1.254 -49.93   2
       405    940.5876    359.6403 307.5526337  +6.5473601     534.7775     922.5665     512.4854     84.11787     168.7069      337.481      1.584     3.71     993.5317     59.52795     90.59595         5     1.336     0.297 -44.80   0
       406    495.4574    356.3487 307.7376898  +6.5338585     1964.917     3368.833     3093.022     84.65536     168.9084     337.7161      1.820     4.95     999.9386     59.52795     222.1194        21     1.374     1.095 -79.85   0
       407    523.2468    355.7341 307.7261647  +6.5350420     2605.862     4754.189     4773.601     84.65536     168.8412     337.7161      1.892     4.58     999.9307     59.52795     298.8291        28     1.505     1.144 -44.52   0
       408    951.9042    355.2241 307.5480800  +6.5495604     664.8539     1030.977     921.5396     84.78921     168.6396     337.5818      1.728     5.02      992.912     59.52795     107.2159         7     1.133     0.629  83.60   0
       409    880.9788    352.2873 307.5776480  +6.5484099     31204.59     49857.22     52851.32     84.65536     168.6396     337.5818      1.712     3.55     995.3916     59.52795     4157.001        63     1.686     1.190 -61.37   0
       410    373.7919    348.3876 307.7885072  +6.5330720     735.0326     1264.853     988.4388     84.25256     168.7069     337.6489      1.467     4.09       1001.5     59.52795     99.23511         7     1.005     0.477   6.53   0
       411    652.7505    344.6422 307.6727321  +6.5439509     2362.587     4045.978     4154.939     84.65536     168.8412     337.6825      1.829     4.42     998.7882     59.52795     299.7791        24     1.395     1.123 -44.85   0
       412     61.1950    345.5338 307.9184748  +6.5237609     957.9724     1754.853     1621.691     84.11787     168.5724     337.5146      1.921     6.72     1014.234     59.52795     133.4106        12     1.398     0.905 -61.45   0
       413    737.4429    338.2664 307.6377579  +6.5494115      72438.9     117106.9       123754     84.65536     168.8412     337.7497      1.772     3.72     997.9565     59.52795      8707.22        85     1.667     1.317 -50.62   0
       414    895.8484    339.7289 307.5718917  +6.5540907     1175.826       1906.1     2050.736     84.65536     168.8412     337.7497      1.902     5.51     994.4528     59.52795     160.3369        13     1.280     0.777 -78.38   0
       415    117.1451    337.6235 307.8954982  +6.5289067     1222.711       2079.2     2094.214     84.25256     168.9084     337.5146      1.700     5.96     1012.457     59.52795     142.7299        18     1.453     0.940 -79.11   0
       416    600.0334    335.0507 307.6949586  +6.5461494     2231.043     4126.451     4274.067     84.52131     168.9755     337.6489      1.945     4.71     998.4202     59.52795     237.2521        25     1.489     1.067 -36.59   0
       417    137.2704    333.8547 307.8872646  +6.5311386      5177.01     9533.046     9778.021     84.52131     168.8412     337.6825      1.953     4.37     1011.314     59.52795     655.5133        38     1.597     1.280 -50.81   0
       418    978.8249    334.9000 307.5375768  +6.5588485     886.1857     1515.089     1237.851     84.65536     168.6396     337.5482      1.853     3.49     991.4379     59.52795     174.8796         7     1.057     0.591 -58.37   0
       419    583.1960    331.1731 307.7020850  +6.5471876     5942.468     10554.04     10665.02     84.11786     168.7069     337.5482      1.867     3.99      998.122     59.52795      708.025        41     1.655     1.258 -50.49   0
       420    312.3350    328.6642 307.8147070  +6.5391556     2016.046     3859.631     3970.849     84.65536     168.9084     337.7161      1.976     5.50     1002.777     59.52795     214.6685        25     1.562     1.112 -58.63   0
       421    446.1476    326.3792 307.7591882  +6.5445819     20958.79     38592.77     41294.54     84.11786     168.9084     337.5146      1.946     4.29        998.7     59.52795      2381.04        64     1.721     1.394 -54.39   0
       422    554.2986    324.9127 307.7143026  +6.5488062     1073.651     1699.099     1727.981     84.65536     169.3777     337.7497      1.729     4.65     997.6746     59.52795     134.6366        13     1.187     0.871 -59.63   0
       423    425.8861    323.6984 307.7676970  +6.5450104     926.6788     1669.782     2224.192     84.65536     169.3777     337.7832      2.037     5.47      998.965     59.52795     127.0399         9     1.145     0.737  65.21   0
       424    525.4640    321.9320 307.7263835  +6.5490724     1047.716      1800.08     2011.275     84.65536     168.9084     337.7832      1.924     5.30     997.5665     59.52795     148.3939        13     1.253     0.813 -66.67   0
       425    840.9808    318.7070 307.5953959  +6.5609415     798.9365     1397.582     1372.146     84.52131     168.6396     337.5482      1.786     5.30     995.0598     59.52795     104.8548         8     1.433     0.553 -38.67   0
       426    804.4495    315.5355 307.6106815  +6.5610326     3021.273     5019.728     5688.385     84.52131     168.8412     337.7497      1.878     4.70     995.5603     59.52795     363.6234        31     1.671     1.196 -61.43   0
       427    535.2634    316.8011 307.7224850  +6.5515187     7080.079     12716.03     13578.33     83.98295     168.7069     337.4474      1.913     4.20     997.1452     59.52795     842.5422        41     1.618     1.248 -52.73   0
       428    422.9549    318.9140 307.7690764  +6.5468876     714.1788     1274.669     1745.123     84.65536     168.7741     337.7161      2.028     5.12      998.789     59.52795     85.37085         8     1.063     0.696  81.42   0
       429    959.6733    315.3571 307.5461907  +6.5662798     858.1166     1139.443     1259.894     84.52131     168.9755     337.7497      1.492     4.23     991.6529     59.52795     128.4763         7     0.989     0.517 -59.79   0
       430    361.8366    313.1711 307.7946638  +6.5472114      892.813     1556.667     1521.693     84.25256     168.6396     337.5146      1.948     6.65     1000.772     59.52795      109.022        11     1.176     1.055 -43.89   0
       431    197.7575    306.9603 307.8630446  +6.5442732      853.886     1601.425     2006.869     84.38704     168.9084     337.5818      2.245     5.83     1006.807     59.52795     116.7278        12     1.336     0.901 -62.68   0
       432    425.0793    301.0706 307.7687961  +6.5543259     5877.555     10724.92     11429.86     84.92284     169.1767     337.6825      1.959     4.48     997.9054     59.52795     610.0885        42     1.633     1.318 -48.88   0
       433    281.1167    301.5433 307.8285942  +6.5493064      1776.92     3133.564     3724.355     84.65536     168.9084     337.8168      1.926     4.64     1002.935     59.52795     244.2416        21     1.381     1.073 -49.75   0
       434    778.6344    300.7164 307.6219063  +6.5662900     753.2894     1353.196     1789.212     84.65536     168.9084     337.6825      2.124     5.62     995.2767     59.52795      125.808        10     1.456     0.611 -54.29   0
       435    792.9189    296.8346 307.6161016  +6.5683694     48826.51      79886.6     84271.35     84.52131     168.9084     337.7161      1.739     3.67     994.7088     59.52795     6511.146        74     1.642     1.288 -52.42   0
       436    464.5736    296.3295 307.7525466  +6.5576056     1835.145     3391.914     3521.098     84.25256     168.7741     337.6489      1.901     5.07     996.6146     59.52795     254.8484        22     1.454     1.033 -55.91   0
       437    968.7857    293.1344 307.5431506  +6.5757588     2442.617     3589.076     3703.886     84.11786     168.7741     337.6489      1.561     4.04     990.7856     59.52795     328.3046        21     1.434     0.871 -50.51   0
       438    610.9325    294.1210 307.6918094  +6.5634129     995.3281     1681.425     1784.674     84.78921     169.1097     337.7161      1.738     5.66     995.3346     59.52795     118.6008        12     1.400     0.695 -53.58   0
       439    501.5412    292.8308 307.7373049  +6.5602873     954.5277     1629.206     3010.714     84.38704     168.9084     337.6489      2.544     4.62     995.7693     59.52795     134.0913        11     1.034     0.956 -63.16   0
       440    872.5541    286.4918 307.5833598  +6.5752954     1106.443     1881.298      1698.87     84.65536     168.8412     337.8504      1.711     4.75     993.1714     59.52795     166.6172        14     1.313     0.967 -51.31   0
       441    451.2095    292.0699 307.7582431  +6.5589169     1453.739     2886.024     2938.607     84.11786     168.6396     337.5482      2.092     5.67     996.7676     59.52795     175.0371        21     1.452     1.121 -26.00   0
       442    227.9799    283.4138 307.8512846  +6.5550090     1941.646     3449.026     3789.013     84.38704     168.5724     337.6153      1.906     5.00     1004.294     59.52795     242.5743        22     1.434     1.116 -70.55   0
       443    481.6711    283.7857 307.7458660  +6.5633569      972.145     1712.954     2553.029     84.11787     168.7741     337.6153      2.241     5.55     995.5359     59.52795     127.5149        14     1.489     0.861 -59.04   0
       444    791.2923    281.3336 307.6172989  +6.5747152     5580.556     8875.056     9296.027     84.52131     169.1097     337.7161      1.715     3.61     994.1855     59.52795     709.1057        32     1.424     1.134 -59.05   0
       445    263.2160    281.9485 307.8366942  +6.5567962     589.4216     1035.612     1135.344     84.11786     168.9755     337.4138      1.912     5.08     1003.138     59.52795     88.07471         6     0.935     0.780  31.84   0
       446    123.0000    282.0115 307.8949488  +6.5520636     609.4905     1549.552     2297.716     84.11786     168.5051      337.481      3.010     5.07     1010.382     59.52795     86.86194         6     1.353     0.538 -84.11   2
       447    807.8797    279.2013 307.6104783  +6.5761490     2208.552     3959.133     4063.754     83.84782     168.3031      337.481      1.835     4.40     993.8482     59.52795     316.3053        23     1.515     0.946 -54.33   0
       448    397.3324    274.3114 307.7812283  +6.5644448     1468.055     3200.704     3722.748     84.78921     169.1097     337.7161      2.354     6.32     998.0476     59.52795     177.5166        26     1.826     1.068 -25.10   0
       449    111.4596    274.4426 307.8999998  +6.5548009     1159.496      1967.98     1989.653     84.65536     168.9084     337.8168      1.844     6.44      1010.73     59.52795     140.1129        17     1.460     0.939 -63.12   0
       450    524.0961    270.0228 307.7287027  +6.5704589     1756.703     3169.814     3430.472     84.65536     168.6396     337.5482      2.009     4.83     994.6448     59.52795     196.4578        25     1.438     1.204 -54.18   0
       451    286.6668    265.8727 307.8274942  +6.5642199     4662.031     8550.625     9416.676     84.78921     169.0426     337.6825      1.972     4.49     1002.345     59.52795     511.0705        37     1.622     1.273 -51.13   0
       452    851.1287    263.7629 307.5930266  +6.5839656      499.955     854.0133     979.5317     84.52131     168.9084     337.7497      1.770     4.43      993.121     59.52795     87.18945         5     0.803     0.696  39.06   0
       453     17.0312    258.5527 307.9397707  +6.5581875     56486.88     100292.6     106968.4     84.25256     168.9084     337.6153      1.904     4.07     1015.173     59.52795     6561.391        84     1.752     1.408 -57.79   0
       454    806.4908    258.7119 307.6117446  +6.5845624     664.4221     1048.116     305.4222     84.65536     169.3777     337.8504      1.781     5.00     993.6327     59.52795     99.80145         7     1.016     0.696 -41.50   0
       455    421.1449    256.1734 307.7719467  +6.5727311     1447.402     2431.954     2119.917     84.25256     168.9755     337.5482      1.770     5.45     996.4931     59.52795     169.2245        18     1.257     1.004 -89.10   0
       456   1007.8610    255.2802 307.5281848  +6.5926895     1113.952       1613.7     2100.794     84.78921     168.9084     337.7161      1.626     4.44     988.0267     59.52795     160.9105         8     1.118     0.627 -49.45   0
       457    190.7397    252.4161 307.8678061  +6.5665572     1588.043     3023.812     3760.343     84.11787     168.8412     337.4474      2.041     4.81     1006.368     59.52795     210.5283        23     1.418     1.145 -60.13   0
       458    343.0167    252.4897 307.8045335  +6.5716345     911.2241     1619.488     1812.248     84.38704     168.6396     337.6153      2.141     5.83     999.9021     59.52795     117.3044        12     1.173     0.817  47.50   0
       459    600.1075    247.8736 307.6978659  +6.5821457     1932.469     3479.971     3271.308     84.52131     169.0426     337.7497      1.919     4.71     993.9068     59.52795     218.4094        24     1.355     1.216 -43.04   0
       460    944.0713    247.3147 307.5549590  +6.5938542     1726.263       2510.2     2746.271     84.78921     169.1767     337.7497      1.559     3.75      989.158     59.52795     243.6346        14     1.227     0.736 -43.86   0
       461    763.8104    245.5242 307.6299230  +6.5885834     4682.045     7624.915      7685.98     84.25256     168.4378     337.5146      1.736     3.81     993.8773     59.52795     560.1288        32     1.498     1.103 -57.58   0
       462    704.7551    245.4758 307.6544635  +6.5866321     2000.731     3206.648     3014.951     84.52131     168.9755     337.7497      1.709     4.28     993.9642     59.52795     248.7878        24     1.432     1.070 -50.07   0
       463   1001.8405    245.2128 307.5310244  +6.5966458     695.6392     785.6562     665.8527     84.11786     168.7069     337.4474      1.197     3.33     987.8193     59.52795     132.9439         5     1.073     0.312  79.23   0
       464    960.0581    237.6932 307.5486391  +6.5983593     1105.367     1611.003     1318.838     84.52131     168.9084     337.8504      1.334     3.36     988.3299     59.52795     186.1942         9     0.978     0.622 -52.78   0
       465    263.5101    231.0687 307.8382925  +6.5778128     1888.474      3429.79     3481.943     84.78921     169.1097     337.7161      1.955     5.51     1003.104     59.52795     222.1211        27     1.654     1.144 -69.99   0
       466    906.1349    229.7079 307.5713145  +6.5998599     1622.048     2432.182     2782.489     84.65536     169.1097     337.7161      1.634     3.61     989.7947     59.52795     248.4255        15     1.207     0.852 -52.03   0
       467    796.3839    229.2215 307.6169363  +6.5964014     1486.387     2246.042     2105.295     84.25256     168.5724     337.6153      1.564     3.64     993.3644     59.52795     216.4173        17     1.211     0.914 -78.65   0
       468    497.2919    220.7368 307.7415028  +6.5899112     18939.22     34308.96     37419.89     84.65536     169.1097     337.7832      1.969     4.29     993.0398     59.52795     2148.395        66     1.810     1.368 -50.92   2
       469    502.9486    215.4824 307.7393296  +6.5922699     1215.929     2207.731     2467.256     84.65536     168.9084     337.7832      1.888     5.77     992.8803     59.52795     162.8033        15     1.373     0.944 -66.88   3
       470    823.2747    219.8166 307.6060785  +6.6011816     12445.79      20081.6     21290.83     84.11786     168.6396     337.5818      1.738     3.52     992.7364     59.52795     1740.595        51     1.655     1.211 -43.66   0
       471    185.7129    213.8580 307.8711996  +6.5823078     2022.993     3689.674     4212.703     84.65536     168.9084     337.8504      1.962     4.97     1006.219     59.52795     221.2311        24     1.519     1.075 -38.60   0
       472    160.3938    213.3023 307.8817385  +6.5816872     978.0894     1716.877     1988.534     84.38704     168.5051      337.481      2.019     5.59     1007.392     59.52795     118.4547        11     1.121     0.785 -61.54   0
       473    959.7652    210.3951 307.5496776  +6.6096206     1412.109     2022.336     2247.793     83.84782     168.7069      337.481      1.610     4.24     987.1864     59.52795     197.9449        13     1.218     0.772 -61.14   0
       474    762.3930    215.5290 307.6315214  +6.6009207       757.64     1333.546     771.0486     84.11787     168.5051     337.6489      1.834     6.55     993.0665     59.52795     92.53589         9     1.460     0.824 -79.88   0
       475     23.4923    207.4543 307.9388184  +6.5795013     4300.829     7795.307      8336.08     84.52131     168.7741     337.8839      1.981     4.40     1015.097     59.52795     523.2394        39     1.599     1.360 -66.14   0
       476    584.1403    206.4967 307.7058955  +6.5986956     1766.858     2917.682     2990.564     84.38704     168.9084     337.8168      1.752     5.01     992.7437     59.52795     217.8928        19     1.555     0.824 -57.89   0
       477    621.2422    206.5573 307.6904764  +6.5999109     4044.567     6740.949     7007.802     84.38704     168.9084     337.5818      1.760     3.91     992.9022     59.52795     509.2711        30     1.473     1.104 -48.40   0
       478    341.6442    207.6717 307.8066182  +6.5900926      784.249     1367.588     1024.667     84.52131     168.9084     337.7497      1.742     5.22     999.5414     59.52795     93.32367         9     1.134     0.679 -44.75   0
       479    425.6968    205.5208 307.7717656  +6.5937967     1233.278     2066.824      1724.93     84.38704     169.1767     337.8168      1.767     5.61     994.6352     59.52795     144.8933        15     1.270     0.852 -40.04   0
       480    928.3636    202.9859 307.5629754  +6.6116338     11201.95     16892.26      17449.7     84.25256     168.7069      337.481      1.595     3.28     987.5463     59.52795     1557.797        36     1.419     1.075 -55.74   0
       481    355.7078    203.9428 307.8009006  +6.5921035     798.8703     1448.339     1711.911     84.52131     168.8412     337.8168      1.935     5.85     998.7553     59.52795     102.3589        10     1.553     0.620 -50.93   0
       482    982.2835    203.4158 307.5405546  +6.6132521     2891.969     4105.741     4332.997     84.25256     168.5724     337.6153      1.516     3.21     986.6063     59.52795     430.2011        20     1.248     0.902 -50.56   0
       483    248.8295    203.5935 307.8453217  +6.5886639     622.7442     1059.595     1235.581     84.11786     168.6396     337.5146      2.083     5.14     1003.741     59.52795     77.16724         5     1.002     0.746 -83.09   0
       484   1014.9680    200.8663 307.5270582  +6.6153930     10378.19      14867.2     15430.01     84.52131     168.9755     337.6489      1.493     3.09     985.9722     59.52795     1525.042        32     1.375     0.987 -50.19  16
       485    726.3209    200.8935 307.6470033  +6.6057594     2507.958     4175.411     4676.164     84.38704     169.1097     337.7832      1.822     3.79     992.7408     59.52795     371.1398        24     1.475     0.968 -63.27   0
       486    603.6475    203.1224 307.6979034  +6.6007410     700.3477     1277.529     1092.427     84.52131     168.9755     337.6825      1.807     4.30     992.7141     59.52795      95.7572         6     0.797     0.660  42.48   0
       487     54.6271    199.7213 307.9261443  +6.5837407     21617.03     38919.52      41973.6     84.52131     168.8412     337.7161      1.941     4.14     1012.715     59.52795     2643.966        61     1.699     1.406 -57.46   0
       488    301.0701    200.4299 307.8237221  +6.5917223     904.0453     1697.847     1334.001     84.52131     168.9084     337.6489      2.003     7.00     1002.024     59.52795     118.2013        13     1.442     0.953 -38.38   0
       489    535.1028    195.6460 307.7266379  +6.6015357     1342.281     2556.288     2381.569     84.65536     168.7741     337.8839      1.982     5.28     992.3098     59.52795     185.1514        19     1.400     1.103 -73.67   0
       490    866.9280    192.3622 307.5888619  +6.6139727       2048.3     3158.447      3049.54     84.52131     168.8412     337.7832      1.611     4.20     989.9052     59.52795     263.9647        18     1.320     0.908 -45.82   0
       491    547.0352    191.6599 307.7218141  +6.6035806     1888.526     3521.811     3495.186     84.65536     168.9084     337.6825      1.892     5.23      992.176     59.52795     207.2366        23     1.494     1.053 -41.37   0
       492    919.1659    191.4887 307.5671838  +6.6160744     2094.568     2842.823     3173.623     84.78921     168.8412     337.7161      1.486     3.86      987.627     59.52795     238.4083        13     1.037     0.845 -64.77   0
       493    778.5306    188.9915 307.6257086  +6.6124161     36952.01     60010.54     62858.54     84.11786     168.5724     337.6153      1.742     3.62     992.3108     59.52795     4556.077        63     1.606     1.266 -54.59   0
       494    381.7135    188.4097 307.7906195  +6.5993881     5206.695     11413.17     13604.95     84.25256     168.5724     337.5482      2.403     6.10     996.8835     59.52795     551.2943        54     2.282     1.322 -68.86   0
       495   1012.2538    187.8042 307.5286245  +6.6206958     2835.693     4114.906     3807.122     83.98295     168.6396     337.3801      1.478     3.37     985.5081     59.52795     425.7487        18     1.281     0.783 -50.84   0
       496    946.4130    186.0510 307.5560439  +6.6192272     7407.616     11002.24      11226.1     83.98295     168.8412     337.4474      1.556     3.22     986.7413     59.52795     1037.635        32     1.373     1.043 -54.21   0
       497    490.0116    185.2452 307.7457255  +6.6043212     3963.588     7431.305     7762.542     84.11786     168.7069     337.4138      1.985     4.53     992.0335     59.52795     439.1704        36     1.586     1.280 -45.06   0
       498    147.3350    176.4889 307.8884108  +6.5964476     4084.818      7301.99     7636.729     84.65536     169.1097     337.7497      1.901     4.27     1006.802     59.52795     480.7657        32     1.489     1.237 -49.57   0
       499    292.9484    174.3789 307.8279776  +6.6022056     5347.115     10020.32      10361.9     84.11786     168.9755     337.5146      1.969     4.53     1002.943     59.52795     583.3191        40     1.638     1.317 -56.07   0
       500    966.2553    175.6990 307.5481460  +6.6241623     785.2183      1284.44      1552.88     84.38704     168.9084     337.9846      1.959     4.91     986.0311     59.52795     135.8846         7     1.187     0.575 -52.69   0
       501    317.6514    173.2360 307.8177515  +6.6035058     27233.01     50488.46     54046.11     84.52131     168.9084     337.6489      1.974     4.40     1001.403     59.52795     3073.693        64     1.743     1.416 -54.91   0
       502    747.0065    173.2892 307.6393368  +6.6178472     727.3399     1114.612     1332.879     84.11786     168.5724      337.481      1.506     2.59     991.9316     59.52795     133.2359         7     0.700     0.680  -9.83   0
       503    197.7976    170.0502 307.8676609  +6.6008003     3112.242     5831.914     6299.852     83.98295     168.5051     337.2793      2.010     4.83     1005.069     59.52795     380.0524        31     1.635     1.174 -73.41   0
       504    441.7366    168.7312 307.7663428  +6.6095233     41233.43      75653.2     80633.49     84.65536     168.9084     337.7832      1.950     4.37     992.7304     59.52795     4610.293        77     1.768     1.426 -53.50   0
       505    459.1241    169.2496 307.7591002  +6.6098915     1042.854       2050.8     1478.556     84.52131     168.9755     337.7161      1.945     5.73     992.2502     59.52795     154.3258        15     1.508     0.884 -54.82   0
       506    345.7131    166.4765 307.8063196  +6.6072373     15149.86     27895.68     29592.88     84.65536     169.2437     337.7832      1.963     4.34     999.7272     59.52795     1842.535        55     1.719     1.355 -53.65   0
       507    780.9426    164.9074 307.6255167  +6.6224405      30289.3     49019.12     51250.29     84.52131     168.8412     337.8504      1.703     3.66     991.6397     59.52795     3985.413        55     1.585     1.220 -51.90   0
       508    353.2181    165.9576 307.8032187  +6.6077031     1731.393      3619.34     3981.246     84.11786     168.7069      337.481      2.283     6.72     999.2842     59.52795      190.936        25     1.725     1.154 -70.17   1
       509    728.9572    166.7971 307.6470557  +6.6199252     967.8066     1455.835     2019.656     83.98295     168.4378     337.3801      1.630     4.31     991.8158     59.52795     149.4148        10     1.052     0.769 -47.17   0
       510    829.4136    165.4854 307.6053549  +6.6238189      1130.33     1412.558     1250.365     84.25256     168.7069     337.6153      1.537     3.80     990.0814     59.52795     193.2042        10     1.081     0.755 -76.41   0
       511     97.8549    162.2861 307.9094514  +6.6006491      7879.42     14039.71      14695.8     84.65536     168.8412     337.8839      1.880     4.18     1008.763     59.52795      983.259        39     1.628     1.223 -59.12   0
       512    131.7559    160.1197 307.8954385  +6.6026826     1251.455     1965.758     2355.404     84.65536     168.9084     337.6825      1.700     5.28     1007.107     59.52795     164.2113        14     1.276     0.926 -85.14   0
       513     31.6199    147.4858 307.9374743  +6.6045331     823.8618      1136.86     664.6207     84.25256     168.6396     337.6153      1.592     5.44     1014.338     59.52795     108.8947        11     1.236     0.675 -60.89   0
       514    623.5872    143.0598 307.6916420  +6.6262060     890.0638     1464.768     1845.197     83.98295     168.8412     337.3801      1.735     5.88     991.3887     59.52795     117.8605        10     1.102     0.884 -68.10   0
       515    316.5222    139.5124 307.8193608  +6.6173914     25152.11     46302.45     50593.11     84.65536     169.2437     337.8504      1.990     4.33     1001.729     59.52795     2868.323        75     1.826     1.463 -51.34   0
       516    631.7603    141.2132 307.6883079  +6.6272416     1761.888     3110.264     4217.568     84.11786     168.7069     337.4474      2.127     4.53     991.3144     59.52795     239.9413        22     1.394     1.097 -11.22   0
       517     61.8746    138.1417 307.9252198  +6.6094082     3722.775     6963.257     7153.614     84.65536     168.9084     337.7161      2.002     4.51     1011.389     59.52795     464.0691        37     1.794     1.213 -70.36   0
       518    748.2027    136.0951 307.6400917  +6.6332440      7165.44     11920.79     13146.36     84.25256     168.5724     337.3801      1.748     3.84     990.4573     59.52795     939.6576        35     1.569     1.107 -52.86   0
       519    376.1693    141.5918 307.7945049  +6.6185322     906.9949     1490.157     668.0624     84.11786     168.7069      337.481      1.785     5.99     997.1342     59.52795     127.2929        11     1.297     0.868 -60.50   0
       520    158.9678    133.2376 307.8850416  +6.6146952     4095.091      7546.12     8154.801     84.25256     168.6396      337.481      1.948     4.15     1005.773     59.52795      516.631        36     1.613     1.260 -48.98   0
       521    498.2391    130.7190 307.7441467  +6.6271090     1156.849     1850.078     1552.359     84.65536     168.9755     337.6489      1.739     5.18      991.213     59.52795     138.1077        14     1.294     0.765 -52.14   0
       522    429.7727    129.2291 307.7726480  +6.6254320     3051.383     6376.322     7386.679     84.11786     168.7069     337.5146      2.204     5.24      992.887     59.52795     319.5427        38     1.729     1.384 -84.52   0
       523    686.1451    130.2662 307.6660767  +6.6335784     662.8802      1321.57     1524.527     84.65536     168.8412     337.7161      2.178     5.99      990.632     59.52795     107.9064         9     1.416     0.712 -30.16   0
       524    394.1891    128.2414 307.7874680  +6.6246479     2550.906     4669.575     4758.966     83.98295     168.7069     337.4474      1.883     4.74     995.4717     59.52795     310.0858        26     1.514     1.111 -73.33   0
       525    148.6252    128.0530 307.8895148  +6.6164883     1417.706     2514.786     3105.582     84.11786     168.9755     337.6153      1.939     5.68     1006.245     59.52795     172.6743        20     1.369     1.097 -32.02   0
       526    226.2187    137.1454 307.8569648  +6.6153395     716.3527     1384.721     1429.696     84.11786     168.9084     337.5146      1.737     4.43     1004.785     59.52795     111.2936         6     1.157     0.482 -38.54   0
       527    245.9566    117.1307 307.8494402  +6.6242652     4534.604     8301.438     8566.767     84.65536     168.8412     337.7832      1.943     4.35     1004.698     59.52795     525.9243        34     1.519     1.293 -54.87   0
       528    128.9765    117.0382 307.8980524  +6.6203759     1831.886     3354.266     3477.733     84.25256     168.6396      337.481      1.973     4.36     1007.183     59.52795     241.2697        22     1.427     1.003 -55.51   0
       529    707.7344    115.8620 307.6575901  +6.6402467     5690.667     9109.716     9072.686     84.65536     168.9084     337.7161      1.716     3.64     989.9346     59.52795     705.1055        33     1.488     1.107 -57.91   0
       530    855.9104    115.7289 307.5960171  +6.6452461      1036.21     1570.065     1533.265     84.52131     169.1767     337.7161      1.624     3.86     986.7333     59.52795     124.7129        11     0.945     0.864   2.27   0
       531    659.8971    113.1510 307.6775609  +6.6397681     8227.447     14246.96     15719.97     84.52131     168.8412     337.8839      1.859     3.85     990.3477     59.52795     1030.413        44     1.610     1.253 -52.48   3
       532    663.4803    104.6374 307.6763587  +6.6434029     47375.04     79811.82     84537.66     84.52131     168.9755     337.6825      1.831     3.82     990.0579     59.52795     5381.907        73     1.686     1.337 -54.68   3
       533     58.7853    112.0026 307.9273893  +6.6200961     1003.161     1873.836     1643.861     84.25256     168.5724     337.5482      1.931     6.41     1010.435     59.52795     117.6248        14     1.354     0.853 -32.39   0
       534    387.0732    108.9551 307.7910765  +6.6323723     3044.393     6153.551     6917.712     84.52131     168.9755     337.7497      2.139     5.20     996.1921     59.52795     350.7056        35     1.721     1.248 -59.30   0
       535    568.6829    108.1724 307.7156340  +6.6387746     1456.419     2799.492     2783.611     84.52131     168.7069     337.6489      2.006     5.75     991.0509     59.52795     166.5617        22     1.536     1.047 -50.33   0
       536    342.6913     98.5061 307.8098725  +6.6351989     3130.153     5525.308     5995.354     84.65536     169.4446     337.7161      1.938     4.46     1000.048     59.52795     374.2329        28     1.489     1.150 -62.93   0
       537     40.0251     81.5195 307.9362179  +6.6320505     740960.5      1805073      1984793     84.38704     168.7069     337.7161      2.338     5.48     1010.249     59.52795     61524.77       426     2.253     1.847 -59.93   4
       538    742.2174     92.9149 307.6440326  +6.6508724     996.7252     1445.881     1119.266     84.25256     168.6396     337.6489      1.524     3.36     988.6215     59.52795     129.1086        10     0.914     0.737   5.19   0
       539    713.8128     91.7377 307.6558765  +6.6504101     1175.193     1852.879     2119.478     84.11786     168.7069     337.4474      1.700     4.57     988.9791     59.52795     197.2719        15     1.174     0.915   8.31   0
       540    727.9174     88.5080 307.6501237  +6.6522145     2983.171     4879.773     4654.921     84.38704     169.2437     337.8168      1.734     3.88     988.7076     59.52795     396.3293        25     1.437     1.000 -57.73   0
       541      4.8822     82.3114 307.9507941  +6.6305417     1482.938     2682.885     3826.205     84.38704     169.1097     307.8556      2.419     5.46     1011.509     59.52795     166.0312        19     1.375     1.090 -70.48  16
       542    469.5765     79.6978 307.7577797  +6.6472149      3493.54     6370.566     6608.465     84.78921     168.6396     337.5482      1.962     4.36     991.7465     59.52795     449.6636        35     1.573     1.249 -41.89   0
       543    924.1283     75.9340 307.5690047  +6.6639505     2165.797     3229.266     3544.771     84.65536     168.9755     337.7832      1.527     3.51     983.2528     59.52795     300.7015        16     1.203     0.832 -58.07   0
       544    942.1426     74.9784 307.5615502  +6.6649453     4108.458     6062.679     6637.695     84.25256     168.8412     337.5146      1.558     3.37      982.516     59.52795     573.2983        21     1.268     0.920 -54.28   0
       545    634.4175     73.3977 307.6894891  +6.6553299     1602.928     2672.506     3107.684     84.25256     168.4378      337.481      1.841     4.30     989.7801     59.52795     223.1955        18     1.254     1.028 -54.45   0
       546    280.5536     73.1510 307.8365512  +6.6435836     808.2015     1374.045     2224.027     84.65536     168.7741     337.7497      2.468     4.65     1004.645     59.52795     151.2017         9     1.079     0.879 -38.73   0
       547    433.0522     71.3528 307.7732397  +6.6494374     1635.445     3033.323     3112.641      84.7892     168.8412     337.7497      1.967     5.29     993.0066     59.52795     198.2127        23     1.459     1.182 -44.48   0
       548    180.8278     68.4934 307.8781500  +6.6421597     2704.419     4590.961     4787.544     84.78921     168.6396     337.6153      1.841     4.72     1005.544     59.52795     298.0215        26     1.439     1.156 -46.13   0
       549     62.7933     66.2982 307.9272729  +6.6391003     10751.02     18959.93     21235.66     84.38704     168.5051      337.481      1.927     4.08     1009.187     59.52795     1266.998        48     1.657     1.312 -56.46   0
       550    329.6201     66.6462 307.8163812  +6.6479147     1163.338     2107.505     2449.461     84.25256     168.8412     337.5482      1.930     4.86     1000.793     59.52795     177.1309        16     1.213     1.057 -81.03   0
       551    797.2955     66.0396 307.6220477  +6.6638069     623.0492     927.2631     1485.279     84.65536     168.7741     337.8504      2.046     3.90     985.8596     59.52795     119.5197         5     1.200     0.363 -76.01   0
       552    590.1370     65.5778 307.7081547  +6.6570783      822.618     1448.446     1333.712     84.25256     168.9084     337.5818      1.993     6.45     990.1562     59.52795     86.30792        11     1.158     1.008 -12.93   0
       553    809.6733     60.9382 307.6170753  +6.6663261     3023.265     5011.072     5790.143     84.78921     168.9084     337.7497      1.853     3.82     985.2399     59.52795     392.2225        27     1.482     1.068 -64.04   0
       554    931.7740     61.5630 307.5663102  +6.6701388     582.2081     1001.892     1059.721     84.25256     168.7069     337.5146      1.734     3.70       982.44     59.52795     94.54694         5     0.977     0.403 -82.78   0
       555    864.4557     60.7136 307.5943158  +6.6682459     6246.759     9158.082     9445.826     84.65536     168.9084     337.8504      1.600     3.27     984.2396     59.52795     810.7973        28     1.338     1.041 -46.08   0
       556    455.0866     61.7801 307.7644062  +6.6541275     781.9077     1336.162     1505.302     84.38704     168.6396     337.6153      2.004     5.50     992.4191     59.52795     111.3236        11     1.378     0.619 -33.77   0
       557    572.7712     59.4788 307.7155772  +6.6590158     845.3503     1339.844     1270.148     84.52131     168.9084     337.7161      1.705     4.64     990.1833     59.52795     127.3764         7     1.006     0.608 -48.78   0
       558    103.2592     58.1642 307.9107332  +6.6438186     2716.773     4877.153     4593.183     84.65536     168.9084     337.6825      1.874     4.62     1007.271     59.52795     332.1747        28     1.511     1.174 -76.79   0
       559     87.8721     59.3719 307.9170863  +6.6428029     809.7983      1345.24     872.3957     84.38704     168.9084     337.6489      1.834     4.92     1007.905     59.52795     106.3825        11     1.159     1.019  15.09   0
       560    627.1348     54.7637 307.6931437  +6.6627801     1112.725     1935.783     1685.258     84.52131     168.9084     337.7832      1.819     5.33     989.3646     59.52795     132.3916        14     1.259     1.023 -63.94   0
       561     45.6551     53.4109 307.9348313  +6.6438447     2256.009     4055.423     4790.092     83.98295     168.8412     337.3801      1.942     4.27     1009.849     59.52795     318.4384        24     1.435     1.047 -59.16   0
       562    804.1849     48.4456 307.6197766  +6.6713009     1891.266     2963.035     2984.866     83.98295     168.7069     337.4474      1.696     3.79     984.5275     59.52795     243.4874        21     1.266     1.048 -36.92   0
       563    118.0326     49.7158 307.9048804  +6.6478030     799.1857     1321.849      758.503     84.65536     168.7069     337.6489      1.731     4.78     1006.651     59.52795     106.9971         8     1.105     0.586 -27.31   0
       564    444.9204     48.4177 307.7690821  +6.6593040     882.5761     1773.185     1762.955     84.25256     168.5724     337.6489      2.038     5.60     992.8044     59.52795     111.8787         9     1.134     0.781 -11.64   0
       565    142.0386     47.2728 307.8949874  +6.6496182     638.6487     1190.354     1566.232     84.52131     168.8412     337.7832      2.184     2.87     1005.991     59.52795     118.9783         5     0.978     0.530 -36.74   0
       566    130.9275     42.3711 307.8997707  +6.6512686     8083.051     14408.58      14914.9     84.52131     168.9084     337.6825      1.880     4.06     1006.185     59.52795     1064.576        44     1.651     1.253 -57.19   0
       567    459.9142     42.1345 307.7630633  +6.6624003     2053.223     3844.308     4062.185     84.78921     169.1097     337.7832      1.997     4.37     992.4996     59.52795     264.4746        25     1.360     1.189 -79.97   0
       568    297.7762     36.5177 307.8306331  +6.6592860     1290.284     2271.973     3709.845     84.52131     168.6396     337.6489      2.345     7.17     1004.339     59.52795     153.9498        18     1.542     0.933 -33.67   0
       569    673.5770     34.4017 307.6745292  +6.6727390     16501.75     27307.09     29125.23     84.25256     168.5724      337.481      1.814     3.73     988.3618     59.52795     1897.101        49     1.590     1.247 -55.03   0
       570     10.1551     37.0356 307.9501384  +6.6494114     451.7542     689.8798     198.9357     84.38704     168.8412     337.5818      1.602     4.74     1011.832     59.52795     73.54456         5     0.956     0.667 -59.15   0
       571    573.4047     30.4456 307.7162931  +6.6710240     4605.521     8109.849     8767.966     83.98295     168.5724     337.3801      1.875     4.24     989.5616     59.52795     538.5823        32     1.528     1.152 -51.70   0
       572    291.7738     30.8250 307.8333200  +6.6614349     1684.635     3233.664     4418.892     84.11786     168.7069     337.6153      2.277     4.74     1005.171     59.52795     228.7612        21     1.374     1.051 -60.52   0
       573     41.2161     28.6150 307.9375166  +6.6539325     928.8835     1695.755     1893.496     84.38704     168.5724     337.6489      1.901     7.27     1010.007     59.52795     130.1356        14     1.362     1.085 -62.11   0
       574    871.2133   1021.9989 307.5592090  +6.2715655     532.9603     778.6573     468.3303     84.25256      157.298     281.5364      1.703     3.81     1019.049     59.52795     79.33423         5     1.291     0.323 -26.55  16
       575    929.5521   1019.4750 307.5350671  +6.2745508     1873.135     2637.011     2658.473     84.52131     168.9755     315.3161      1.530     3.12     1015.491     59.52795     310.7197        14     1.125     0.773 -57.27  16
       576    470.2843   1015.3223 307.7259249  +6.2609376     4342.671     6358.844      6884.06     84.78921     169.2437     337.8168      1.555     3.32     1024.638     59.52795     626.7502        27     1.528     0.919 -58.56  16
       577    359.7343     26.4620 307.8052250  +6.6655150     695.9269      1597.69      2090.55     84.65536     168.9084     337.7161      2.563     6.90     997.1947     59.52795     84.14844        11     1.432     0.932 -77.66   0
       578     64.9715     26.2670 307.9277246  +6.6557007     1940.299     3360.686     3533.567     84.38704     168.8412     337.6825      1.789     4.21     1008.477     59.52795     298.6775        21     1.390     0.983 -53.78   0
       579    956.7619     25.7905 307.5571272  +6.6857412     2239.315     3507.016     3815.942     83.84782     168.7069     337.4138      1.730     4.05     978.5721     59.52795     298.0811        22     1.433     0.918 -62.67   0
       580    252.2987   1018.0363 307.8163511  +6.2525178     2596.942     3571.634     3695.279     84.65536     168.7741     329.4214      1.457     3.33     1025.391     59.52795     367.7687        17     1.182     0.826 -59.93  16
       581    340.9464     21.5164 307.8132000  +6.6669270     934.8909     1939.936     2338.194     84.65536     168.9084     337.8504      2.277     6.67     999.0911     59.52795     110.3234        14     1.388     0.898 -68.85   0
       582    755.4410   1015.0482 307.6075194  +6.2705758     8361.025     11350.15     11817.76     84.52131     168.8412     337.5818      1.428     3.21     1020.553     59.52795      1170.48        27     1.345     0.869 -50.47  16
       583    728.8561     15.5584 307.6521901  +6.6823652     1778.434     2836.591     3308.806     84.52131     168.8412     337.7497      1.724     3.68      986.409     59.52795     214.7004        16     1.163     0.880 -29.58   0
       584    611.4931   1014.2039 307.6673244  +6.2661194     4523.512     6646.983     7257.114     84.25256     168.5724     337.4138      1.581     3.42     1024.618     59.52795     636.0157        24     1.391     0.881 -53.73   0
       585    747.7610   1014.1063 307.6107403  +6.2707085       1401.1      1937.79     2410.698     84.78921     168.8412     337.8168      1.444     3.76     1020.662     59.52795     219.8207        14     1.250     0.802 -58.49   0
       586    787.8040   1010.4162 307.5942356  +6.2735677     1324.164     1975.078      2692.91     84.25256     168.5051     337.5482      1.707     5.12     1019.759     59.52795     212.6556        14     1.331     0.805 -48.73   0
       587    994.9652   1004.5886 307.5084018  +6.2828748     7922.745     10762.53     11488.61     84.11786     168.7069     337.5146      1.427     3.35      1014.92     59.52795     1222.259        24     1.302     0.841 -55.12   0
       588    749.6240   1005.0865 307.6102698  +6.2744949     1211.886     1573.676     1708.121     84.65536     168.7069     337.5482      1.547     4.05     1020.374     59.52795     159.8209        13     1.060     0.866 -60.89   1
       589    754.7704   1002.8045 307.6082094  +6.2756087     3028.384     4294.437     4664.803     84.11786     168.7069     337.5146      1.446     3.38     1020.217     59.52795     485.0409        21     1.309     0.863 -60.64   1
       590    279.5909   1004.6758 307.8054695  +6.2589488      1388.67      1977.26     2486.018     84.25256     168.4378     337.5146      1.463     3.69     1026.267     59.52795     234.9545        10     1.117     0.641 -46.84   0
