#   1 NUMBER                 Running object number                                     
#   2 X_IMAGE                Object position along x                                    [pixel]
#   3 Y_IMAGE                Object position along y                                    [pixel]
#   4 ALPHA_J2000            Right ascension of barycenter (J2000)                      [deg]
#   5 DELTA_J2000            Declination of barycenter (J2000)                          [deg]
#   6 FLUX_APER              Flux vector within fixed circular aperture(s)              [count]
#   9 FLUXERR_APER           RMS error vector for aperture flux(es)                     [count]
#  12 FLUX_RADIUS            Fraction-of-light radii                                    [pixel]
#  13 FWHM_IMAGE             FWHM assuming a gaussian core                              [pixel]
#  14 BACKGROUND             Background at centroid position                            [count]
#  15 THRESHOLD              Detection threshold above background                       [count]
#  16 FLUX_MAX               Peak flux above background                                 [count]
#  17 ISOAREA_IMAGE          Isophotal area above Analysis threshold                    [pixel**2]
#  18 A_IMAGE                Profile RMS along major axis                               [pixel]
#  19 B_IMAGE                Profile RMS along minor axis                               [pixel]
#  20 THETA_IMAGE            Position angle (CCW/x)                                     [deg]
#  21 FLAGS                  Extraction flags                                          
         1    715.6274     22.0952 307.6452387  +6.6900083     6199.915      10826.2     11629.86      85.7834      170.617      341.574      1.879     4.20     1004.753     60.22594     799.2504        36     1.659     1.123 -52.82   0
         2    635.8791     21.2075 307.6784224  +6.6877092     2984.554     5585.505     6004.402     85.24046     170.3447     341.4381      1.965     4.62     1006.294     60.22594     379.3473        33     1.665     1.145 -50.78   0
         3    436.0292     17.6565 307.7616246  +6.6824858     4790.753     8966.881     9471.263     85.24046     170.9568      341.574      1.974     4.77     1012.458     60.22594     558.3517        40     1.821     1.203 -50.68   0
         4     37.0716     17.2066 307.9274881  +6.6692748     6822.462     13013.83     14554.64     85.10419     170.4128      341.574      2.034     4.82     1029.876     60.22594     785.3403        45     1.807     1.246 -54.56   0
         5    512.9045     14.4389 307.7297746  +6.6863899     781.0111     1234.154     838.4449     85.64799      170.753     341.8118      1.641     4.80     1009.289     60.22594     129.9165         7     1.012     0.645 -65.30   0
         6    427.4279     13.1461 307.7653527  +6.6840606     730.4806     1397.847     1931.904     85.37652     170.9568      341.574      2.239     6.38     1012.982     60.22594     99.28357         8     1.602     0.715  71.24   0
         7    332.6128     12.5515 307.8047890  +6.6811270     9877.663      18920.4     20493.84      84.9677      170.821     341.3701      2.032     4.78     1023.571     60.22594     1148.892        52     1.878     1.304 -50.49   0
         8    106.1464     12.9821 307.8989175  +6.6733431     1964.488     3662.075     4496.086     85.10419     170.9568     341.4381      2.037     5.14     1029.554     60.22594     249.8652        25     1.656     0.999 -44.18   0
         9     97.7716     11.6273 307.9024449  +6.6736210     1107.617     2214.752     3156.193     85.10419      170.685     341.5061      2.220     6.75     1029.483     60.22594     137.4706        15     1.343     0.951 -53.29   0
        10    800.8799     11.4118 307.6101560  +6.6972683      832.186     1312.637      770.629     85.24046      170.549     341.5061      1.593     4.57     1001.965     60.22594     123.2699         9     1.154     0.674 -53.06   0
        11    398.7198     10.6548 307.7773714  +6.6841273     1852.455     3304.804     3207.983     85.64799     170.8889     341.7099      1.859     5.20      1015.63     60.22594      204.115        24     1.582     0.994 -46.32   0
        12    659.5126      5.9689 307.6691112  +6.6947936     8938.756     16083.44     17193.66      85.7834      170.685      323.637      1.914     4.44     1005.161     60.22594     1020.938        47     1.766     1.247 -45.24  16
        13    993.8498      7.2290 307.5300705  +6.7054313     628.3236     773.2242     681.1007     85.24046     171.0247     335.2633      1.195     3.88     992.0836     60.22594     99.55469         6     0.783     0.550 -40.02  16
        14    824.3862      5.2398 307.6005914  +6.7006021     1366.071     2399.471     2222.269     85.10419     170.6851     315.5012      1.902     4.91     1001.327     60.22594     198.6515        21     1.568     1.076 -59.09  16
        15    537.7048      5.2017 307.7197764  +6.6910355     1050.621     1893.147     1976.769     85.10419      170.549     315.0594      1.852     6.25     1008.834     60.22594      152.284        16     1.401     1.101  76.10  16
        16     78.0181      6.6560 307.9108249  +6.6750099     630.2156     1343.154     1320.382     85.10419      170.821     330.3458      1.911     4.32     1029.283     60.22594      78.3645         6     1.134     0.468 -71.58  16
        17    259.7615      3.1193 307.8353934  +6.6825779      4936.67     9126.836     9806.938     85.64799     160.8112     286.7059      1.989     4.96      1029.41     60.22594     583.2306        39     1.938     1.133 -32.66  24
        18    894.5580      3.4685 307.5714774  +6.7036749     1300.062     1963.966     1882.168     85.51237     164.2392     292.2392      1.671     4.75     999.5073     60.22594     174.1281        12     1.305     0.656 -56.69  24
        19    680.8657      1.7325 307.6603768  +6.6972572      5067.14     7287.597      7988.36     79.60767     142.2761     264.1606      1.486     4.36     1004.541     60.22594      899.097        24     1.622     0.808 -12.00  24
        20    650.8535      2.1632 307.6728394  +6.6960760     6653.063     9947.169     10830.31     83.72923     148.5812      271.442      1.618     4.52     1005.129     60.22594     897.1083        29     1.571     0.962 -18.55  24
        21    420.7244      2.2573 307.7685076  +6.6883333     5789.951     8926.558     8980.169     84.55688     149.9807     273.1471      1.673     5.16     1013.331     60.22594     789.8409        27     1.569     0.966 -25.45  24
        22    736.2864      1.3210 307.6373502  +6.6992791     930.3073     1241.671     1305.056     74.17333       136.02     256.8988      1.213     2.82      1003.35     60.22594     215.9649         7     0.935     0.448  -9.23  24
        23    769.8538    981.7999 307.5903893  +6.2954115     6217.419     10289.78     11085.75     84.83098     170.4809      341.166      1.778     4.54     1044.035     60.22594     885.6321        35     1.729     0.958 -59.47   0
        24    723.7473   1023.7278 307.6081317  +6.2765540     794.8958     1055.345     950.6012     73.54474     134.8201     256.1295      1.323     2.37     1046.321     60.22594     282.9537         7     1.028     0.445   1.07  24
        25    370.3315   1022.9457 307.7549634  +6.2650575     1737.198     2470.217     2702.471     83.03321     147.0895     269.7262      1.524     4.61     1051.935     60.22594      259.119        14     1.390     0.708 -35.84  24
        26    556.5961    981.1023 307.6790021  +6.2885754     915.5894     1427.524     1376.385     85.37652      170.549     341.3361      1.516     4.41     1049.265     60.22594     161.3016         9     1.254     0.527 -60.03   0
        27    239.3220    980.9409 307.8108018  +6.2780154     1368.499     2167.822     2457.299      85.7834     170.8889      341.608      1.761     5.89     1052.285     60.22594     185.1891        14     1.490     0.837 -61.09   0
        28    203.7921    980.6276 307.8255709  +6.2769527     801.5036     1045.064     1044.482     85.24046      170.685     341.4721      1.577     4.65     1052.261     60.22594     129.1749         8     1.288     0.555 -40.39   0
        29     64.2453    978.9388 307.8835928  +6.2729643       2504.3     4196.153     4489.607     85.51236      170.753     341.7779      1.755     4.31     1051.911     60.22594     349.8734        24     1.681     0.862 -58.26   0
        30    958.0037    976.8135 307.5123956  +6.3037443     6825.738      10611.6     10844.04     85.24046      170.549     341.5401      1.611     4.26     1038.368     60.22594     911.6377        30     1.628     0.858 -51.70   0
        31    640.7431    971.1453 307.6443823  +6.2955010     654.8224     1030.175     1084.279      85.7834     170.9568     341.7099      1.797     4.53     1046.918     60.22594     114.2284         6     1.041     0.603 -11.39   0
        32    931.8127    968.3200 307.5235612  +6.3063800     2020.166     3049.435     3213.985     85.24046      170.549     341.5061      1.568     5.29     1039.156     60.22594     310.9919        15     1.498     0.681 -52.11   0
        33    264.7351    964.7025 307.8007945  +6.2855749      4207.95     6846.067     7203.435     85.64799     170.9568     341.7099      1.717     4.62     1052.225     60.22594     558.8726        29     1.697     0.906 -47.58   0
        34    791.1334    965.0217 307.5821136  +6.3030519     1216.321     1951.764     2532.644     85.24046     170.8889      341.608      1.651     5.54     1043.271     60.22594      208.302        11     1.359     0.637 -59.40   0
        35    652.6169    964.2767 307.6396810  +6.2987349     4409.816     7107.159     7451.915     85.10419      170.617     341.5401      1.706     4.29      1046.43     60.22594     666.6664        27     1.586     0.936 -57.71   0
        36   1002.0676    964.1177 307.4945164  +6.3104558     815.7463     1436.012     1792.262      85.7834     171.1604     341.7099      2.052     5.50     1035.911     60.22594      111.597        10     1.295     0.658 -53.71   0
        37     33.5071    962.0293 307.8969335  +6.2789154     2083.851     3333.264     3465.697      85.7834      170.617      341.574      1.758     4.94     1051.707     60.22594     302.1036        19     1.569     0.807 -52.72   0
        38    474.6907    962.8232 307.7136425  +6.2933854     980.1135     1678.634     2022.595     85.64799      170.685     341.5061      2.162     5.31     1050.108     60.22594     135.7943        12     1.156     0.824 -51.85   0
        39    884.3323    961.2017 307.5435250  +6.3077380     897.1117     1196.295     1616.238     85.10419     170.4128     341.4721      1.529     5.29     1040.312     60.22594     136.7607         9     1.230     0.643 -45.01   0
        40    976.1105    959.7355 307.5054469  +6.3114016     743.7759     983.2327      971.095     85.51236     171.0926     341.7099      1.405     4.66     1036.897     60.22594     112.9629         8     1.133     0.544 -53.49   0
        41    300.6381    958.5060 307.7860900  +6.2893382     834.5692     1427.144     1868.465      85.7834      170.753     341.8118      1.603     5.41     1052.154     60.22594     132.9092         9     1.540     0.536 -46.10   0
        42    955.8611    957.8245 307.5139232  +6.3115165      488.166     892.2975     742.3514     85.24046      170.821      341.574      1.387     3.45     1037.629     60.22594       106.33         5     1.550     0.222 -63.14   0
        43    577.1269    957.1812 307.6712797  +6.2991426     1703.137      2641.82     2521.126     85.24046      170.821      341.608      1.617     4.58     1048.166     60.22594     234.8182        16     1.381     0.790 -44.37   0
        44   1009.1751    955.5969 307.4918497  +6.3142121       915.96     1661.457     2062.954     85.24046      170.549     341.4721      2.049     5.58     1035.479     60.22594     178.6901        11     1.482     0.593 -77.84   0
        45    616.4714    953.5196 307.6550588  +6.3019702     1094.172     1661.839     1192.884      85.9186     171.1604     341.7099      1.635     6.01     1047.154     60.22594     135.1368        12     1.451     0.701 -38.79   0
        46     66.2174    954.6783 307.8835953  +6.2830509     653.4114     931.4325     1359.355     85.24046      170.617      341.608      1.754     4.49     1051.744     60.22594     118.7408         8     1.108     0.518 -52.92   0
        47    296.5018    951.2065 307.7880549  +6.2922145     1307.264     2400.828      3146.42     85.37652     170.4809     341.4381      2.134     5.98     1052.163     60.22594     175.5762        17     1.657     0.809 -51.19   0
        48    763.2491    946.9001 307.5943069  +6.3096066     849.1398     1220.799     1115.402     85.64799     170.8889     341.8458      1.608     4.39     1042.958     60.22594     158.3796         7     1.142     0.480 -54.34   0
        49    900.6810    943.7167 307.5373207  +6.3155052     7204.719     11012.39     11593.87     85.51237     171.1604     341.7439      1.652     4.57     1038.931     60.22594     1002.369        28     1.564     0.886 -50.89   0
        50    139.2109    944.4496 307.8536212  +6.2897277     396.5159     517.7477     255.7428     84.96769      170.753     341.3361      1.428     4.84      1051.62     60.22594     91.92871         5     1.074     0.618 -65.95   0
        51    436.6901    940.9913 307.7301650  +6.3011309     1851.842     3241.762     3251.212     85.24046      170.549     341.4381      1.902     5.91     1050.438     60.22594     238.8619        22     1.700     0.901 -46.92   0
        52    338.3673    939.2532 307.7710677  +6.2985551     8819.721     14631.82     15071.47     85.51237     170.8889      341.608      1.773     4.37     1051.952     60.22594       1260.3        40     1.691     1.076 -48.93   0
        53    258.4178    938.2272 307.8043137  +6.2962984     6557.729      10757.1     11770.83     85.24046     170.6851      341.574      1.788     4.59     1052.205     60.22594     824.6858        30     1.640     0.966 -53.68   0
        54    586.6203    932.5957 307.6681645  +6.3096150     1201.914     1876.421     1369.836     85.24046      170.549     341.4721      1.664     4.95     1047.373     60.22594     156.0183        12     1.158     0.931 -39.22   0
        55    916.5771    928.7394 307.5312200  +6.3222215     1089.248     1689.186     1977.048     85.24046      170.821      341.574      1.749     5.06     1037.517     60.22594     146.5594         9     1.156     0.627 -45.91   0
        56    148.9526    929.0336 307.8500963  +6.2964222     556.9408     918.9722     1035.235     85.24046     170.8889      341.608      1.916     5.79     1051.401     60.22594     79.85437         6     1.384     0.681 -23.60   0
        57    872.5720    927.4686 307.5495441  +6.3212796     642.6929     1128.443     645.0166     85.37653      170.821      341.608      1.524     4.26     1039.278     60.22594     98.84473         6     1.415     0.366 -48.84   0
        58    415.4221    926.4075 307.7394922  +6.3064425     493.8736     887.8395     743.1515     85.10419     170.6851     341.4721      1.077     3.93     1050.828     60.22594     75.53833         5     1.043     0.424  74.54   0
        59    845.8938    922.5472 307.5607926  +6.3224229     647.7718     821.5865     260.6995     85.51236      170.821     341.9476      1.310     4.29     1040.141     60.22594     118.5573         6     1.091     0.480 -56.62   0
        60    752.7521    921.9138 307.5995083  +6.3195770     1587.538      2378.33     3224.463     85.64799      170.821     341.7099      1.706     4.80     1042.156     60.22594     225.5146        15     1.385     0.735 -48.22   0
        61    576.7019    922.4658 307.6726263  +6.3134676     697.5817     975.2781     421.4967     85.64799     170.9568     341.7099      1.319     4.24     1047.218     60.22594     120.8575         6     1.114     0.460 -52.87   0
        62      3.8710    918.7284 307.9107112  +6.2958037     845.2648     1617.262     1485.514      85.7834     167.8738     297.8257      1.993     7.18     1051.798     60.22594     108.9952        13     1.582     0.913 -53.30  24
        63    617.5555    917.9069 307.6558082  +6.3167163     961.6214     1303.837     1186.177     85.64799      170.821     341.8118      1.477     3.48     1046.182     60.22594     157.5076        10     1.029     0.717 -81.24   0
        64    984.1219    917.4908 307.5035367  +6.3291179      1181.53     1907.648     2607.186     85.37652     171.1604     341.7439      1.821     4.58     1035.046     60.22594     173.3181        13     1.358     0.712 -63.12   0
        65    671.3469    915.2210 307.6335521  +6.3196232     2425.461     4066.801     4531.252     85.10419     170.8889     341.4721      1.795     4.91     1044.333     60.22594     321.7509        25     1.718     0.899 -51.46   0
        66    538.4119    917.1426 307.6887124  +6.3143857     1060.489     1725.032     1742.451     84.96769      170.753     341.3701      1.791     5.49     1047.741     60.22594      141.759        12     1.404     0.605 -57.93   0
        67   1022.5886    913.8257 307.4876788  +6.3319127     658.9213     826.8484      741.566     85.24046     151.9032     275.5586      1.482     5.11     1033.651     60.22594     112.3037         7     1.533     0.481 -85.90  16
        68    961.9150    912.6891 307.5129237  +6.3303617     572.9032     848.0039     625.3618     85.37652     171.1604     341.8118      1.783     3.92     1035.553     60.22594     123.1261         6     1.575     0.279 -52.55   0
        69     85.4680    910.9189 307.8770809  +6.3017719     1786.987     2843.542      2404.12      85.7834     171.1604     341.7099      1.707     5.27     1051.385     60.22594     226.8458        21     1.638     1.025 -51.21   0
        70     68.1018    911.1105 307.8842883  +6.3011093     2771.951     4787.461     4282.853     85.64799     171.3637      341.676      1.765     4.72     1051.465     60.22594     343.1262        27     1.658     0.952 -61.43   0
        71    832.0475    911.7082 307.5669093  +6.3264382     1017.321     1444.438     1577.298     85.64799      170.821     341.8118      1.605     4.97     1040.145     60.22594     177.8049        10     1.210     0.710 -47.74   0
        72    211.5816    910.3439 307.8247125  +6.3062440     2012.785     3256.247     3354.585     85.10419      170.821     341.4381      1.741     5.51     1051.941     60.22594      267.384        20     1.654     0.785 -56.91   0
        73    949.8779    910.1142 307.5180109  +6.3310243     867.2711     1642.219     1888.163     85.64799     171.2282     341.7779      2.087     5.66     1035.836     60.22594     131.7504         9     1.424     0.634 -46.86   0
        74    350.6981    906.4630 307.7670531  +6.3125122      851.681     1225.781     1297.788     85.37653     171.0247     341.7099      1.616     5.46     1051.593     60.22594     129.6073        10     1.265     0.663 -27.44   0
        75    245.3971    906.9935 307.8107786  +6.3087624     678.2369     1208.928     867.4124     84.96769      170.549     341.5401      1.832     5.88     1052.131     60.22594      85.3197         9     1.339     0.728 -18.39   0
        76    666.0380    904.2134 307.6361282  +6.3239926     6569.237     10621.11     11239.04     85.24046      170.685     341.3701      1.699     4.53     1044.063     60.22594     891.9215        33     1.657     0.958 -53.39   0
        77    803.4826    905.0624 307.5789998  +6.3282305     686.9118     886.4203     957.4523      85.7834     170.8889      341.642      1.236     3.78     1040.873     60.22594     118.8446         6     0.827     0.497 -85.76   0
        78     26.2605    902.8770 307.9019479  +6.3031036     1096.064     1728.497     1885.027      85.7834     170.9568      341.642      1.580     4.84     1051.627     60.22594     138.1443        12     1.248     0.675 -59.64   0
        79    903.7112    900.5937 307.5375105  +6.3334185     2698.199     4161.356     4512.607     85.10419      170.549     341.4381      1.724     4.72     1037.144     60.22594     357.2869        23     1.541     0.884 -50.56   0
        80     39.2299    901.1893 307.8966177  +6.3042367     1042.595     1680.845     1751.311     85.10419      170.685     341.5061      1.623     6.03     1051.559     60.22594     141.2739        14     1.366     0.749 -45.05   0
        81    349.0516    897.5082 307.7680395  +6.3161557        14641     24700.81     26263.48     85.51236      170.753     341.8797      1.802     4.44     1051.533     60.22594     1826.134        47     1.731     1.104 -52.81   0
        82     83.8703    898.4561 307.8781667  +6.3068658     1230.287     2067.008         1798      85.7834      170.821      341.642      1.844     5.30     1051.338     60.22594     166.4391        16     1.497     0.747 -54.96   0
        83    220.1789    897.2080 307.8215855  +6.3119582     1236.136     2070.993     1487.381     85.10419      170.685     341.4381      1.801     6.19      1051.96     60.22594     163.7991        14     1.483     0.726 -67.46   0
        84    399.5821    896.6247 307.7470779  +6.3182136     694.5057     985.7261    -15.26218     85.37653      170.753      341.608      1.567     4.70     1050.244     60.22594     113.3286         6     1.096     0.571 -30.58   0
        85    112.3218    888.6062 307.8666814  +6.3118900     1383.193     2668.638     2983.335     85.24046     170.3447     341.4381      2.189     6.33     1051.262     60.22594     194.0955        22     1.797     0.952 -48.27   0
        86    426.6241    888.5227 307.7361175  +6.3224658     909.5074     1382.261     1682.296     85.24046      170.753      341.642      1.598     5.07     1049.364     60.22594     119.6382        10     1.436     0.506 -52.60   0
        87    680.1310    884.3515 307.6309422  +6.3326674     711.6827     1188.276     1591.889     85.64799      170.821     341.7099      1.741     3.74     1042.785     60.22594     136.3579         6     1.169     0.343 -49.34   0
        88    507.4767    884.2273 307.7026737  +6.3269465     650.8298     1023.865     978.8278     85.51237      170.821      341.642      1.698     4.26     1047.456     60.22594     91.25598         6     1.050     0.493 -85.17   0
        89    894.0325    882.3787 307.5421435  +6.3406198     1830.114     3088.807     3292.093     85.10419      170.685     341.4721      1.706     5.09     1036.786     60.22594     244.6526        20     1.662     0.767 -48.34   0
        90    864.9380    883.3124 307.5541995  +6.3392642     3396.999     5281.497     5103.496     85.64799     171.0926     341.7439      1.804     0.00     1037.603     60.22594     2500.021        18     1.911     0.793 -81.40   0
        91     95.6244    881.6557 307.8738530  +6.3141999     2070.491     3555.732     4379.909     85.24046     170.8889     341.4721      2.112     5.81     1051.218     60.22594     292.2141        23     1.927     0.843 -46.86   0
        92    828.2557    881.1082 307.5695133  +6.3389513     2880.002     4494.522     4487.064     85.51236      170.753     341.8118      1.585     4.23     1038.812     60.22594     414.4783        24     1.517     0.869 -55.55   0
        93    564.1289    872.6591 307.6795283  +6.3336198     302250.9       498890     530892.9      85.7834     170.8889     341.7439      1.776     4.29     1045.394     60.22594     39001.17       161     1.890     1.275 -53.16   0
        94    651.9496    875.7184 307.6429408  +6.3352918     1137.013     1864.311     2379.883     85.64799     170.9568     341.7099      1.831     4.97       1043.5     60.22594     163.5336        14     1.381     0.712 -64.86   0
        95    408.4678    875.1667 307.7441110  +6.3273744     6841.754     11431.53     11846.73     85.51236     170.9568     341.7099      1.785     4.49      1049.35     60.22594     866.9764        37     1.708     1.040 -55.83   0
        96    351.6743    873.6703 307.7677553  +6.3260897        11181     18725.15     20260.61      85.9186     171.0247      341.642      1.807     4.36     1051.231     60.22594     1391.075        47     1.756     1.132 -50.46   0
        97    670.0319    869.9041 307.6356244  +6.3382976     3219.801       4992.1     5331.703      85.7834      170.753     341.7779      1.685     4.33     1042.558     60.22594     415.8822        24     1.589     0.862 -51.19   0
        98    902.4273    868.7313 307.5391144  +6.3465368      5181.45     8342.812     9290.131     85.24046      170.753      341.574      1.768     4.60     1036.138     60.22594     740.3813        28     1.545     0.937 -53.28   0
        99    742.0231    866.9608 307.6058147  +6.3419175     664.2426     1104.047     986.0043     85.24046      170.617     341.4381      1.874     6.87     1040.293     60.22594     95.15271         8     1.410     0.939 -79.69   0
       100    644.9109    863.8505 307.6462647  +6.3399587      3046.23     4983.991      6045.52     85.64799      170.685     341.8118      1.772     5.02     1043.318     60.22594     406.1669        25     1.661     0.854 -53.17   0
       101    636.9327    859.8248 307.6497149  +6.3413549     1775.883     3836.629     5213.081     85.24046      170.753      341.574      2.454     9.72     1043.408     60.22594     271.5325        35     2.860     0.922 -60.44   0
       102    833.1221    862.8985 307.5681038  +6.3466353     1525.462     2340.093     2482.982     85.24046     171.1604     341.7099      1.604     4.65     1037.782     60.22594     246.8309        16     1.525     0.759 -44.90   0
       103    960.4909    862.2751 307.5152081  +6.3511383     839.2216     1488.205     1472.405     85.64799     171.0926     341.7099      1.820     5.92     1033.641     60.22594     112.4369        10     1.174     0.838 -55.56   0
       104    921.3271    856.5560 307.5316713  +6.3521958     3086.695     5047.444     5481.897     85.51237     170.9568     341.7099      1.816     4.55     1035.272     60.22594     451.0974        21     1.570     0.806 -51.76   0
       105    332.0078    857.2500 307.7764801  +6.3322129     853.3936     1539.808     1949.099     85.10419      170.617     341.3361      1.992     5.20     1051.285     60.22594     122.5977         9     1.235     0.618 -56.16   0
       106    379.5139    852.4515 307.7569065  +6.3357869      2541.31      4204.57     4864.271     85.64799      170.753     341.7439      1.842     4.90     1049.664     60.22594     321.7975        26     1.730     0.937 -57.22   0
       107    515.7742    842.2859 307.7006412  +6.3445480     2716.078     4657.731     4817.948      85.7834      170.617     341.5401      1.876     4.73     1045.314     60.22594     317.3986        25     1.545     0.993 -45.73   0
       108    860.3751    841.2336 307.5575095  +6.3564930     1108.648     1653.153       1471.7     84.96769     170.6851     341.4381      1.626     5.24     1035.854     60.22594     172.2065        13     1.299     0.706 -63.70   0
       109    562.5728    838.4600 307.6813278  +6.3476937     5387.702      9151.43     10040.73     85.24046     170.9568     341.5401      1.829     4.25     1043.588     60.22594      679.507        37     1.682     1.111 -48.65   0
       110    581.1720    839.6579 307.6735603  +6.3478209     708.0361     1120.015       1204.8     85.24046     170.9568      341.574      1.509     4.67     1043.453     60.22594     97.78113         8     1.184     0.523 -66.46   0
       111    569.1940    838.0823 307.6785897  +6.3480712     1145.884     2084.438     2589.058     85.24046     170.4809     341.4381      2.232     5.62     1043.503     60.22594     169.9733        13     1.339     0.730 -38.87   1
       112    480.5697    837.5262 307.7154274  +6.3453358     1523.364     2648.327     2499.745     85.51237     170.8889      341.676      1.846     4.85     1046.629     60.22594     205.3383        16     1.441     0.826 -45.82   0
       113    898.2238    836.3723 307.5419480  +6.3597628      1317.05     2083.309     1683.759     85.10419      170.753     341.5061      1.720     5.64     1034.837     60.22594     206.2753        14     1.522     0.699 -49.75   0
       114    275.2179    837.6917 307.8007336  +6.3383872     612.3626     1109.766     1196.529     85.37652      170.617     341.5401      2.084     5.46     1051.855     60.22594     108.9275         7     1.216     0.692 -71.87   0
       115    122.1975    836.7243 307.8643356  +6.3336508     1168.968     2229.773     2548.005     85.10419     170.3447      341.574      1.987     6.30     1050.903     60.22594     182.7302        16     1.586     0.800 -41.03   0
       116    698.2315    835.5044 307.6250670  +6.3534485     873.3553     1217.139     1146.394      85.7834     170.6851     341.7779      1.687     5.04     1040.451     60.22594     127.0339         9     1.216     0.590 -49.10   0
       117    533.2326    832.3688 307.6937226  +6.3492283      17159.3     29225.07     31370.49     85.10419      170.617     341.3701      1.823     4.38     1044.067     60.22594     2135.499        49     1.771     1.100 -54.01   0
       118    946.8031    830.6257 307.5219578  +6.3637554     3662.743     5727.313     6173.026     85.10419      170.549     341.4721      1.698     4.59     1033.332     60.22594     540.4652        22     1.534     0.816 -53.81   0
       119     43.8414    822.9938 307.8973516  +6.3366891      1343.04     2072.127     2119.816     84.83098      170.549     341.3701      1.717     6.09     1050.817     60.22594     189.3943        15     1.320     0.938 -56.06   0
       120    326.1093    821.1367 307.7801508  +6.3469315     2871.378     5051.783     5122.014     85.64799     171.0247     341.7779      1.866     4.84     1050.372     60.22594     334.2645        27     1.580     1.046 -52.92   0
       121     25.8760    819.4532 307.9049349  +6.3375475     1935.115     3050.351     3169.957     85.64799     170.8889     341.7099      1.671     4.28     1050.883     60.22594     280.6118        18     1.343     0.891 -54.16   0
       122    791.3781    816.8725 307.5869948  +6.3642540     50990.15     83195.19     88229.29     85.24046      170.685      341.642      1.738     4.35     1036.989     60.22594     6841.325        67     1.761     1.101 -51.84   0
       123    248.6804    814.7385 307.8125344  +6.3469777     4618.778     8413.052     10412.54      85.7834     170.8889      341.676      2.095     4.66     1051.449     60.22594     536.8539        43     1.913     1.183 -62.67   1
       124    435.0294    815.5275 307.7350896  +6.3528977     781.8641     1223.493     672.3397     85.51236     170.8889      341.642      1.419     4.93     1046.822     60.22594     125.1483         7     1.094     0.629  41.06   0
       125    719.6473    811.4731 307.6169785  +6.3640899     19541.93     32284.03     35090.43     85.51237     170.9568      341.676      1.808     4.43     1039.191     60.22594     2566.296        56     1.778     1.138 -52.15   3
       126    713.3320    807.9744 307.6197201  +6.3653241     79666.43     132134.7     140666.8     85.24046      170.753      341.574      1.772     4.39      1039.21     60.22594      10035.5        87     1.833     1.163 -52.05   3
       127    916.5989    812.1039 307.5351291  +6.3703995     8116.882     12898.29     13637.73     85.10419     170.4809     341.2681      1.670     4.63     1033.474     60.22594     1149.986        31     1.641     0.904 -51.55   0
       128    358.2427    808.9139 307.7672141  +6.3530571     17808.19     30632.84     32978.86     85.64799      170.753      341.676      1.861     4.31      1048.86     60.22594     2033.894        56     1.802     1.196 -53.81   0
       129    407.6040    808.9951 307.7467041  +6.3546774     1249.603     2169.847     2341.229     84.96769     170.4809     341.5061      1.825     5.71      1047.45     60.22594     158.4517        16     1.460     0.882 -65.05   0
       130    420.1255    806.7535 307.7415777  +6.3560227     19083.79     32878.06     34988.55     85.51236     170.9568      341.676      1.834     4.39     1047.036     60.22594     2227.602        53     1.765     1.175 -52.23   0
       131    646.9669    808.2421 307.6472837  +6.3629966     842.5754     1383.874     1712.423     85.37652     170.8889     341.5061      2.031     5.73     1040.241     60.22594     103.3118        11     1.221     0.758 -53.97   0
       132    957.4133    805.6021 307.5183899  +6.3744451     1948.542     3008.406     3300.537     85.24046      170.549     341.4381      1.696     5.22     1032.236     60.22594      286.605        20     1.634     0.771 -52.17   0
       133    248.1290    793.2862 307.8134890  +6.3558199     776833.4      1983378      2252347      85.7834     171.1604     341.7099      2.468    12.14     1050.893     60.22594      63368.5       562     2.580     1.981 -60.06   4
       134    913.5534    803.5649 307.5366813  +6.3738251     6515.864     10235.67     10744.62     85.24046      170.821     341.5401      1.700     4.53      1033.19     60.22594     1001.565        28     1.607     0.878 -50.94   0
       135    886.2045    804.2543 307.5480210  +6.3726288     656.8317     921.9583     985.6693     84.96769      170.617     341.3361      1.647     5.10     1033.657     60.22594     102.8976         7     1.411     0.522 -71.50   0
       136    654.1115    802.5812 307.6445061  +6.3655736     5740.306     9753.416     10077.07     85.37652      170.617      341.574      1.795     4.47     1039.882     60.22594     766.4747        31     1.598     1.022 -49.18   0
       137    442.9390    800.5662 307.7323085  +6.3593423     1625.361      3017.17     3035.952     85.37652     170.9568      341.608      1.983     5.53     1045.989     60.22594     207.4156        19     1.660     0.783 -51.32   0
       138    168.3899    800.2284 307.8463812  +6.3502762     664.0284     1268.501     1104.956     85.24046     170.6851     341.5061      1.909     4.74     1051.122     60.22594     102.7797         8     1.252     0.509 -67.92   0
       139    882.4073    794.0040 307.5499432  +6.3767362     806.8267     1288.021     1719.005     84.96769      170.549     341.5401      1.836     6.48     1033.459     60.22594     125.2211         9     1.553     0.759 -65.30   0
       140    607.4118    794.8492 307.6641689  +6.3672065     666.1011     982.1271     1686.002     84.96769      170.821     341.3361      1.587     4.93     1040.103     60.22594     100.3608         6     1.181     0.582 -58.80   0
       141    689.2245    792.6397 307.6302524  +6.3708530     2270.663     3674.014      3906.33     85.24046      170.685     341.4381      1.687     4.24     1038.902     60.22594     300.3114        23     1.534     0.905 -46.35   0
       142    158.7790    793.4495 307.8506034  +6.3527535     809.5504     1333.979     835.8081     85.10419     170.9568     341.5401      1.724     5.56     1050.805     60.22594     105.1494        10     1.400     0.622 -41.63   0
       143    133.8284    793.6761 307.8609612  +6.3518220     933.7768     1501.064     1695.073     85.51236     170.8889      341.676      1.680     5.28     1050.492     60.22594     123.4327        10     1.066     0.788 -47.35   0
       144    423.0539    789.4002 307.7409469  +6.3632885     45150.51     79298.86     84458.88     84.83098     170.4809        341.2      1.878     4.34     1046.246     60.22594     5366.751        75     1.864     1.225 -50.98   0
       145    540.8308    788.4446 307.6920471  +6.3676254     6157.567     10596.76        10983     85.24046     170.9568     341.5061      1.834     4.40      1041.74     60.22594     723.4199        37     1.787     1.070 -50.81   0
       146    966.1162    790.6303 307.5152767  +6.3809193     727.3505     1095.817     889.1963     85.64799      170.685     341.5401      1.507     4.39     1031.581     60.22594     119.1139         6     0.963     0.726 -55.09   0
       147    457.6968    787.1296 307.7266308  +6.3653864     3765.521     7032.979     8123.681     85.51236     171.0247      341.676      2.095     4.92     1044.855     60.22594     484.0409        38     1.829     1.213 -42.46   0
       148    785.9299    785.0251 307.5903298  +6.3772270     10503.03     17487.97     18391.91     85.24046      170.753      341.608      1.739     4.35     1035.752     60.22594     1423.123        37     1.742     0.973 -49.18   0
       149    454.2643    780.3925 307.7282843  +6.3680542     1988.659     3536.392     4006.128     85.10419      170.549     341.5061      1.892     5.31     1044.722     60.22594     225.4702        24     1.673     0.973 -53.37   0
       150     15.5508    781.3057 307.9105173  +6.3529565     1216.388     1830.794     1534.869     85.51237      170.753     341.8118      1.707     5.66     1050.278     60.22594     167.3641        15     1.499     0.806 -52.16   0
       151    807.5549    779.1263 307.5815433  +6.3803851     1183.636     1865.403     1772.687     85.51236     170.9568     341.7099      1.648     5.29     1034.803     60.22594     173.0437        13     1.499     0.641 -47.00   0
       152    143.8599    777.0268 307.8573574  +6.3590357     9985.245     17501.76     19908.81     85.24046     170.9568     341.5401      1.892     4.31     1050.046     60.22594     1133.293        49     1.790     1.192 -54.37   0
       153    152.0590    777.4705 307.8539361  +6.3591278     2592.177     4819.127     5493.412      85.7834     170.8889     341.7099      1.957     4.48     1050.122     60.22594     340.4044        28     1.655     1.085 -48.71   0
       154    931.5023    773.5783 307.5302312  +6.3868095     6262.702      9704.91     10097.23     85.51237     170.6851     341.4721      1.702     4.62     1032.039     60.22594      866.729        28     1.573     0.887 -52.48   0
       155    136.1386    774.3425 307.8606561  +6.3598851     2473.956     4410.127     5924.375      85.7834      170.821     341.7099      2.241     4.98     1049.872     60.22594     285.2787        29     1.751     1.016 -47.06   3
       156    136.3244    768.0342 307.8607925  +6.3624968     1674.798     2729.179     3685.414     85.51236     170.8889      341.642      1.826     4.96     1049.678     60.22594     211.9412        16     1.433     0.757 -62.17   3
       157    980.6601    773.5308 307.5098081  +6.3884668     1442.845     2076.365     2586.435      85.7834     170.8889      341.676      1.620     4.12     1030.687     60.22594     220.6088        14     1.257     0.748 -43.38   0
       158    213.2454    773.7463 307.8286423  +6.3627201     628.1801     1565.051     2278.073     85.64799     170.8889     341.7099      2.888     4.42     1050.216     60.22594     107.8273         6     0.976     0.570 -38.93   2
       159    574.0031    770.5218 307.6788692  +6.3761379     1895.834     3463.259     3314.483     84.96769     170.3447     341.4721      1.878     5.17     1040.044     60.22594     243.7723        22     1.652     0.927 -58.43   0
       160    686.8601    771.0580 307.6319615  +6.3796885     1492.108     2791.871     3116.661      85.7834      170.821     341.7099      1.802     5.82     1037.788     60.22594     202.1545        16     1.523     0.798 -62.83   0
       161    421.5462    770.5532 307.7422096  +6.3710227     943.3967     1675.586     1860.168     85.64799     170.8889     341.7099      1.898     5.72     1045.523     60.22594     130.1769        12     1.248     0.989 -41.75   0
       162    955.2265    764.8767 307.5206662  +6.3911943     2888.179     4801.682     4922.308     85.51236      170.821      341.642      1.727     4.44     1031.156     60.22594     391.8759        25     1.667     0.881 -58.89   0
       163    925.6905    765.5710 307.5329149  +6.3899234     2856.485     4575.432     4799.148      85.7834      170.617      341.574      1.702     4.88      1031.98     60.22594     458.2201        21     1.540     0.793 -50.05   0
       164    986.1549    764.7374 307.5078203  +6.3922821     1835.314     2872.682     2865.861     85.64799      170.821     341.7099      1.677     4.54     1030.283     60.22594     259.4801        16     1.403     0.766 -47.60   0
       165    678.0325    765.0560 307.6358313  +6.3818728     1250.386     2151.409     2544.592     85.51236     170.8889      341.676      1.643     5.14     1037.698     60.22594     189.3438        13     1.321     0.878 -54.99   0
       166    825.4718    762.7283 307.5746506  +6.3877561     980.0919     1469.243     1206.923      85.9186     171.0247      341.574      1.642     4.88      1033.93     60.22594     156.6726         8     1.064     0.634 -54.54   0
       167    900.7112    760.9360 307.5434494  +6.3910054     857.4882     1330.465     889.6365     85.51236     171.1604     341.7099      1.614     5.42      1032.41     60.22594     134.0759         9     1.246     0.665 -46.10   0
       168    250.5625    759.9530 307.8136053  +6.3696695     1545.294     3159.091     4543.232     85.51236      170.821      341.574      2.673     5.48     1049.227     60.22594     237.2566        20     1.573     0.911 -42.90   0
       169    688.6212    755.7949 307.6317438  +6.3860518      663.009     1427.016     2309.704     85.24046      170.617     341.4721      2.252     4.79      1036.95     60.22594     102.5203         6     1.560     0.416 -56.35   3
       170    689.5396    751.7975 307.6314968  +6.3877336     777.6443     1368.287     2248.909     84.96769      170.617     341.3701      1.993     5.18     1036.711     60.22594     130.6465         8     1.340     0.566 -19.89   2
       171    943.3864    755.2310 307.5259097  +6.3947841     796.5836     1303.335     1075.663     85.24046      170.617      341.608      1.785     5.22     1031.228     60.22594     135.7123         9     1.346     0.572 -55.09   0
       172    917.2496    753.7673 307.5368186  +6.3945177     1073.524     1556.881     1370.714     85.51237     170.8889      341.608      1.638     5.65     1031.885     60.22594     143.1328        12     1.442     0.624 -62.47   0
       173    167.3469    754.2836 307.8483696  +6.3692182     669.5979     1139.657     1533.025     85.64799     170.8889     341.8118      1.787     3.81     1049.324     60.22594     121.8859         5     0.962     0.472  85.63   0
       174    970.1314    752.8776 307.5148762  +6.3966472     2543.449     3956.466     4183.557      85.7834     171.0247      341.676      1.644     4.85     1030.391     60.22594     315.9802        21     1.546     0.837 -53.33   0
       175   1011.9714    746.3307 307.4977115  +6.4007448     1785.471     2783.071     2461.165     85.37652     170.8889      341.608      1.590     4.33     1028.955     60.22594     235.8575        18     1.373     0.821 -48.68   0
       176    813.0961    744.7673 307.5803967  +6.3947622     1193.933     2197.993     2041.433      85.7834      170.753     341.7779      1.862     5.67     1033.513     60.22594     163.5947        16     1.543     0.941 -50.93   0
       177    899.5546    741.8354 307.5445719  +6.3988565     1360.898     2410.231     2631.661     85.37652      170.821      341.574      1.801     4.66     1032.023     60.22594     238.8464        15     1.326     0.831 -62.58   0
       178    874.0436    737.2290 307.5553265  +6.3999087     832.1657      1455.18     1822.413     85.24046     170.9568      341.574      2.033     6.15     1032.585     60.22594      99.2041         9     1.380     0.770 -43.69   0
       179    856.4631    733.2377 307.5627654  +6.4009711     1606.145     2658.694     2395.702     85.64799     170.8889      341.676      1.723     4.79     1032.765     60.22594     227.6805        18     1.516     0.800 -61.37   0
       180     55.8261    732.3064 307.8954458  +6.3745489     2055.863     3735.633     4250.466      85.7834      170.617     341.5061      2.041     5.49     1048.979     60.22594     234.8687        21     1.671     0.854 -54.25   0
       181    119.8016    731.2812 307.8689014  +6.3771222     742.7438     1601.551     1998.893     84.83098     170.4128     341.3701      2.152     5.09     1048.655     60.22594     107.8606         9     1.487     0.493  76.68   0
       182    710.6977    724.5814 307.6236222  +6.3996820     637.6924     1128.495     1218.289     85.51237      170.753     341.4041      1.683     4.36     1034.776     60.22594     78.60657         7     1.599     0.338 -31.93   0
       183    668.0856    720.9175 307.6414508  +6.3997720     5393.399     9092.897     9637.195     85.37652     171.1604     341.7779      1.786     4.43     1035.791     60.22594     695.7164        31     1.671     0.980 -50.32   0
       184    614.7130    720.2057 307.6636509  +6.3982822     1380.573     2068.155     2348.901     85.10419      170.549     341.3701      1.714     4.48     1036.885     60.22594     170.9534        13     1.256     0.735 -49.78   0
       185    526.1524    720.5818 307.7004345  +6.3951650     731.6705     1098.283     920.6059     85.10419     170.8889     341.4721      1.423     2.39     1039.779     60.22594     145.8738         5     0.711     0.446 -22.29   0
       186    131.0836    716.8133 307.8647042  +6.3834770     3095.782     5761.187     6473.925     85.24046      170.685     341.5061      2.007     4.41     1048.524     60.22594      380.781        34     1.757     1.108 -52.37   0
       187   1005.0304    716.2081 307.5016067  +6.4129562     2354.533     3847.371     4357.413     85.10419      170.685     341.4381      1.850     4.34     1028.645     60.22594     357.6387        20     1.480     0.874 -64.17   0
       188    642.0338    716.4950 307.6524243  +6.4007282     1834.151     3196.957     3606.011      85.7834      170.753     341.7779      1.970     4.90     1036.165     60.22594     230.9592        18     1.475     0.829 -54.17   0
       189    318.0279    717.1943 307.7870212  +6.3895933     508.1701     714.8465     1445.876     85.10419      170.685     341.4721      1.807     5.36     1046.049     60.22594     107.5758         6     1.684     0.481 -48.77   0
       190    784.9670    712.9967 307.5931531  +6.4069466     17554.31     29847.86     31346.77     84.83098      170.685     341.3701      1.790     4.44     1032.983     60.22594     2358.568        50     1.742     1.093 -52.14   0
       191    254.3176    716.5854 307.8135119  +6.3877081     602.6752     1004.773      1070.21     85.24046      170.617     341.5061      1.408     3.48      1047.47     60.22594     82.43811         5     1.087     0.321  21.07   0
       192    914.9468    712.7707 307.5391530  +6.4113750     3618.643     5649.407     5944.779     85.37652     170.9568      341.608      1.704     4.62     1030.499     60.22594     520.6024        22     1.558     0.824 -51.30   0
       193    512.4543    713.3920 307.7063684  +6.3976764     900.0178     1454.729     1200.649     85.10419      170.753     341.3701      1.643     4.82     1039.907     60.22594     111.9225        10     1.005     0.763 -71.56   0
       194    484.5082    713.0970 307.7179897  +6.3968630     1217.131     2152.058     2070.636     85.64799     171.4314      341.642      1.881     5.08     1040.782     60.22594     140.7036        17     1.291     0.917 -60.02   0
       195    258.5751    706.7985 307.8120740  +6.3918933     5001.318     9116.062     9463.731     85.24046      170.549     341.4381      1.941     4.76     1047.112     60.22594     578.6191        38     1.759     1.195 -55.60   0
       196    665.5447    705.8466 307.6430142  +6.4059122     5953.231     10196.91     10903.96     85.64799     170.8889     341.7439      1.823     4.51     1035.141     60.22594      708.403        34     1.698     1.038 -50.52   0
       197    647.6152    707.2545 307.6504165  +6.4047315     794.9287     1416.968     1724.723      84.9677     170.8889     341.3701      2.305     5.40     1035.687     60.22594     120.0206         8     1.046     0.787  87.23   0
       198    925.3377    698.5449 307.5353134  +6.4175973     1040.096     1777.996     1319.163      85.7834      170.821      341.642      1.745     6.09     1029.561     60.22594     166.0795        11     1.382     0.755 -43.05   0
       199    737.1969    694.5065 307.6136242  +6.4129895     3220.599     5599.417      6248.94     85.37652      170.549     341.3701      1.876     4.45     1033.167     60.22594     405.8945        24     1.564     0.950 -56.03   0
       200    692.5714    694.5568 307.6321648  +6.4114784     1040.163     1875.087     1703.341     85.24046     170.9568      341.574      1.940     5.66     1034.014     60.22594     136.0234        14     1.399     0.787 -44.79   0
       201   1003.5346    690.7352 307.5030834  +6.4234282     8812.895     13651.36     14040.98     85.64799     170.8889      341.642      1.693     4.37     1028.371     60.22594     1258.879        33     1.602     0.937 -52.56   0
       202    942.0715    691.2448 307.5286055  +6.4211704     2202.008     3639.738     2942.544     85.51236     170.8889      341.676      1.694     4.97     1028.941     60.22594     290.2394        20     1.628     0.793 -55.43   0
       203     22.9000    690.7767 307.9105328  +6.3905950     1738.315     3164.642     3876.165      85.9186      170.617     341.4381      2.116     4.96     1048.894     60.22594     208.5386        18     1.344     0.995 -63.59   0
       204     80.9496    685.7716 307.8865847  +6.3946138     21379.56     38328.39     40959.89     85.24046     171.0247      341.574      1.916     4.51     1048.607     60.22594     2427.248        58     1.853     1.231 -54.16   0
       205    556.7111    688.6478 307.6888145  +6.4093777      699.976     1189.011     1231.072     85.64799      170.753     341.8118      1.908     4.92     1037.653     60.22594     94.12781         7     1.081     0.633 -67.71   0
       206    542.1769    686.8487 307.6949142  +6.4096346      1741.31      3045.03     2936.371     85.24046     170.8889      341.574      1.937     4.76     1037.944     60.22594     213.1963        17     1.402     0.810 -41.95   0
       207    511.3058    683.5109 307.7078537  +6.4099803      1245.63     2151.102      2061.96     85.64799     171.3637     341.7439      1.770     4.75     1038.692     60.22594      154.493        13     1.235     0.818 -38.89   0
       208    931.7938    683.1777 307.5331472  +6.4241601     843.5249     1316.048      897.142     85.10419      170.685     341.5061      1.570     5.04     1028.677     60.22594     129.1364         8     1.196     0.601 -27.47   0
       209    549.8658    681.1693 307.6919109  +6.4122377     636.8499     1238.026     1815.699     85.37652     170.8889      341.608      3.239     3.95     1037.528     60.22594      93.0741         5     1.361     0.329 -31.34   1
       210    726.8954    677.8552 307.6184651  +6.4195234     3009.247     4941.159     5278.725     85.51236      170.821     341.9137      1.699     4.26     1032.822     60.22594     389.1202        24     1.549     0.928 -49.91   0
       211    748.8950    676.1337 307.6093819  +6.4209690     3471.579     5798.067     6049.077     85.64799     171.0926     341.7099      1.709     4.40     1032.484     60.22594     491.1233        29     1.685     0.957 -47.50   0
       212    580.3587    674.1186 307.6794787  +6.4161699     2738.104     4769.795     4900.368     85.64799     170.8889      341.608      1.888     4.27     1036.705     60.22594     364.6976        29     1.715     0.995 -49.52   0
       213    416.7379    674.7066 307.7474438  +6.4104507     1087.873       1823.7     1808.069     85.64799     170.8889     341.7439      1.802     5.06     1042.126     60.22594     156.0272        13     1.298     0.869 -57.22   0
       214    324.4622    673.0689 307.7858393  +6.4080348     1239.739     2240.469     1974.989     85.64799     170.8889     341.7099      1.915     6.44     1044.777     60.22594     165.1621        16     1.564     0.745 -55.00   0
       215    241.1279    673.6561 307.8204441  +6.4049971     1255.547     2345.593     2445.305     85.51236      170.821      341.642      1.951     5.96     1046.487     60.22594     167.3317        16     1.520     0.855 -45.42   0
       216   1021.7549    672.2281 307.4961338  +6.4316794     4479.225     7082.516      7221.85     85.10419     162.1767     288.6827      1.642     4.80      1028.05     60.22594     666.4832        27     1.634     0.840 -53.14  24
       217    987.1464    671.1485 307.5105508  +6.4309729     7538.341     12126.85     12721.33      85.7834      170.821     341.7099      1.702     4.50     1028.014     60.22594     981.7067        33     1.673     0.935 -54.77   0
       218    706.9518    669.7032 307.6270265  +6.4222246     755.4415     1094.439     1328.344     85.64799      170.753     341.8458      1.757     4.18     1032.806     60.22594     139.5765         6     1.117     0.446 -69.66   0
       219    145.7415    664.6760 307.8603796  +6.4055039     19919.65     35600.01     38710.13      85.7834     170.9568      341.642      1.935     4.47     1047.637     60.22594     2218.683        63     1.894     1.260 -52.27   0
       220     98.9896    668.1327 307.8796871  +6.4025055     661.1572     1109.518     1339.324     85.10419      170.685     341.5061      1.664     4.06     1048.278     60.22594     106.8497         6     1.010     0.467 -39.48   0
       221    432.5508    665.6115 307.7411807  +6.4147371     2246.227     4412.917     4648.516      84.9677      170.821     341.3361      2.057     5.94     1041.059     60.22594     251.7731        26     1.623     1.162 -58.27   0
       222    814.1075    665.2871 307.5826498  +6.4276258     1233.236     2086.533     2429.343     85.64799     171.3637     341.7779      1.747     5.33      1031.35     60.22594     156.0228        16     1.333     0.857 -50.97   0
       223    981.9948    654.1353 307.5132628  +6.4378288     6139.219     10840.25     11820.73     84.96769      170.617     341.4381      1.873     4.20      1026.67     60.22594     815.0754        38     1.592     1.208 -56.56   0
       224     27.2346    653.3121 307.9100020  +6.4062149     1112.904     1727.245     1851.441     85.64799      170.753      341.676      1.964     6.14      1048.33     60.22594     123.9476        14     1.169     0.907 -83.29   0
       225    940.4116    651.0986 307.5306440  +6.4376978     706.3377     909.7091     941.1135     85.37652      170.617     341.4381      1.396     5.12     1026.727     60.22594     107.8989         7     0.962     0.771 -36.84   0
       226    800.9592    648.4189 307.5886808  +6.4341545     624.8007     1051.918     874.7451     85.24046      170.685     341.4041      1.674     4.87     1031.209     60.22594     104.8622         6     1.050     0.640 -59.44   0
       227    183.3021    646.3267 307.8453949  +6.4143442     2279.872     4100.309     3881.919     85.24046     171.0247      341.676      1.891     5.02     1046.153     60.22594     288.0548        26     1.652     1.018 -53.07   0
       228    575.6398    649.5001 307.6822695  +6.4261808     39966.28     70247.19     75205.33     85.64799      170.753     341.9137      1.907     4.39     1035.727     60.22594     4634.514        72     1.873     1.269 -52.26   0
       229     75.7571    641.0784 307.8902564  +6.4128991     880.9974     1315.006     1219.332     85.51236     170.8889     341.7099      1.714     4.86     1047.505     60.22594     116.0135        10     0.998     0.736 -31.27   0
       230    472.9402    633.2955 307.7254895  +6.4294375      50435.5     93026.17     100825.7     85.51236     170.8889     341.7779      1.964     4.50      1038.29     60.22594     5602.946        83     1.903     1.335 -52.04   0
       231    659.2478    630.0691 307.6481835  +6.4370019     769.7694     1141.332     1158.889     85.64799      170.821     341.7099      1.455     2.77      1032.38     60.22594     121.1406         7     0.722     0.657 -82.75   0
       232    147.4970    628.3521 307.8608802  +6.4205660     1301.705     2104.277     1722.492     85.64799      170.753     341.8458      1.808     5.99     1045.735     60.22594      158.605        18     1.450     0.954 -54.15   0
       233    942.7545    625.6669 307.5305249  +6.4482807      738.337     997.5192     963.3384     85.64799      170.821     341.7099      1.428     4.77     1024.983     60.22594      136.429         8     1.254     0.514 -60.12   0
       234    427.3055    625.5821 307.7447119  +6.4310954     704.9041     1165.583      957.643     85.51237     170.6851     341.5401      1.726     4.24      1039.96     60.22594     125.6307         7     1.223     0.418 -39.95   0
       235    318.4718    622.6266 307.7900335  +6.4286688     1738.709     3337.893     3275.149     85.24046      170.753      341.608      2.017     4.78     1042.156     60.22594     208.3417        26     1.559     1.107 -56.71   0
       236     16.5638    635.0212 307.9150556  +6.4134107     1499.862     2551.128     2837.841     85.10419      170.617     341.4041      1.775     4.74     1048.089     60.22594     215.9392        19     1.436     0.952 -50.75   0
       237    744.9585    616.7518 307.6130166  +6.4453656     4578.807     7775.089     8306.415     85.64799      170.821      341.574      1.848     4.27     1030.722     60.22594     538.4258        33     1.635     1.095 -47.79   0
       238    798.4789    612.0011 307.5909367  +6.4491144     11967.57     19980.28     21313.68     84.83098     170.2766     341.4381      1.792     4.35     1030.391     60.22594     1513.619        42     1.728     1.078 -55.24   0
       239   1015.8911    612.3969 307.5005790  +6.4561981     925.7811     1308.698     1248.871     85.10419      170.549     341.4041      1.466     5.28     1022.728     60.22594     135.2315        11     1.391     0.566 -57.40  16
       240    541.0547    612.3663 307.6978927  +6.4403620     886.3161     1966.262      2701.15     85.51236     170.8889      341.642      2.637     4.84     1034.912     60.22594     124.7993         9     1.176     0.646 -31.43   0
       241    622.2600    610.1415 307.6642246  +6.4439967     2355.265     4083.919      4081.55     85.64799      170.821     341.7099      1.888     4.96     1032.784     60.22594      285.082        26     1.673     0.975 -45.60   0
       242    939.6979    605.9028 307.5324590  +6.4563425     1069.635     1791.077     2487.307     85.64799     171.4314     341.5061      1.781     5.79     1023.817     60.22594     160.5563        11     1.439     0.666 -60.86   0
       243    381.3451    603.9600 307.7645396  +6.4384865      677.781     1335.935     1222.142     85.51236     170.9568      341.642      1.744     5.62     1040.429     60.22594     107.4359         8     1.379     0.646  81.28   0
       244    234.7745    603.9677 307.8254416  +6.4335680     1027.995     2016.678     2576.544     85.10419      170.685     341.5061      2.429     6.99     1043.532     60.22594     130.9637        16     1.476     0.927 -45.15   0
       245    874.5278    595.3660 307.5598946  +6.4585225     2490.114     3988.891     4241.338     85.51237      170.821      341.642      1.737     4.78     1026.496     60.22594     305.9187        22     1.554     0.881 -42.29   0
       246    833.2293    592.8018 307.5771423  +6.4582042     2173.484     3793.636     3628.777     85.10419      170.685     341.4381      1.795     5.09     1028.169     60.22594     300.0409        21     1.624     0.861 -56.49   0
       247    261.3881    587.8369 307.8149289  +6.4411236     6119.188      11631.2     12552.87     85.10419      170.685     341.3361      2.025     4.73     1041.778     60.22594     735.1821        45     1.894     1.211 -52.43   0
       248    804.3857    588.7391 307.5892648  +6.4589200     2166.136     4119.212      4549.15     85.10419      170.753     341.4041      2.081     5.39     1029.145     60.22594     273.1174        27     1.679     1.243 -30.31   3
       249    813.8687    583.9039 307.5854869  +6.4612336     134845.3     231036.5       247002     85.51236     171.0247     341.7099      1.826     4.26     1028.465     60.22594     17774.84       122     1.893     1.291 -51.75   2
       250    195.5338    582.2797 307.8424805  +6.4412088     46655.05     86282.39     95760.61      85.7834     171.0247      341.642      2.016     4.62     1043.345     60.22594     5398.389        90     1.975     1.394 -52.95   0
       251    119.5689    578.5912 307.8741697  +6.4401808     4977.429     8887.562     9576.034     85.10419     170.6851     341.4721      1.922     4.68     1044.896     60.22594     530.4083        35     1.738     1.095 -51.15   0
       252   1005.7413    574.3446 307.5060745  +6.4715780     730.8932     1202.014     1308.788      85.7834     170.8889      341.676      1.956     5.72     1021.118     60.22594     127.5254         9     1.731     0.532 -54.75   0
       253    984.6253    575.8356 307.5147994  +6.4702588     1083.931     1965.754     1710.914     85.24046      170.685     341.4381      1.849     5.57     1021.874     60.22594     178.7674        11     1.450     0.603 -38.42   0
       254    234.2723    573.9251 307.8266667  +6.4459599      615.822     1193.129      1640.99      85.9186     171.1604     341.7099      2.123     8.01     1041.877     60.22594      95.1377         9     1.652     1.087 -18.31   0
       255    850.4242    571.2086 307.5707232  +6.4676970      3903.79     6846.838     7397.295     85.24046      170.685     341.5061      1.869     4.30     1026.226     60.22594     522.2761        30     1.626     1.022 -43.90   0
       256    368.9314    569.4086 307.7708652  +6.4523417     13271.98     25224.58     27213.06     85.10419      170.617      341.574      2.015     4.61     1039.243     60.22594     1493.627        57     1.851     1.322 -54.52   0
       257    459.6332    569.8091 307.7331621  +6.4552149     652.3597     1197.958     1109.085     85.10419      170.685     341.5061      1.985     5.00     1036.326     60.22594     104.1969         7     1.229     0.576 -70.86   0
       258    170.9816    568.4343 307.8531510  +6.4461030     1594.791     2996.027     3837.764     85.10419      170.685     341.4721      2.297     5.49     1043.785     60.22594     218.6689        22     1.534     0.959 -49.38   0
       259    804.2969    564.5254 307.5901165  +6.4689186     5017.923     8820.342     10255.45     85.37653     171.0926     341.7099      1.985     4.62     1027.886     60.22594     609.4597        36     1.713     1.079 -47.52   0
       260    535.2869    564.3149 307.7019104  +6.4600166     5000.018     9109.677     10062.54     85.37652     171.0926     341.7439      1.943     4.56     1033.381     60.22594     606.2812        40     1.735     1.178 -48.03   0
       261    246.2089    565.7639 307.8219829  +6.4497314     793.1059     1290.289     2030.302     85.10419      170.617     341.4381      1.668     3.14     1041.178     60.22594     137.1436         6     0.727     0.647  58.95   0
       262    108.5808    566.1254 307.8791577  +6.4449604     714.6167     1186.748     989.1495     85.24046      170.753      341.608      1.817     4.57     1044.793     60.22594      100.527         6     1.037     0.572 -28.47   0
       263    393.7833    560.9957 307.7608227  +6.4566494     1131.461     1891.684     2025.672     85.24046      170.549     341.5061      1.778     6.17     1038.251     60.22594      145.991        13     1.553     0.688 -64.50   0
       264    182.3145    557.4766 307.8488130  +6.4510095     5199.883     10062.48     11659.57      85.7834     171.2282     341.7779      2.128     5.16     1043.099     60.22594     586.9373        45     1.931     1.207 -51.26   0
       265    580.2203    557.1931 307.6834788  +6.4644614     1883.029     3887.965     4580.911     85.24046      170.617     341.4721      2.223     5.66     1031.811     60.22594     231.9761        26     1.634     1.210 -40.23   0
       266    821.0283    556.7763 307.5834243  +6.4726777     1175.405     2167.294     2458.788     85.10419      170.753     341.5061      1.911     5.28     1026.715     60.22594     170.2036        13     1.446     0.858 -63.56   0
       267    277.5585    553.9319 307.8093566  +6.4556703     66357.73     125256.5     136741.6     85.51236      170.821     341.7779      2.035     4.68     1040.142     60.22594     7126.729        91     1.969     1.397 -52.95   0
       268     53.8277    556.2770 307.9022420  +6.4471877     3923.329     7297.387     7580.522     85.51236      170.821      341.642      1.979     4.59     1046.346     60.22594     465.6394        37     1.712     1.213 -48.78   0
       269    567.1439    551.2037 307.6891147  +6.4664980     681.1461     1097.455     1671.163     84.96769      170.685     341.3361      1.800     5.17     1031.955     60.22594     89.39038         9     1.146     0.658 -39.75   0
       270    976.9095    547.7032 307.5189507  +6.4816222     1543.109      2507.16     2211.263     85.64799     171.3637      341.676      1.719     5.25     1021.235     60.22594     216.3292        17     1.517     0.856 -68.73   0
       271    261.4756    548.7338 307.8162154  +6.4572778     1160.241     1855.194     1378.266      85.7834     170.9568      341.642      1.978     5.20     1040.169     60.22594     166.1992        15     1.239     0.875 -55.93   0
       272    800.6165    546.3205 307.5922584  +6.4763155     13698.96      23699.7     24948.16     85.24046      170.617     341.5401      1.851     4.32     1027.025     60.22594     1690.685        48     1.790     1.147 -51.67   0
       273    504.2823    544.7239 307.7154553  +6.4670710     31318.26      62579.3     70095.63      85.7834     171.1604     341.8118      2.148     4.68     1033.612     60.22594     3350.887        82     1.982     1.504 -44.07   0
       274    655.5511    542.7538 307.6526618  +6.4729441     810.8208     1277.073     2050.197     85.64799      170.753     341.7099      2.106     5.20     1029.254     60.22594     101.3309         8     1.026     0.746 -53.94   0
       275    664.1033    539.7313 307.6492097  +6.4744784     2344.843     4307.468     4875.517     85.51236     171.0247      341.676      2.006     4.92     1028.958     60.22594     294.6627        26     1.674     1.000 -42.65   0
       276    217.0431    540.9986 307.8349401  +6.4589815     1546.505     2754.938     2911.686     84.96769      170.549     341.3021      1.916     5.47     1040.656     60.22594     180.2087        21     1.458     1.058 -42.68   0
       277     52.5894    541.5419 307.9032561  +6.4532322     886.0018     1585.919     1247.408      84.9677      170.753     341.3701      1.904     5.04     1046.213     60.22594     135.0514        10     1.302     0.836 -47.91   0
       278    674.6667    539.8702 307.6448153  +6.4747740     1234.348     2296.341     2414.703     85.64799     170.9568      341.676      1.965     5.38     1028.706     60.22594     159.3186        17     1.366     0.925 -45.42   0
       279    726.7557    538.6364 307.6232108  +6.4770236     1090.714     1869.107     1699.036     85.37652      170.821     341.5401      1.865     4.51     1028.115     60.22594      151.926        11     1.110     0.697 -45.38   0
       280    402.1442    535.4079 307.7582128  +6.4674985     1397.669     2520.993     2504.645     84.96769      170.685     341.3701      1.957     4.95     1036.748     60.22594     200.0444        18     1.532     0.889 -46.96   0
       281    333.5561    533.6849 307.7867723  +6.4659112     3027.026     5577.926     5408.039     85.64799      170.821      341.642      1.918     4.56     1038.215     60.22594     317.7295        31     1.599     1.153 -47.93   0
       282    148.6931    532.2922 307.8636363  +6.4602824     20191.73      37716.3     40631.22     85.64799     171.4314      341.676      1.990     4.59     1043.404     60.22594      2240.15        62     1.882     1.313 -52.88   0
       283    513.2736    533.3158 307.7121039  +6.4720840     1670.304     3149.644     3653.758      85.7834     171.2282     341.7099      2.304     5.74     1032.862     60.22594      246.134        23     1.619     1.003 -41.02   0
       284    876.5480    532.3767 307.5611729  +6.4846080     1394.413     2522.151     2779.059     85.10419     170.8889     341.5401      1.894     6.54     1023.712     60.22594     179.0086        18     1.641     0.791 -51.31   0
       285    113.8557    530.5239 307.8781720  +6.4598423     2215.797     4081.462     3862.541     85.64799     170.8889      341.608      2.008     5.15      1043.89     60.22594     248.5922        26     1.580     1.108 -61.61   0
       286    350.8112    528.7773 307.7797680  +6.4685168     872.2083     1677.644     1454.012     85.24046      170.685      341.574      2.002     5.51     1037.485     60.22594     122.9061         7     1.229     0.697 -45.59   0
       287    974.1029    526.7418 307.5208212  +6.4901870     4666.878     7711.418     7964.667     85.51236      170.821     341.8458      1.726     4.40     1020.481     60.22594     635.9415        29     1.629     0.944 -53.45   0
       288    547.1469    519.7100 307.6984868  +6.4788374     1051.223     2123.738     2417.938     85.64799      170.685     341.8118      2.160     6.62     1031.334     60.22594      130.927        17     1.517     0.951 -59.07   0
       289     12.9393    516.6638 307.9205749  +6.4621742     20157.75      36172.6      40024.4     85.64799      170.821     341.7099      1.958     4.34     1047.304     60.22594      2316.97        69     1.893     1.342 -53.66   0
       290    445.5770    513.4490 307.7409061  +6.4780234     32637.29     61204.74     66677.98     85.24046     170.9568      341.574      2.009     4.64     1034.205     60.22594     3613.733        75     1.924     1.349 -53.36   0
       291    653.6360    513.0908 307.6544572  +6.4851324     9684.236     17356.95     18265.97      85.7834      170.821     341.7099      1.921     4.53     1028.391     60.22594     1123.528        45     1.799     1.160 -51.28   0
       292    293.0872    514.0531 307.8042526  +6.4726628      771.253     1051.164     1003.838     85.64799      170.753     341.8118      1.627     4.99     1037.944     60.22594     131.9342         8     1.028     0.686 -79.66   0
       293    210.8707    511.0366 307.8385190  +6.4711498     14226.69     28519.44     31585.83     85.51236     170.8889     341.7439      2.129     4.72     1039.976     60.22594     1480.991        63     1.858     1.467 -48.98   0
       294    987.3328    511.4751 307.5158360  +6.4969337      1066.17     1738.558     1754.848      85.7834     171.0247      341.676      1.759     5.73     1019.206     60.22594     153.2317        12     1.392     0.664 -65.09   0
       295    176.9037    511.7740 307.8526086  +6.4697047     1225.672     2355.387     2152.879      85.7834      170.617     341.5401      2.040     6.12     1041.361     60.22594     138.9388        18     1.371     0.966 -29.61   0
       296      1.3370    510.3132 307.9256113  +6.4644068     723.5236     1488.393     2093.134     74.79665     136.1053     257.0794      2.546     5.75     1047.618     60.22594     132.6316        13     1.998     0.466 -87.69  24
       297    827.7562    511.1626 307.5821630  +6.4917432     783.3305     1460.218     1146.585     85.37652     170.8889     341.5061      1.891     4.86     1024.721     60.22594     133.8961         7     1.463     0.457 -67.34   0
       298    575.3981    509.9553 307.6870758  +6.4838117     2110.635     3861.708      4241.93     84.96769     170.4128     341.2681      1.960     5.76     1030.321     60.22594     240.4182        24     1.733     0.892 -47.73   0
       299    949.2393    507.0618 307.5318152  +6.4974876     4276.344     7055.538     7520.894     85.64799     170.8889     341.7099      1.743     4.33     1020.703     60.22594     553.9622        28     1.657     0.867 -51.65   0
       300    622.3583    505.4926 307.6677113  +6.4872254     5127.389     9407.319     10061.61     85.64799      170.821     341.7779      1.965     4.80     1029.064     60.22594     609.0586        42     1.875     1.155 -51.37   0
       301    110.5239    506.1049 307.8803837  +6.4698162     880.1733     1668.714     2004.815     85.37652     171.0926     341.7439      2.000     4.99     1043.238     60.22594     135.7349         9     1.164     0.605 -53.01   0
       302    971.8335    499.1866 307.5226900  +6.5014933     3130.287     4968.694     6076.415     85.10419      170.617      341.574      1.788     4.11     1019.339     60.22594     429.1431        23     1.481     0.877 -45.33   0
       303    534.6676    496.7192 307.7044484  +6.4879162     5851.272     10884.11     11567.69      85.7834     171.1604     341.7099      1.996     4.44     1030.766     60.22594     650.2367        42     1.767     1.243 -53.62   0
       304    380.6197    496.9087 307.7684581  +6.4826790      1966.14     3676.418     3883.878     85.51236      170.617     341.5061      1.971     5.04     1034.704     60.22594     223.9978        28     1.674     1.102 -51.64   0
       305    891.1010    492.4958 307.5564660  +6.5015663     2647.482     4690.913     4993.202     85.64799     171.4314     341.5061      1.888     4.94     1022.491     60.22594     363.1486        24     1.623     0.951 -54.64   0
       306    898.3521    487.0093 307.5536370  +6.5040743     1838.973     3040.323     3140.623     85.10419      170.685     341.3021      1.729     4.85     1022.064     60.22594     250.5865        21     1.636     0.891 -57.62   0
       307    937.9883    486.1034 307.5371952  +6.5057697     1230.561     1831.995       1970.8     85.37652      170.617     341.4721      1.581     4.95     1020.256     60.22594     201.6421        12     1.309     0.701 -51.26   0
       308    722.3877    482.9862 307.6269001  +6.4998642     2216.025     4135.574     3972.355     85.51236      170.549      341.608      1.954     5.20     1026.285     60.22594     261.1534        28     1.759     1.011 -44.94   0
       309    393.5055    481.1935 307.7636344  +6.4896019      2844.73     5360.012     5651.809     85.37652      170.549     341.4721      1.951     4.89     1033.557     60.22594     322.7793        30     1.678     1.081 -51.81   0
       310     84.9238    481.9246 307.8918409  +6.4789431     1569.541     2662.546     2991.243      85.9186     171.1604     341.7779      1.883     4.41     1043.704     60.22594        184.8        18     1.267     0.931 -43.96   0
       311    434.4567    481.1297 307.7466187  +6.4910003      847.312     1518.919     1436.627      85.7834     170.8889      341.642      1.878     5.77     1032.971     60.22594     107.8224        10     1.277     0.734 -72.88   0
       312    621.1559    477.6240 307.6691505  +6.4986963     7744.945     14318.71     15855.46     85.10419      170.821     341.5061      1.974     4.40     1028.252     60.22594     969.3093        47     1.830     1.207 -50.89   0
       313    784.0316    473.8672 307.6015890  +6.5056891     13294.23     23736.89     26668.41     85.51236     170.8889      341.642      1.987     4.84     1024.236     60.22594     1690.576        68     2.346     1.196 -50.70   0
       314    303.5014    474.3900 307.8012663  +6.4893946     1938.891     3798.924     3489.455     85.37653     170.4809     341.4721      1.959     5.32     1035.226     60.22594     228.7404        28     1.697     1.130 -45.98   0
       315    812.8250    471.0696 307.5897171  +6.5078056     1046.874     1911.819     1834.768     85.24046      170.753      341.608      1.902     6.49     1023.479     60.22594      152.275        17     1.347     1.052 -37.53   0
       316    386.9120    471.5808 307.7666992  +6.4933514     1047.851     1765.902     2275.127     85.37652      170.617      341.574      1.890     6.52     1032.918     60.22594      110.698        15     1.186     1.066 -60.87   0
       317    968.9427    469.2096 307.5248985  +6.5137792     1724.934     2575.482     2813.258     84.96769      170.821     341.3701      1.554     5.39     1017.903     60.22594     233.4354        14     1.482     0.638 -46.33   0
       318    121.3282    466.2792 307.8772434  +6.4866287     3444.787     6516.258      7260.46      85.9186     171.1604      341.642      2.017     5.19     1041.464     60.22594     385.3203        31     1.703     1.119 -52.05   0
       319   1022.6459    463.8744 307.5027588  +6.5177716     3518.497     5922.832     6141.066     84.96769     151.3673      274.588      1.807     4.52     1014.735     60.22594     420.8618        29     1.574     1.123 -76.09  24
       320    759.4263    465.0013 307.6121131  +6.5085298     1745.586      3154.84     3504.496     85.24046      170.549     341.4381      1.911     4.64     1024.473     60.22594     231.0732        18     1.452     0.800 -61.57   0
       321    279.1415    463.4630 307.8117589  +6.4930907     1145.062     2232.424     2865.759      85.7834      170.821     341.7099      2.092     7.37     1035.565     60.22594     122.1594        18     1.547     0.983 -37.93   0
       322    357.2294    460.9164 307.7793946  +6.4967613     2441.842     4753.255     5359.396     85.64799      170.685      341.574      2.059     5.07     1032.446     60.22594     291.4989        30     1.694     1.147 -68.47   0
       323    713.1580    458.7219 307.6315531  +6.5095784     1271.552      2086.69     2354.709     85.51236     170.8889     341.7439      1.630     5.37     1024.999     60.22594     174.4001        16     1.399     0.850 -56.93   0
       324    987.1088    457.1862 307.5177526  +6.5193507     653.6594     998.7433     1334.123     85.37652      170.617     341.4721      1.785     4.92     1016.112     60.22594     110.3231         6     1.335     0.513 -43.86   0
       325    416.8282    457.2178 307.7547523  +6.5002864     489.4148     780.7192      305.345     85.24046      170.685      341.608      1.642     4.86     1031.386     60.22594     77.12146         5     1.287     0.521 -27.10   0
       326    244.9031    457.0491 307.8262040  +6.4945910     603.1138     1202.987     1179.651     85.51236      170.821     341.8458      2.048     5.52     1036.806     60.22594     92.88416         6     1.417     0.607 -24.23   0
       327    476.8260    449.6812 307.7300733  +6.5054089     838.1744     1897.975     1793.639     85.51236      170.685      341.676      2.195     7.19     1028.975     60.22594     114.5206        11     1.678     0.862 -51.36   0
       328    839.3020    448.4804 307.5794735  +6.5180196     1144.193     2022.154     2292.081     85.51237     171.2282     341.7439      1.866     5.63     1022.133     60.22594     158.4998        12     1.476     0.605 -47.55   0
       329    824.9131    447.9100 307.5854726  +6.5177751     1652.764     2703.685     3101.641     85.37652     171.3637     341.8118      1.745     4.75     1022.266     60.22594     219.8037        17     1.385     0.843 -52.51   0
       330    722.3078    445.8773 307.6281831  +6.5151895     11827.66     21321.95     22880.72     85.37652     171.0926     341.7099      1.928     4.62     1024.118     60.22594     1441.511        51     1.811     1.199 -52.62   0
       331    643.0696    441.7219 307.6612537  +6.5142582     1982.219     3954.811     4768.619      85.9186     171.1604      341.642      2.279     6.92     1025.385     60.22594      254.007        30     1.771     1.397 -15.92   0
       332    618.5848    439.2094 307.6715141  +6.5144774     4166.208     7592.988     8102.833     85.37652      170.617      341.574      1.916     4.48     1026.011     60.22594     455.8995        27     1.611     1.002 -58.07   3
       333    614.9210    436.4745 307.6731289  +6.5154846     11433.77     21768.76     24660.83      85.9186     171.1604     341.7439      2.058     4.54     1025.969     60.22594     1302.931        59     1.900     1.451 -53.68   3
       334    947.4600    435.8631 307.5349472  +6.5268374     3344.827     5464.129     5251.172     85.64799      170.821     341.7099      1.713     4.33     1017.248     60.22594     452.8019        27     1.629     0.904 -51.25   0
       335    386.6875    431.8203 307.7681361  +6.5097667      21363.3     41402.56     45412.32     85.51236      170.617      341.574      2.073     4.76     1029.889     60.22594     2340.656        65     1.924     1.357 -52.40   0
       336    902.9141    431.5151 307.5536068  +6.5271486     1233.849     2365.167     3144.027     85.37652     171.0926     341.7439      2.162     5.33     1019.437     60.22594     174.4974        15     1.514     0.852 -42.36   0
       337    133.0724    431.3174 307.8735476  +6.5014637     1864.281      3568.82     3940.012      85.9186     171.2282     341.7099      2.143     4.61     1039.756     60.22594     230.2262        24     1.415     1.160 -70.21   0
       338     66.3795    427.1832 307.9014024  +6.5009296     1035.866     2162.746     2580.906     85.37652      170.685      341.574      2.180     7.12     1041.443     60.22594     129.1964        16     1.592     0.892 -47.62   0
       339    916.3490    426.0334 307.5482075  +6.5298608     4443.285     7329.565     7528.063     85.51236     170.9568      341.574      1.753     4.13     1018.594     60.22594     563.7615        30     1.668     0.976 -63.58   0
       340    244.2344    422.3728 307.8276553  +6.5088912      10246.5     19858.08      21461.6     85.10419      170.617     341.4381      2.054     4.76     1035.282     60.22594      1177.88        52     1.882     1.305 -53.27   0
       341    972.5880    423.7161 307.5249120  +6.5326921     645.3359     1086.754     1472.735     85.24046     170.6851     341.5061      1.917     4.14     1014.695     60.22594     95.36713         7     1.018     0.481 -83.24   0
       342    739.1543    415.8306 307.6221937  +6.5281629     663.7447     1017.236     1355.884     85.24046     170.9568     341.5401      1.531     5.37      1022.18     60.22594     87.37903         5     1.237     0.658 -70.30   0
       343    968.0411    414.2219 307.5271207  +6.5364622     941.9788     1341.663     1679.706     85.24046      170.685     341.4721      1.638     3.93     1014.504     60.22594     132.0143         9     1.071     0.636 -39.55   0
       344    357.2699    412.2552 307.7810227  +6.5168618     885.5349     1679.771     1463.363     85.64799      170.753      341.642      1.907     6.60      1029.26     60.22594     104.4939        12     1.420     0.860 -44.25   0
       345    144.6312    410.9072 307.8694355  +6.5102822     3929.735     7770.371     9030.494      85.7834      170.685      341.676      2.152     5.00     1038.829     60.22594     424.3036        39     1.769     1.262 -57.63   0
       346    249.7562    410.0311 307.8257783  +6.5141741     1014.865     1849.956      1935.04     85.24046     170.9568     341.5401      1.906     5.97     1034.308     60.22594     124.9178        13     1.468     0.721 -63.57   0
       347    166.7863    407.1384 307.8603563  +6.5125831     1844.096     3719.886     3739.328     85.10419      170.685     341.4381      2.169     6.47     1038.064     60.22594     208.4135        32     1.960     1.139 -57.64   0
       348    562.3914    405.7758 307.6959952  +6.5264077     774.8873     1151.518     907.3824     85.24046      170.685     341.5061      1.609     4.32     1024.528     60.22594      116.639         8     0.957     0.614 -71.95   0
       349    978.4077    401.0825 307.5232537  +6.5422349     976.8757     1710.648     2104.221     85.24046      170.549     341.5401      2.066     6.57     1013.399     60.22594      118.121        15     1.661     0.730 -53.96   0
       350    390.2383    401.7340 307.7676771  +6.5223126     1439.203     2671.575     2497.329     85.51237      170.821     341.7779      1.935     5.33     1027.878     60.22594     181.5017        22     1.453     1.086 -36.59   0
       351      9.1806    401.6791 307.9260367  +6.5095398     648.5598     1095.855     1182.615     85.10419      170.549      341.642      2.252     4.55     1041.802     60.22594     87.78259         6     1.280     0.460   3.81  16
       352     40.1735    396.2215 307.9133423  +6.5128365     2516.612     4987.739     5475.657     85.10419      170.685      341.608      2.129     5.27     1040.904     60.22594     291.8508        33     1.728     1.293 -49.55   0
       353    443.9317    395.1984 307.7455835  +6.5268111     5390.561     10651.22     11241.21     85.10419     170.4128     341.4721      2.085     4.96     1025.712     60.22594     583.2712        46     1.859     1.262 -51.92   0
       354    776.3691    394.1804 307.6074560  +6.5383482     1678.456     2853.476     2723.226     85.10419      170.685     341.5401      1.832     4.54     1020.796     60.22594     208.7253        21     1.408     0.992 -65.93   0
       355    784.3998    392.5394 307.6041736  +6.5392941     10652.63     18640.12     19949.96     84.83098      170.617     341.3021      1.877     4.36     1020.593     60.22594     1288.006        45     1.774     1.143 -51.41   0
       356    348.0247    391.3110 307.7855729  +6.5252026     750.3796     1439.224     1592.051      85.7834      170.685     341.5061      2.045     5.11     1028.577     60.22594     88.58142         8     1.071     0.689 -34.75   0
       357    192.7909    384.1958 307.8503263  +6.5229326     692.6686     1161.341     1046.682     84.96769      170.549     341.5061      1.560     5.23     1035.879     60.22594     104.7063         8     1.102     0.701  83.84   0
       358    492.0348    379.0082 307.7261387  +6.5351092     2183.939     4235.115     4680.032     85.10419      170.685     341.4381      2.034     5.04     1023.112     60.22594     252.3374        28     1.733     1.023 -49.92   0
       359    464.3515    379.6045 307.7376238  +6.5339360     1707.678     3359.924     3678.484      84.9677     170.6851     341.3361      2.147     5.88     1023.976     60.22594     227.9261        25     1.617     1.140 -45.83   0
       360    920.5669    379.2652 307.5480267  +6.5493192     518.0873     788.6833     1061.912     85.51237     170.8889      341.642      1.693     3.48     1015.333     60.22594     122.1639         5     1.433     0.244 -49.11   0
       361    849.7920    375.4359 307.5775711  +6.5485409      27817.3      49271.8     53307.18     85.10419      170.685     341.4041      1.911     4.33     1018.495     60.22594      3468.48        66     1.889     1.217 -56.44   0
       362    621.5457    368.0529 307.6726828  +6.5439675     2043.178     3866.976     4200.884      85.9186      170.821      341.642      1.992     4.91     1021.587     60.22594     251.8184        25     1.545     1.094 -49.58   0
       363     29.9529    368.9196 307.9185156  +6.5237692     756.0149     1689.195     1637.844     85.64799     170.8889      341.676      2.329     6.01     1040.219     60.22594     119.8965        10     1.521     0.667 -41.52   0
       364    706.2507    361.4048 307.6377021  +6.5495446     61558.32     113053.4     122323.5      84.9677     170.6851     341.2681      1.972     4.53     1020.837     60.22594     7543.131        96     1.923     1.355 -51.39   0
       365    864.5237    363.0146 307.5718661  +6.5541629     950.5711     1443.826     1451.206     85.10419      170.617     341.5061      1.571     4.44     1017.501     60.22594     146.8035         8     1.040     0.539 -44.92   0
       366     86.2481    361.2001 307.8953824  +6.5288507     1109.106     1953.563     2499.147     84.83098     170.4809      341.166      2.192     5.92      1039.12     60.22594      151.099        13     1.321     0.959 -67.33   0
       367    947.6660    358.1220 307.5374743  +6.5589557      758.434     1428.645     1753.701      85.7834     170.9568      341.642      2.089     4.79     1012.936     60.22594     124.0724         8     1.303     0.500 -52.79   0
       368    568.6522    357.9616 307.6950063  +6.5463666     1966.418     3917.625      4563.72     85.37652     170.9568      341.676      2.205     5.39     1021.024     60.22594     220.1243        25     1.616     1.118 -45.09   0
       369    106.0766    356.9976 307.8872845  +6.5312530     4378.241     8843.158     9982.186     85.10419     170.3447     341.5401      2.137     5.18     1038.567     60.22594      478.173        40     1.758     1.292 -49.42   0
       370    552.0588    354.3916 307.7020232  +6.5472861     5393.043     10353.78     10955.99     84.96769      170.821     341.3701      2.003     4.86     1020.737     60.22594     624.2053        44     1.816     1.245 -48.96   0
       371    280.8756    352.1986 307.8148023  +6.5391054     1812.865      3678.82     3600.061     84.83098     170.2766     341.5061      2.119     6.09     1029.892     60.22594     235.6639        28     1.740     1.126 -51.45   0
       372    414.9445    349.5011 307.7591743  +6.5447149     19062.01     37338.53     40493.77     85.37652     170.8889     341.9137      2.068     4.88     1024.276     60.22594     2120.824        63     1.919     1.365 -48.56   0
       373    522.9877    348.2347 307.7143133  +6.5488563     1039.671     2013.339     1935.997     85.10419      170.685     341.5061      1.946     6.38     1020.608     60.22594      123.682        14     1.374     0.832 -28.93   0
       374    395.1795    347.1964 307.7674667  +6.5450045     898.4788     1882.853     2473.448     85.24046      170.549     341.4381      2.324     7.09     1024.848     60.22594     111.6382        12     1.365     1.031 -66.57   0
       375    809.7290    341.7675 307.5953552  +6.5611109     701.8672     1136.118     1343.707     85.51237     170.8889      341.642      1.881     4.39     1018.022     60.22594     93.10583         6     1.319     0.416 -82.79   0
       376    494.4329    344.9270 307.7262927  +6.5492666     882.5748     1677.162     2341.067     85.51236     170.8889      341.642      2.434     5.50     1020.793     60.22594     128.2921         9     1.153     0.878 -13.79   0
       377    646.1010    342.5837 307.6633358  +6.5553085     531.5717     1023.314     777.8998     85.64799      170.617     341.4721      1.825     3.47     1019.927     60.22594     95.86792         5     0.782     0.445 -19.21   0
       378    504.0323    339.8989 307.7224728  +6.5516648     6350.749     12342.53     13748.02     85.64799      170.753     341.8118      2.102     4.90     1020.337     60.22594     730.6216        43     1.806     1.279 -50.43   0
       379    773.0530    338.5865 307.6107060  +6.5612006     2540.774     4624.703     4709.144     84.96769      170.821     341.4041      1.859     4.59     1018.742     60.22594     347.6692        27     1.568     1.081 -50.11   0
       380    928.4547    338.1779 307.5461296  +6.5665534     776.0093     1214.484     1417.961     85.10419     170.8889     341.4721      1.946     5.34     1012.606     60.22594      117.895         8     1.481     0.543 -51.47   0
       381    166.0879    330.6357 307.8632376  +6.5441578     824.7521     1659.359     1459.788     85.64799      170.753      341.676      2.046     6.08     1036.123     60.22594      93.6637        11     1.392     0.746 -65.41   0
       382    393.9457    324.1323 307.7687589  +6.5544896     5462.979     10585.22     11548.89     85.64799      170.821      341.574      2.071     4.63     1023.938     60.22594     614.0049        40     1.815     1.231 -53.20   0
       383    250.1465    324.6687 307.8285050  +6.5494450      1681.59     3290.991      3556.28     85.51236      170.821      341.574      2.031     6.16     1030.477     60.22594     197.4034        23     1.738     0.937 -53.77   0
       384    761.7359    319.9523 307.6160372  +6.5685197     43500.64     77764.61     83557.12     85.51236      170.753     341.7099      1.924     4.43     1017.724     60.22594     5358.005        79     1.889     1.288 -51.30   0
       385    433.3110    319.4761 307.7525554  +6.5577318     1671.715     3436.369     3296.154     85.64799     171.2282     341.7439      2.108     6.18     1021.944     60.22594     177.0519        25     1.642     1.085 -57.70   0
       386    579.1824    317.4455 307.6919966  +6.5634539     970.7794     1673.002     1647.348     85.10419      170.753     341.4041      2.001     6.25     1018.137     60.22594     128.5581        13     1.309     0.839 -45.72   0
       387    996.3690    317.2543 307.5186048  +6.5774590     1416.309     2224.265     1931.022     85.51237     170.9568      341.608      1.685     4.68     1010.098     60.22594     183.7637        15     1.348     0.852 -39.22   0
       388    937.4655    316.1976 307.5431233  +6.5759328     1870.352     3329.012     3862.586     84.96769      170.617     341.4381      1.868     5.10      1011.63     60.22594     258.9066        21     1.569     0.911 -54.43   0
       389    470.3240    316.5265 307.7372717  +6.5601899     867.5012     1589.901     2181.483      85.9186     171.1604     341.7099      1.970     4.05      1019.81     60.22594     114.7456         9     0.917     0.768  26.02   0
       390    420.2172    315.0972 307.7581454  +6.5591018     1500.592     3158.425     3431.635     85.51236      170.685     341.4381      2.167     5.48     1022.468     60.22594     175.3248        27     1.573     1.209 -41.64   0
       391    841.4152    309.4124 307.5832741  +6.5755326      975.851     1726.248     1334.041     85.51237      170.549      341.608      1.902     6.40     1015.089     60.22594     138.9393        11     1.288     0.893 -79.03   0
       392    760.1851    304.5284 307.6172011  +6.5748387     5078.678     9001.073     9875.196     85.10419      170.753     341.5401      1.910     4.25     1016.759     60.22594     667.0037        39     1.732     1.132 -49.61   0
       393    196.8460    306.1757 307.8512829  +6.5552937     1706.541     3268.637     3502.412     85.24046     170.8889     341.5401      2.059     5.58     1033.718     60.22594     195.2778        20     1.470     0.993 -60.05   0
       394    450.7851    306.6086 307.7457275  +6.5636320     738.9958     1453.884      1349.71     85.37652      170.617     341.5401      1.886     4.14     1020.311     60.22594     109.9907         7     1.018     0.481  -5.12   0
       395     92.9123    304.0004 307.8945517  +6.5526999     905.3004     1885.604     2220.548     84.83098     170.3447     341.3361      2.370     5.63     1037.343     60.22594      129.027        11     1.155     0.946 -50.77   0
       396    776.3469    302.4689 307.6105530  +6.5762290     2258.277     3912.185      4285.47     85.51237      170.821      341.574      1.914     4.79     1016.372     60.22594     272.2158        25     1.638     1.001 -45.95   0
       397    365.8275    297.5068 307.7813453  +6.5645444     1523.945     3363.335     3956.966      85.7834      170.617     341.5401      2.249     7.41     1024.086     60.22594      158.725        28     1.737     1.252 -35.82   0
       398     80.1208    297.5337 307.9000871  +6.5549408     990.0028     1856.664     2018.532      85.7834     171.0247      341.642      1.967     6.64     1037.697     60.22594     150.1829        15     1.461     0.848 -74.72   0
       399   1014.7431    293.3589 307.5117703  +6.5879410     5415.466     8827.272     9327.403     85.64799     170.8889     341.7099      1.742     4.29      1008.42     60.22594     781.4399        31     1.658     0.923 -51.60  16
       400    492.9195    293.2945 307.7286650  +6.5705424     1576.218     2808.405     3090.308     85.37652     171.1604     341.7779      1.876     5.40      1017.49     60.22594     179.9553        19     1.373     0.992 -42.59   0
       401    255.5538    288.9166 307.8274676  +6.5643934     4435.545     8456.479     9721.496     85.64799     170.8889      341.676      2.089     4.74     1029.052     60.22594      475.604        41     1.849     1.230 -54.81   0
       402    775.3478    282.2104 307.6116504  +6.5845634     669.2477     1033.843     1016.035     84.96769      170.753     341.4041      1.687     5.97     1015.206     60.22594     121.0024         8     1.335     0.750   9.82   0
       403    389.8403    280.0034 307.7719567  +6.5725790     1206.259     2219.476     1986.658     84.83098      170.617     341.3701      1.829     5.35     1022.202     60.22594     181.3325        11     1.152     0.738 -52.59   0
       404    976.5086    278.3721 307.5281663  +6.5928578     890.0529     1452.967     1309.746      85.7834      170.617     341.5401      1.667     5.53     1008.908     60.22594     131.8234        11     1.351     0.637 -52.95   0
       405    159.4811    275.6421 307.8678463  +6.5666500     1416.652     2539.066     2848.326     85.64799     170.8889      341.642      2.013     7.58     1035.516     60.22594     182.4569        20     1.857     0.865 -45.79   0
       406    312.6827    274.9790 307.8041953  +6.5720670     819.2898     1558.389     1528.748     85.37652      170.549      341.608      2.046     5.54     1025.504     60.22594     103.4396        10     1.093     0.793 -57.36   0
       407    912.5434    270.4760 307.5550194  +6.5939875     1603.485     2623.596     2725.516     85.64799      170.821      341.608      1.889     4.73     1010.692     60.22594     215.2167        16     1.247     0.918 -52.25   0
       408    569.2137    271.1805 307.6977008  +6.5822300     1759.276     3234.406      3734.07     85.37652      170.617      341.574      2.008     5.46     1015.342     60.22594      200.267        20     1.413     1.034 -58.50   0
       409    732.6539    268.6626 307.6298524  +6.5887337     4071.473     7339.975     7760.821     85.64799      170.821      341.642      1.918     4.57     1014.973     60.22594     482.9039        33     1.695     1.098 -51.92   0
       410    673.3092    268.6586 307.6545191  +6.5867525     1640.331     3034.406     2935.966     85.51237     170.8889     341.8118      1.961     5.61     1015.658     60.22594     188.5898        20     1.541     0.970 -38.40   0
       411    928.8983    260.6193 307.5485528  +6.5986041     1028.859     1761.299     1759.497     85.51236      170.753     341.4041      1.852     4.73     1009.707     60.22594     172.2125        10     1.340     0.596 -46.31   0
       412    232.3108    254.2763 307.8383005  +6.5779207     1749.832     3187.087     3352.583     85.64799     171.1604     341.7439      1.942     5.94     1029.957     60.22594     196.8297        26     1.755     1.041 -64.39   0
       413    874.7536    252.8903 307.5713186  +6.5999912     1371.468     2280.068     2262.764     85.64799      170.753     341.8118      1.668     4.92     1011.481     60.22594     216.1168        18     1.567     0.865 -47.39   0
       414    765.3213    252.5242 307.6168176  +6.5964905     1349.151     2600.017     3048.978      85.9186     171.1604     341.7779      2.105     4.78     1013.822     60.22594     182.0046        16     1.428     0.859 -47.28   0
       415    466.3505    243.6946 307.7413831  +6.5901395     17067.53        32644     36963.96     85.51237      170.753     341.8458      2.131     5.04     1014.868     60.22594     1879.235        77     2.483     1.341 -45.56   0
       416    326.5937    246.2090 307.7993866  +6.5844167     461.9734     1090.896     744.8849     84.96769      170.685     341.5061      1.739     4.07     1024.221     60.22594     82.76587         5     1.192     0.398  75.15   0
       417    792.0920    242.9537 307.6060123  +6.6013374     10614.12     19074.53     21704.96     85.64799      170.821     341.8118      1.973     4.53     1012.959     60.22594     1321.098        53     1.848     1.271 -46.03   0
       418    730.8105    238.6055 307.6316312  +6.6010871     583.5428     1035.062     951.7797     85.10419      170.617      341.574      1.881     5.18     1013.661     60.22594     64.89484         5     1.014     0.747 -81.52   0
       419    154.3727    237.4237 307.8712643  +6.5822638     1783.402     3436.921     3534.181     85.10419      170.753     341.5061      2.040     5.38     1033.339     60.22594     241.0336        21     1.622     0.926 -48.49   0
       420    129.4178    236.8064 307.8816571  +6.5816801     1033.733     1868.198     2132.792     85.24046      170.617     341.5061      1.951     6.78     1034.748     60.22594     124.3065        14     1.366     0.945 -54.09   0
       421    180.5902    235.5336 307.8604316  +6.5839252     733.6345     1187.741     1192.648     85.10419     170.6851      341.608      1.995     5.72      1031.93     60.22594     101.1036         8     1.098     0.840  39.90   0
       422    928.3821    233.3968 307.5496826  +6.6098312     1329.221     2145.883     2272.879     85.24046     170.4128     341.4721      1.674     5.03     1008.482     60.22594     189.2025        15     1.462     0.748 -43.39   0
       423    590.1399    229.6702 307.6904034  +6.6000757     3574.145     6656.689     7138.874      85.7834     170.8889     341.7099      2.009     4.67     1013.345     60.22594     432.9756        35     1.753     1.181 -51.99   0
       424    552.7529    229.5552 307.7059474  +6.5988723     1603.473     3034.014     3426.423     85.64799      170.821      341.676      2.007     6.13     1013.357     60.22594     193.5974        26     1.651     1.161 -54.98   0
       425    394.5357    228.7628 307.7717371  +6.5939007     1100.664     2127.138     2157.586     85.51237     170.8889     341.7439      2.040     6.90     1019.164     60.22594     132.3164        17     1.574     0.847 -43.60   0
       426    951.0483    226.7397 307.5404847  +6.6133364     2279.067     3682.651     3759.711     85.64799      170.821     341.7439      1.766     4.48     1007.375     60.22594      330.187        22     1.530     0.928 -56.38   0
       427    897.1715    226.1640 307.5628992  +6.6117781     9497.457     16255.92     17302.29     85.24046      170.617     341.4721      1.825     4.27     1009.564     60.22594     1295.728        42     1.709     1.094 -49.57   0
       428    983.7330    224.0632 307.5269884  +6.6155310     8682.933      14198.6     15035.43     85.64799     170.8889      341.676      1.747     4.46     1006.044     60.22594     1206.524        35     1.640     1.005 -53.69   0
       429    325.0894    225.8643 307.8007000  +6.5927693     707.0353     1292.398     1153.063     85.51236     171.0926     341.7099      2.006     7.12     1023.897     60.22594      103.114        10     1.617     0.878 -50.12   0
       430    695.0944    224.0708 307.6469668  +6.6058974     2179.006     3751.593     3862.433     85.64799     170.9568      341.676      1.860     4.61     1014.306     60.22594     256.7505        23     1.507     0.965 -48.64   0
       431    572.5637    225.5386 307.6978485  +6.6011942     707.2528     1268.246     953.8762     85.64799     170.8889      341.642      1.975     5.04     1013.158     60.22594     113.5311         7     1.321     0.731 -53.65   0
       432     23.3803    222.8675 307.9262012  +6.5838715     19827.07     37834.51     41648.43     85.24046     170.8889      341.574      2.044     4.72     1039.209     60.22594     2247.927        66     1.936     1.341 -52.21   0
       433    269.8405    223.6065 307.8237401  +6.5918482     813.8494     1639.978     1372.985     84.96769      170.549     341.3361      1.996     6.91     1027.417     60.22594     121.8329        10     1.400     0.955 -71.88   0
       434    503.7741    218.9143 307.7266649  +6.6016280     1365.386     2584.379     2971.153      85.7834      170.617     341.5401      2.051     7.43     1012.352     60.22594     175.8459        19     1.573     0.984 -47.61   0
       435    835.7179    215.5170 307.5888021  +6.6141260     1729.797     2815.667     2812.866     85.37652     171.1604     341.7779      1.685     4.08      1010.98     60.22594     266.6532        21     1.436     0.939 -52.10   0
       436    888.1662    214.6610 307.5670294  +6.6162292     1609.437      2730.34     2790.264     85.37652     170.9568      341.608      1.838     4.82     1009.344     60.22594     211.7242        17     1.520     0.771 -39.41   0
       437    515.9263    214.7102 307.7217557  +6.6037713     1871.134     3774.797     3583.974     85.64799     171.1604     341.7099      2.019     5.72      1012.41     60.22594     209.9642        26     1.650     1.069 -59.14   0
       438    350.3859    211.7292 307.7906637  +6.5994560     4670.319     10657.35     12779.01     85.10419      170.753      341.574      2.457     6.65     1021.969     60.22594     477.2045        55     2.318     1.337 -65.96   0
       439    747.3051    212.0945 307.6256680  +6.6125883     32287.95     58217.35     62775.47     85.64799     171.5668      341.574      1.940     4.48     1012.313     60.22594     3792.181        71     1.861     1.283 -50.00   0
       440    981.0790    210.8874 307.5285344  +6.6208849     2649.854     4216.983     4479.834     85.37652     171.1604     341.8118      1.694     4.37      1005.53     60.22594     354.7616        20     1.450     0.785 -51.58   0
       441   1019.2576    209.5862 307.5127079  +6.6226941     1630.409     2671.365      2756.86      84.9677      170.753      321.189      1.645     4.34       1004.2     60.22594     255.1247        17     1.535     0.734 -46.07  16
       442    915.1629    209.1167 307.5559940  +6.6194194     6565.381     10942.31      11433.4     85.64799      170.821      341.608      1.738     4.39     1007.799     60.22594     847.7297        35     1.637     1.026 -52.42   0
       443    458.7983    208.3506 307.7457161  +6.6044850     3871.405      7294.71     8285.943     84.96769     170.4809     341.2341      2.024     4.79     1013.438     60.22594     444.7655        35     1.808     1.132 -54.83   0
       444    233.2256    205.1906 307.8395821  +6.5982255     615.8824     1246.094     1330.823     85.24046      170.685     341.5401      2.013     5.44     1029.035     60.22594     82.85083         5     1.152     0.726   9.09   0
       445    116.3155    199.6109 307.8883634  +6.5966026     3754.509     7077.837     7754.659     85.24046      170.617     341.5061      2.004     4.81     1034.214     60.22594     421.1771        39     1.720     1.278 -53.20   0
       446    261.7717    197.4185 307.8279801  +6.6023939     5009.982     9873.847     10414.96     85.24046     170.6851      341.608      2.073     4.94      1027.73     60.22594     530.4288        42     1.739     1.309 -51.28   0
       447    935.7416    198.3785 307.5478008  +6.6245408     723.2012     1313.072     1979.843     85.24046      170.753     341.4721      1.979     6.04     1006.344     60.22594     124.4374         9     1.615     0.635 -50.41   0
       448    286.4708    196.3741 307.8177494  +6.6036542      25311.6     49790.36     54984.61     85.24046      170.753      341.608      2.099     4.88     1026.685     60.22594     2751.259        73     1.940     1.440 -51.15   0
       449    410.5336    191.8407 307.7663355  +6.6096871     37560.61     72825.09     79672.37     85.64799      170.821     341.7779      2.090     4.78     1016.049     60.22594     3875.672        83     1.983     1.432 -51.72   0
       450    716.2928    195.7943 307.6391081  +6.6182852      684.592     1287.087     1599.002     85.24046      170.549     341.4721      1.872     4.52     1012.471     60.22594     106.0005         6     0.965     0.602 -27.37   0
       451    166.4372    193.3921 307.8677416  +6.6008555     2991.916     5892.131     6117.692     84.83098      170.617     341.4041      2.057     5.21     1031.163     60.22594     356.8812        34     1.774     1.173 -48.24   0
       452    428.1430    192.9206 307.7589795  +6.6098312     905.2878     1645.099     1776.308     85.64799     170.8889      341.676      2.128     5.15     1014.861     60.22594     115.1354         9     1.106     0.677 -14.90   0
       453    314.5596    189.6042 307.8063033  +6.6073929     13407.17        26590     30244.94     84.83098      170.617     341.3701      2.124     4.89      1024.56     60.22594     1470.624        65     1.965     1.440 -53.60   2
       454    322.2693    189.1599 307.8031138  +6.6078350     1588.848     3349.549     4266.004     85.51236     170.8889     341.7779      2.307     6.51     1024.019     60.22594     174.8701        27     1.694     1.181 -56.98   3
       455    749.7368    188.0254 307.6254680  +6.6226112     26728.64     48155.64      51438.5     85.24046     170.8889      341.574      1.905     4.37     1011.618     60.22594     3371.736        62     1.817     1.264 -52.46   0
       456    698.0980    189.9046 307.6468698  +6.6201100     727.6045     1432.054     1332.817     85.64799     171.4991     341.5061      2.085     5.74     1012.585     60.22594     97.33105         7     1.130     0.822  75.92   0
       457    798.0421    188.4053 307.6053757  +6.6240671     957.0427     1833.168      1924.91     84.96769      170.549     341.3701      1.974     6.03     1011.019     60.22594     130.8991        14     1.424     0.964  -1.67   0
       458     66.7756    185.3855 307.9094362  +6.6008123     7155.633     13871.62      14742.3     85.37652      170.685      341.608      2.049     4.88     1036.962     60.22594      799.861        49     1.902     1.252 -54.78   0
       459     38.8671    188.1248 307.9209431  +6.5987421     544.0797     550.0883     251.4096      85.7834     171.0247      341.676      1.457     3.75     1039.068     60.22594     107.7247         5     1.050     0.384 -33.74   0
       460    100.5644    183.5436 307.8954548  +6.6027093      1207.33     2057.753      2437.71     85.51237     170.8889     341.7099      1.924     7.03     1034.395     60.22594     178.1169        16     1.498     0.925 -52.87   0
       461   1008.5440    181.9362 307.5180904  +6.6337582      872.571     1484.059     1791.179      85.7834      170.821      341.676      1.765     6.91     1003.321     60.22594     117.5791        14     2.093     0.640 -55.89   0
       462   1009.3322    168.2788 307.5182217  +6.6394256     1931.682     3246.215     3629.855      85.7834     171.0247      341.676      1.766     4.65     1002.713     60.22594     284.1279        17     1.525     0.738 -58.83   0
       463    600.6338    164.5638 307.6882379  +6.6273184     1557.866     2646.026     3221.877     85.37653      170.617     341.4041      1.861     5.89     1011.042     60.22594     174.1768        21     1.591     0.977 -43.34   0
       464    592.3213    166.2017 307.6916380  +6.6263639     775.5906     1238.302      1658.81     84.96769     170.2766     341.4381      2.124     4.83     1011.076     60.22594     111.4999         9     1.274     0.543 -35.88   0
       465    285.3608    162.6482 307.8193520  +6.6175469     22988.15     44937.43     49132.16     85.51237     170.9568     341.5061      2.090     4.80     1026.739     60.22594     2454.785        69     1.968     1.388 -50.28   0
       466    345.7343    164.2573 307.7942026  +6.6189077     889.4353     1452.288     1361.731      85.7834      170.821     341.7099      1.821     4.76     1022.065     60.22594     129.6752        10     1.149     0.968   5.49   0
       467     30.6927    161.1915 307.9252544  +6.6095913     3630.659      6843.47     7783.876     85.24046      170.549     341.4721      2.062     5.34     1040.234     60.22594      395.738        38     1.883     1.199 -53.76   0
       468    194.4330    160.9464 307.8572044  +6.6151970     665.2085     1209.708     978.8185     85.51236      170.821      341.642      1.988     4.90     1029.775     60.22594     99.52124         8     1.482     0.459 -51.19   0
       469    716.9838    159.1835 307.6400546  +6.6334302     6442.979     11642.21     12788.25     85.37652      170.549      341.608      1.927     4.42     1011.029     60.22594     761.4911        38     1.723     1.131 -51.23   0
       470    127.8009    156.4840 307.8850514  +6.6148012     3766.067     7347.682     7995.394     84.83098     170.4128     341.3701      2.048     4.96     1031.944     60.22594     420.8812        38     1.796     1.246 -59.00   0
       471    398.5124    152.4991 307.7726621  +6.6255338     2868.982     5991.403     6380.066     85.64799     171.3637     341.7099      2.239     5.47     1015.803     60.22594     331.9395        39     1.876     1.292 -67.09   0
       472    589.8862    154.1710 307.6930561  +6.6312516     678.5367     1246.388     1921.953      85.7834      170.549     341.5401      2.367     5.53     1010.757     60.22594     102.6007         7     1.307     0.660 -61.15   0
       473    467.0070    153.8347 307.7441457  +6.6272772     866.1305     1575.599     1331.122     85.10419      170.685     341.4381      1.808     6.49     1011.566     60.22594     113.5074        12     1.328     0.889  -2.46   0
       474    362.9541    151.3483 307.7874815  +6.6248170     2344.214     4770.463     4659.053      85.7834      170.821     341.7439      2.119     4.92     1020.187     60.22594     298.7614        32     1.667     1.231 -51.79   0
       475    117.2970    151.1944 307.8895966  +6.6166329     1317.063     2509.214     2661.555     85.37652      170.549     341.4381      2.011     7.59     1032.311     60.22594     145.1842        21     1.700     0.948 -60.80   0
       476    945.3363    150.8038 307.5454120  +6.6445114     494.9769     938.0822     708.2924     84.96769      170.617     341.4381      2.239     3.94     1003.615     60.22594      95.3924         6     1.943     0.228 -42.34   0
       477   1009.7301    145.2030 307.5188316  +6.6489703     1315.923     2020.404     2076.509     85.10419     170.4809     341.4721      1.615     5.14     1001.505     60.22594     227.6524        13     1.389     0.685 -52.02   0
       478    214.9168    140.1472 307.8493946  +6.6244757     4068.902      8130.35     8910.278     85.64799     170.8889     341.8118      2.154     5.28     1029.301     60.22594     434.1726        41     1.855     1.284 -56.08   0
       479     97.8624    139.8177 307.8980603  +6.6206784     1546.882     3123.468     3515.232     85.24046      170.821     341.5061      2.240     8.68     1032.747     60.22594     203.0865        24     1.967     1.069 -50.03   0
       480    676.6116    138.9344 307.6575194  +6.6404449     4965.976     9070.043     9158.973     85.10419      170.685     341.5401      1.908     4.49     1010.743     60.22594     550.4537        36     1.738     1.111 -47.65   0
       481    824.3280    139.0388 307.5961109  +6.6453352     827.5211     1523.468     1342.091     85.51236     170.8889     341.7439      1.771     5.85     1007.759     60.22594     119.9577         9     1.455     0.663 -35.49   0
       482    628.7253    136.2656 307.6775153  +6.6399463      7476.32     13875.53     15644.44      85.7834     170.8889      341.676      2.037     4.46     1010.555     60.22594     836.8054        49     1.860     1.302 -47.64   3
       483    632.2473    127.7068 307.6763399  +6.6435992     41999.94     78026.88     85434.76     85.51237      170.821     341.8118      1.982     4.53      1010.41     60.22594     4925.647        80     1.917     1.367 -51.57   3
       484     28.1045    135.0416 307.9272173  +6.6203047     760.8439     1681.207     1777.344     85.64799      170.821     341.8118      2.309     6.84     1039.072     60.22594     107.5242        10     1.486     0.881 -38.75   0
       485    355.8583    132.2315 307.7910776  +6.6324749     2898.039     5824.801     6332.433     85.51236     170.8889      341.608      2.134     5.08     1020.874     60.22594     318.9862        34     1.761     1.187 -55.68   0
       486    537.8069    131.4050 307.7154730  +6.6389122      1279.43     2277.085     2646.096     84.96769      170.617     341.5061      1.904     4.80     1010.063     60.22594       195.21        14     1.431     0.787 -43.11   0
       487    311.3932    121.5513 307.8099219  +6.6353947     2691.874     5473.455     6386.296     85.10419     170.6851     341.2681      2.162     5.54     1025.527     60.22594     318.1228        33     1.768     1.175 -53.41   0
       488      8.8466    104.5941 307.9362551  +6.6322321     738222.3      1874561      2122521     84.96769      170.685     341.3021      2.422    12.50     1038.998     60.22594     61652.04       414     2.439     1.784 -56.44  28
       489    711.3796    115.5092 307.6438561  +6.6512824     774.5367     1031.045     873.9973     85.51237     170.6851     341.5401      1.702     5.06     1009.259     60.22594     100.1699         7     1.111     0.652 -44.93   0
       490    682.8461    114.6688 307.6557458  +6.6506760     1092.395     1831.962     1312.105     85.64799      170.821      341.676      1.752     5.50     1009.965     60.22594     134.2493        11     1.311     0.652 -76.49   0
       491    696.5865    111.8428 307.6501292  +6.6523025     2546.132     4584.721      4739.75     84.96769      170.685     341.4041      1.884     4.77     1009.485     60.22594     315.1584        27     1.703     1.049 -54.59   0
       492    438.4346    102.7586 307.7577484  +6.6474163      3109.44     6007.812     6454.037     85.37652     170.8889     341.4721      2.051     4.83     1012.385     60.22594     349.1481        32     1.672     1.166 -55.93   0
       493    892.8049     99.0012 307.5689920  +6.6641571     1747.438     2831.822     2478.223     84.96769     170.4128     341.4381      1.656     4.92       1002.8     60.22594     234.7103        18     1.475     0.916 -48.26   0
       494    910.9979     97.9852 307.5614631  +6.6651834     3376.453      5715.75     5869.667     85.24046      170.549     341.4721      1.756     4.18     1002.218     60.22594      453.365        27     1.546     0.993 -46.20   0
       495    603.0942     96.6384 307.6895068  +6.6554568     1359.401     2435.946     2427.754      85.7834      170.753     341.8118      1.911     5.77     1009.727     60.22594     158.6099        21     1.577     0.965 -48.55   0
       496    401.8716     94.6068 307.7732228  +6.6495580     1536.204     2784.525     2963.705     85.10419     170.4128      341.608      1.867     4.76     1015.286     60.22594     184.9344        19     1.218     1.142 -85.53   0
       497    249.1846     96.0249 307.8366446  +6.6438501     714.8536     1309.947     1488.743     85.37652      170.685      341.608      1.955     5.43     1028.936     60.22594     84.08496         6     1.088     0.765 -24.42   0
       498    149.7717     91.5270 307.8781205  +6.6423686      2448.24      4826.31      4665.31     85.51237     170.8889      341.608      2.073     5.29     1030.115     60.22594     266.7056        29     1.716     1.087 -52.76   0
       499     31.6472     89.3857 307.9272938  +6.6392808     9731.099     18660.96     21103.78      84.9677     170.6851     341.4041      2.084     4.70      1035.93     60.22594     1123.085        57     1.930     1.330 -55.02   0
       500    297.9624     89.8296 307.8165782  +6.6480462     1002.737     1917.525     2032.745     85.24046      170.617     341.5401      2.007     6.66     1027.594     60.22594      121.299        15     1.281     0.971 -48.59   0
       501    558.6227     89.6452 307.7082297  +6.6568573     680.4482     1223.169     1485.983     85.24046     170.8889     341.5061      1.845     4.89     1009.088     60.22594     97.42999         6     0.947     0.716  86.62   0
       502    833.2614     83.8824 307.5942540  +6.6684155     5262.504     9080.466     10016.11      85.7834     170.8889      341.676      1.891     4.35     1004.221     60.22594     641.1173        36     1.722     1.077 -44.32   0
       503    778.4178     84.3175 307.6170387  +6.6664051     2755.618     4966.995     5216.449     85.24046      170.549      341.642      1.850     4.61     1005.917     60.22594     373.2872        30     1.633     1.057 -51.32   0
       504    423.6455     84.8699 307.7645008  +6.6543094     846.3434     1494.465       1462.5     85.64799      170.821      341.676      1.855     6.55     1013.156     60.22594     139.6901        10     1.420     0.849 -40.84   0
       505     71.8853     81.4733 307.9108366  +6.6439025     2585.556     4759.841     5597.873      85.7834     171.2282     341.7099      2.071     4.84     1032.572     60.22594     301.2594        29     1.650     1.111 -49.03   0
       506    540.8444     82.8219 307.7158505  +6.6590806     1036.459      1873.85     2359.378     85.10419      170.753     341.4721      2.054     4.49     1009.002     60.22594     171.4529        12     1.183     0.811 -59.30   0
       507    595.8742     78.2740 307.6931278  +6.6628005      917.603     1569.397     1323.791      85.9186     171.1604     341.7779      1.690     5.55      1009.01     60.22594     115.6011        11     1.092     0.796 -55.17   0
       508     14.4950     76.7175 307.9348533  +6.6439359     2152.972     4024.374     5514.088     85.37652     171.2282     341.8118      2.487     4.97     1036.065     60.22594     258.9343        28     1.708     1.095 -56.73   0
       509    773.0161     72.0118 307.6196988  +6.6713075     1519.051     2671.763     2804.463     85.51236      170.549      341.574      1.907     5.21     1005.504     60.22594     207.8448        23     1.569     1.143 -58.57   0
       510    111.7414     70.6526 307.8946363  +6.6497119      689.393       1085.3     2032.499     85.64799     170.8889      341.676      1.922     3.40     1030.504     60.22594     88.24268         5     1.189     0.282 -54.96   0
       511     99.6872     65.5074 307.8998214  +6.6514317     7654.454     14343.34     15370.39     85.64799     171.3637     341.7779      2.031     4.58     1030.552     60.22594     900.4742        49     1.848     1.299 -54.63   0
       512    428.7309     65.3893 307.7630452  +6.6625260     2144.683     4174.983      4292.38     85.10419     170.6851     341.4721      1.984     5.39     1012.865     60.22594     295.8011        27     1.840     0.998 -41.75   0
       513    266.6306     59.3030 307.8306357  +6.6596030     1097.479     2154.321      3555.75      85.7834      170.617     341.7439      3.252     7.08     1029.052     60.22594     136.9618        17     1.499     0.937 -56.99   0
       514    642.4208     57.4573 307.6744801  +6.6729554     14811.06     26540.62     28976.57     85.24046      170.821     341.4721      1.932     4.43     1007.908     60.22594     1733.791        55     1.816     1.258 -49.27   0
       515    542.2606     53.5778 307.7162491  +6.6712069     4207.033     7846.721     8346.036     85.24046      170.821      341.574      2.008     4.55     1008.905     60.22594     458.7881        37     1.750     1.191 -48.25   0
       516    260.5401     53.6739 307.8333581  +6.6617236     1706.805     3270.258     4996.963      85.7834     170.8889      341.676      2.451     6.26     1029.102     60.22594     188.1357        25     1.747     1.008 -49.87   3
       517    268.3437     49.5384 307.8302542  +6.6636936     7206.348     13572.67     15638.35      85.7834     170.8889     341.7099      2.095     4.63     1029.112     60.22594     855.7493        49     1.870     1.324 -51.72   3
       518    628.7738     47.7937 307.6804794  +6.6764905     2765.831     5418.661      6433.46     85.10419      170.685     341.4721      2.238     6.05      1007.61     60.22594     312.8077        32     1.867     1.280 -85.27   0
       519    447.7583     49.1233 307.7556851  +6.6698820     17360.24      33389.5     36379.56     85.51236     170.8889     341.7099      2.056     4.75      1011.76     60.22594     1949.145        62     1.892     1.368 -48.79   0
       520     10.4279     51.4938 307.9373999  +6.6542169     894.7795     1702.041     1517.888      85.7834      170.617      341.574      2.091     5.00     1033.584     60.22594     120.0474         9     1.125     0.629 -56.65   0
       521    328.5875     50.0549 307.8051934  +6.6655019     718.5906      1375.08     1262.939     84.96769      170.821     341.3701      2.154     4.55     1023.971     60.22594     116.5127         7     0.965     0.820  53.79   0
       522     33.9928     49.2968 307.9276791  +6.6559173     1932.883     3299.837     3100.351     85.37652     170.4809     341.4041      1.792     4.51     1032.508     60.22594     246.0414        22     1.429     1.003 -51.77   0
       523    925.4359     49.2673 307.5570995  +6.6857875     1837.049     3072.992     2912.893     85.51237     171.0247     341.7439      1.752     4.76     1000.042     60.22594     219.1712        19     1.489     0.840 -52.93   0
       524    561.4083     49.3604 307.7084315  +6.6735897     603.3086     1076.147     566.4931      84.9677     170.6851     341.4041      1.658     5.55     1008.595     60.22594     87.75629         6     1.111     0.781 -44.96   0
       525    256.5774     46.1060 307.8352616  +6.6647163     2450.794     4556.672     5273.236     85.64799      170.685     341.5401      1.990     5.39     1029.157     60.22594     281.9655        28     1.743     1.053 -42.96   0
       526    309.3737     44.7594 307.8133598  +6.6670445     796.3515     1300.247     1563.039     85.24046     170.6851     341.4721      1.679     6.15     1026.552     60.22594     114.2827        11     1.213     0.877  20.74   0
       527    945.8377     39.4769 307.5489470  +6.6905115     780.1462     1400.566     2124.778     85.51236     170.9568      341.676      2.063     5.89     998.2783     60.22594     113.5419        13     1.670     0.584 -53.18   0
       528    697.7215     38.7629 307.6521208  +6.6825255     1469.278     2574.123     2403.958     85.51237     170.9568      341.676      1.834     5.20      1006.03     60.22594     171.9797        15     1.311     0.810 -53.13   0
       529    185.8324     31.6938 307.8651581  +6.6682930     8243.437     15523.85     16676.04      85.7834      170.753     341.7439      2.004     4.85     1029.643     60.22594     905.4574        47     1.858     1.252 -50.38   0
       530    530.0291     29.8430 307.7221354  +6.6806008     2292.673     4377.851     4452.126     85.24046     170.8889     341.5401      1.994     5.13     1009.033     60.22594       258.13        28     1.721     1.056 -49.85   0
       531    264.3748     32.2190 307.8324903  +6.6707138     579.7375     1120.985     1728.647     85.10419      170.685      341.608      2.244     3.44     1029.237     60.22594     84.66211         5     0.773     0.444  72.21   0
       532    931.3435     29.2427 307.5553170  +6.6942556     3539.047     5911.762     6333.721     85.51237      170.821      341.676      1.789     4.80     999.0236     60.22594     478.0352        28     1.587     1.000 -50.68   0
       533    732.3869     28.0446 307.6380707  +6.6881109     1596.357     2891.281     3499.938     84.96769      170.685     341.4041      1.908     4.98     1004.638     60.22594     194.4147        18     1.422     0.917 -41.44   0
       534    468.5858     27.9182 307.7477435  +6.6793382      1408.89      2511.92     3043.931     85.24046      170.617     341.4721      2.063     5.61     1010.538     60.22594     156.2677        16     1.226     1.006 -89.41   0
       535     86.9701     28.7740 307.9063534  +6.6661758     488.8857     520.9147     879.1191     85.10419      170.685     341.5061      1.429     3.85     1029.991     60.22594     73.46741         5     0.825     0.517 -54.58   0
       536    996.0114     25.6064 307.5285541  +6.6979127     1963.669     3157.834     3337.203     85.24046      170.685      341.574      1.775     4.69     993.4651     60.22594     261.9489        20     1.568     0.792 -52.25   0
       537    979.8989   1021.1588 307.5018113  +6.2861563     645.8358     1294.663     1148.852     85.64799     167.4585     297.7867      1.943     6.29     1038.656     60.22594     103.6337         9     1.391     0.798 -46.67  16
       538    522.8198   1014.7681 307.6918978  +6.2735400     1050.791     1811.282     1485.761     85.10419      170.685     341.5061      1.667     5.61     1050.842     60.22594     159.7046        12     1.526     0.581 -60.29  16
       539    757.0167   1012.8387 307.5946779  +6.2821623     7699.111     12269.99     12807.31     85.24046      170.753     341.4381      1.680     4.37     1045.241     60.22594     1054.672        34     1.638     0.962 -52.25   0
       540    552.4937   1013.4288 307.6796167  +6.2750858     3827.365     6197.845     7045.693      85.7834      170.617      341.574      1.766     4.78     1050.242     60.22594     519.9629        23     1.631     0.815 -55.18  16
       541    682.2709     17.1876 307.6592715  +6.6909206     484.8234     600.3346     259.2802     85.10419      170.617     341.4721      1.475     3.46     1005.304     60.22594     93.52106         5     0.980     0.352 -45.18   0
       542    302.8196   1012.1334 307.7833717  +6.2672609     13938.79     23002.36     25627.55     85.24046     170.8889      341.574      1.797     4.72     1052.203     60.22594     2116.449        55     1.997     1.026 -47.15  16
       543    818.1435   1012.0007 307.5693136  +6.2845480     1137.231     1887.148     1746.592     84.83098      170.549     341.3701      1.545     5.61     1044.082     60.22594     180.4373        12     1.378     0.751 -55.79   0
       544    426.7823   1012.9786 307.7318512  +6.2710650     968.9653     1310.965     1329.841     85.37652      170.685      341.608      1.426     4.80     1051.041     60.22594     152.3118         9     1.113     0.587 -36.12   0
       545    274.3574   1009.1968 307.7952935  +6.2675196     845.4174     1437.206     1055.913     84.96769     170.4809     341.3361      1.817     6.35     1052.237     60.22594     121.5714        11     1.498     0.755 -68.90   0
       546    918.3403   1006.2893 307.5278828  +6.2902476     8766.779      13958.3     14040.45     85.51237     170.9568     341.7779      1.685     4.47     1041.702     60.22594     1270.747        35     1.604     0.984 -52.73   0
       547    549.7495   1005.5405 307.6810225  +6.2782522     8060.251     12647.85     13942.77     85.64799     170.8889      341.676      1.718     4.33     1050.114     60.22594     1115.523        32     1.643     0.923 -52.06   0
       548   1013.6854   1001.9604 307.4884202  +6.2952113     4906.217     7573.263     8141.388     85.64799      170.821      341.676      1.662     4.21      1035.91     60.22594     701.4586        27     1.600     0.881 -55.01  16
       549    891.9312   1002.4436 307.5389826  +6.2909559     12263.29     19667.92     20958.61     85.64799      170.821     341.7439      1.718     4.39     1041.968     60.22594     1807.225        44     1.708     1.042 -50.72   0
       550    604.8150   1003.1312 307.6582296  +6.2810885     1248.859     2037.703     2244.233     85.10419      170.753      341.574      1.707     5.04     1048.489     60.22594     170.4862        15     1.443     0.740 -65.51   0
       551    536.0339   1001.3854 307.6868599  +6.2795098     3820.618     6358.033     7061.274     85.24046      170.617     341.5401      1.761     4.31     1050.258     60.22594     501.1697        25     1.574     0.859 -51.14   0
       552    645.7786   1000.8251 307.6412909  +6.2834100     1297.726     2226.227     2694.123     85.24046      170.685      341.608      1.773     5.01       1047.6     60.22594     195.8239        11     1.400     0.533 -50.61   0
       553     71.0708   1000.2626 307.8800355  +6.2643862      906.659      1594.37     2014.798     85.64799     170.8889     341.7099      1.990     6.34      1052.14     60.22594     125.2291        11     1.176     0.961 -38.75   0
       554    489.2328    998.2601 307.7064063  +6.2792349     2022.942     3451.602     3520.411     85.37652     170.9568      341.608      1.814     4.43     1050.892     60.22594     313.7842        21     1.466     0.945 -44.15   0
       555    923.6942    989.9976 307.5262058  +6.2971554     43037.47     68293.08      71876.7     85.24046      170.549     341.3021      1.689     4.53     1040.689     60.22594     6463.447        65     1.725     1.063 -52.09   0
       556    230.9365    988.6080 307.8140257  +6.2745672     1465.174     2367.261     2946.823     85.10419      170.617     341.4721      1.755     5.56     1052.315     60.22594     247.2778        17     1.491     0.842 -60.18   0
       557    629.8135    986.6833 307.6483992  +6.2887178     793.3257     1085.509     583.5419     85.24046      170.617     341.5061      1.568     5.16     1047.577     60.22594     107.7694         8     1.262     0.596 -46.32   0
       558    821.5845    983.7415 307.5688342  +6.2963354      2339.45     3568.329     3925.975      84.9677      170.821     341.4041      1.648     4.25     1043.085     60.22594     327.4459        19     1.456     0.788 -56.74   0
